EXPID. 0265
[电化学]: CV : 0 >> 0.7 >> 0 >> 0(V) @ 0.01(V/s) X 10(Seg)
起始电位 (V),0
上限电位 (V),0.7
下限电位 (V),0
终止电位 (V),0
扫速 (V/s),0.01
电解液 信息:
KOH,1
0.001,1.689198E-05
0.002,1.704525E-05
0.003,1.716787E-05
0.004,1.719852E-05
0.005,1.732114E-05
0.006,1.750507E-05
0.007,1.778097E-05
0.008,1.787293E-05
0.009,1.793424E-05
0.01,1.805686E-05
0.011,1.811817E-05
0.012,1.827144E-05
0.013,1.83021E-05
0.014,1.851668E-05
0.015,1.870061E-05
0.016,1.879257E-05
0.017,1.888454E-05
0.018,1.900716E-05
0.019,1.906847E-05
0.02,1.916043E-05
0.021,1.928305E-05
0.022,1.937502E-05
0.023,1.955895E-05
0.024,1.968157E-05
0.025,1.983484E-05
0.026,2.001877E-05
0.027,2.008008E-05
0.028,2.017204E-05
0.029,2.032532E-05
0.03,2.035597E-05
0.031,2.050925E-05
0.032,2.060121E-05
0.033,2.075448E-05
0.034,2.084645E-05
0.035,2.096907E-05
0.036,2.112234E-05
0.037,2.124496E-05
0.038,2.127562E-05
0.039,2.145954E-05
0.04,2.155151E-05
0.041,2.167413E-05
0.042,2.179675E-05
0.043,2.191937E-05
0.044,2.201133E-05
0.045,2.219526E-05
0.046,2.222592E-05
0.047,2.240985E-05
0.048,2.250181E-05
0.049,2.259377E-05
0.05,2.27777E-05
0.051,2.280836E-05
0.052,2.286967E-05
0.053,2.308425E-05
0.054,2.320687E-05
0.055,2.342145E-05
0.056,2.360538E-05
0.057,2.381997E-05
0.058,2.388128E-05
0.059,2.394259E-05
0.06,2.418782E-05
0.061,2.421848E-05
0.062,2.43411E-05
0.063,2.443306E-05
0.064,2.455568E-05
0.065,2.46783E-05
0.066,2.489288E-05
0.067,2.507682E-05
0.068,2.52914E-05
0.069,2.538336E-05
0.07,2.553664E-05
0.071,2.568991E-05
0.072,2.572057E-05
0.073,2.587384E-05
0.074,2.614973E-05
0.075,2.627235E-05
0.076,2.65789E-05
0.077,2.660956E-05
0.078,2.670152E-05
0.079,2.688545E-05
0.08,2.713069E-05
0.081,2.731462E-05
0.082,2.749855E-05
0.083,2.765182E-05
0.084,2.774378E-05
0.085,2.801968E-05
0.086,2.826491E-05
0.087,2.844885E-05
0.088,2.860212E-05
0.089,2.872474E-05
0.09,2.903129E-05
0.091,2.918456E-05
0.092,2.94298E-05
0.093,2.955242E-05
0.094,2.973635E-05
0.095,3.010421E-05
0.096,3.034945E-05
0.097,3.047206E-05
0.098,3.065599E-05
0.099,3.090123E-05
0.1,3.123844E-05
0.101,3.145302E-05
0.102,3.163695E-05
0.103,3.179022E-05
0.104,3.225004E-05
0.105,3.252594E-05
0.106,3.26179E-05
0.107,3.307773E-05
0.108,3.320034E-05
0.109,3.359886E-05
0.11,3.408933E-05
0.111,3.421195E-05
0.112,3.427326E-05
0.113,3.482505E-05
0.114,3.51316E-05
0.115,3.528487E-05
0.116,3.568338E-05
0.117,3.592862E-05
0.118,3.626582E-05
0.119,3.669499E-05
0.12,3.697089E-05
0.121,3.721613E-05
0.122,3.767595E-05
0.123,3.80438E-05
0.124,3.844232E-05
0.125,3.871821E-05
0.126,3.902476E-05
0.127,3.945393E-05
0.128,3.991375E-05
0.129,4.040423E-05
0.13,4.077208E-05
0.131,4.110929E-05
0.132,4.15078E-05
0.133,4.196762E-05
0.134,4.248875E-05
0.135,4.297923E-05
0.136,4.343905E-05
0.137,4.389888E-05
0.138,4.438936E-05
0.139,4.472656E-05
0.14,4.533965E-05
0.141,4.59834E-05
0.142,4.647388E-05
0.143,4.696436E-05
0.144,4.751615E-05
0.145,4.806793E-05
0.146,4.855841E-05
0.147,4.914085E-05
0.148,4.981526E-05
0.149,5.048966E-05
0.15,5.110276E-05
0.151,5.177717E-05
0.152,5.226765E-05
0.153,5.291139E-05
0.154,5.361646E-05
0.155,5.429086E-05
0.156,5.51492E-05
0.157,5.579295E-05
0.158,5.646735E-05
0.159,5.714176E-05
0.16,5.790814E-05
0.161,5.876647E-05
0.162,5.956349E-05
0.163,6.036052E-05
0.164,6.11882E-05
0.165,6.195457E-05
0.166,6.278225E-05
0.167,6.385517E-05
0.168,6.468285E-05
0.169,6.560249E-05
0.17,6.646083E-05
0.171,6.731917E-05
0.172,6.84534E-05
0.173,6.9465E-05
0.174,7.044595E-05
0.175,7.148822E-05
0.176,7.240786E-05
0.177,7.351144E-05
0.178,7.458436E-05
0.179,7.577989E-05
0.18,7.697543E-05
0.181,7.80177E-05
0.182,7.905996E-05
0.183,8.053139E-05
0.184,8.172693E-05
0.185,8.295312E-05
0.186,8.420997E-05
0.187,8.543616E-05
0.188,8.703022E-05
0.189,8.834837E-05
0.19,8.960522E-05
0.191,9.101534E-05
0.192,9.267071E-05
0.193,9.398886E-05
0.194,9.55216E-05
0.195,9.699303E-05
0.196,9.877102E-05
0.197,0.0001002424
0.198,0.0001018365
0.199,0.0001035532
0.2,0.0001052698
0.201,0.0001068639
0.202,0.0001086725
0.203,0.0001103279
0.204,0.0001123511
0.205,0.0001142517
0.206,0.000115999
0.207,0.0001179916
0.208,0.0001199841
0.209,0.0001219767
0.21,0.0001239999
0.211,0.0001259618
0.212,0.000128077
0.213,0.0001303148
0.214,0.0001324913
0.215,0.0001347291
0.216,0.0001368136
0.217,0.0001391434
0.218,0.0001415651
0.219,0.0001438949
0.22,0.0001464086
0.221,0.000148769
0.222,0.0001510988
0.223,0.0001536432
0.224,0.0001562488
0.225,0.0001589464
0.226,0.0001615521
0.227,0.0001640964
0.228,0.0001669167
0.229,0.000169553
0.23,0.0001724652
0.231,0.0001753774
0.232,0.0001781057
0.233,0.0001811099
0.234,0.0001839301
0.235,0.0001869649
0.236,0.0001902144
0.237,0.0001932185
0.238,0.0001963453
0.239,0.0001996254
0.24,0.0002026296
0.241,0.0002060322
0.242,0.0002094349
0.243,0.000212715
0.244,0.0002162403
0.245,0.0002195204
0.246,0.000223107
0.247,0.0002267243
0.248,0.0002300656
0.249,0.0002337136
0.25,0.0002374535
0.251,0.0002410707
0.252,0.0002451478
0.253,0.0002486731
0.254,0.000252321
0.255,0.0002563368
0.256,0.0002603833
0.257,0.0002643377
0.258,0.0002683842
0.259,0.0002721547
0.26,0.0002764464
0.261,0.0002804315
0.262,0.0002845699
0.263,0.0002891068
0.264,0.0002931839
0.265,0.0003010421
0.266,0.0003053338
0.267,0.0003093189
0.268,0.0003139171
0.269,0.0003185153
0.27,0.000322807
0.271,0.0003274052
0.272,0.0003316969
0.273,0.0003362951
0.274,0.0003408933
0.275,0.000345185
0.276,0.0003503964
0.277,0.0003549946
0.278,0.0003592863
0.279,0.0003644976
0.28,0.0003690958
0.281,0.0003740006
0.282,0.0003789053
0.283,0.0003835036
0.284,0.0003887149
0.285,0.0003936196
0.286,0.0003982179
0.287,0.0004037358
0.288,0.0004086405
0.289,0.0004138518
0.29,0.0004190632
0.291,0.0004236614
0.292,0.0004294858
0.293,0.0004343906
0.294,0.0004396019
0.295,0.0004454263
0.296,0.0004503311
0.297,0.000455849
0.298,0.0004616734
0.299,0.0004665781
0.3,0.0004727091
0.301,0.0004779204
0.302,0.0004831318
0.303,0.0004895693
0.304,0.000494474
0.305,0.0005002985
0.306,0.0005064294
0.307,0.0005125604
0.308,0.000518998
0.309,0.0005245158
0.31,0.0005306468
0.311,0.0005376973
0.312,0.0005432153
0.313,0.0005499593
0.314,0.0005567034
0.315,0.0005628343
0.316,0.0005701915
0.317,0.000576629
0.318,0.000583373
0.319,0.0005913433
0.32,0.0005983939
0.321,0.0006060576
0.322,0.0006143344
0.323,0.0006216916
0.324,0.000630888
0.325,0.0006394714
0.326,0.0006483613
0.327,0.0006587839
0.328,0.0006682869
0.329,0.0006799357
0.33,0.0006931173
0.331,0.000706912
0.332,0.0007243853
0.333,0.0007436978
0.334,0.000767302
0.335,0.0007970372
0.336,0.0008304509
0.337,0.0008724481
0.338,0.0009214958
0.339,0.0009779007
0.34,0.001044728
0.341,0.001119526
0.342,0.00120444
0.343,0.001301615
0.344,0.001411667
0.345,0.001544095
0.346,0.00170534
0.347,0.001904289
0.348,0.002151981
0.349,0.002442588
0.35,0.002770595
0.351,0.003125578
0.352,0.003525421
0.353,0.003896345
0.354,0.004276465
0.355,0.004650454
0.356,0.005024442
0.357,0.0053923
0.358,0.005760158
0.359,0.006128016
0.36,0.006486678
0.361,0.006842274
0.362,0.007191739
0.363,0.007547335
0.364,0.007893735
0.365,0.008237069
0.366,0.008583468
0.367,0.008926802
0.368,0.009270136
0.369,0.009616536
0.37,0.00995987
0.371,0.01030933
0.372,0.01065573
0.373,0.0110052
0.374,0.01135466
0.375,0.01170413
0.376,0.01205972
0.377,0.01241532
0.378,0.01277092
0.379,0.01313264
0.38,0.0134913
0.381,0.01385303
0.382,0.01422089
0.383,0.01458262
0.384,0.01495354
0.385,0.01534286
0.386,0.01570765
0.387,0.0160939
0.388,0.01644949
0.389,0.01682042
0.39,0.0172036
0.391,0.01755613
0.392,0.01793012
0.393,0.01830718
0.394,0.01866584
0.395,0.01903983
0.396,0.01940769
0.397,0.01977554
0.398,0.02014647
0.399,0.02050206
0.4,0.02086379
0.401,0.02123778
0.402,0.02158418
0.403,0.02195204
0.404,0.0223107
0.405,0.0226571
0.406,0.02300963
0.407,0.02335296
0.408,0.02369936
0.409,0.02404576
0.41,0.0243891
0.411,0.02473243
0.412,0.02506657
0.413,0.02538844
0.414,0.02572565
0.415,0.02604446
0.416,0.0263602
0.417,0.02669127
0.418,0.02699169
0.419,0.02729824
0.42,0.02761398
0.421,0.02790214
0.422,0.02819642
0.423,0.02850297
0.424,0.02876967
0.425,0.02904863
0.426,0.02933065
0.427,0.02957589
0.428,0.02985792
0.429,0.03010009
0.43,0.03114647
0.431,0.03139171
0.432,0.03160629
0.433,0.03185153
0.434,0.03206612
0.435,0.0322807
0.436,0.03249529
0.437,0.03267921
0.438,0.03283248
0.439,0.03304707
0.44,0.03320035
0.441,0.03335362
0.442,0.03350689
0.443,0.03362951
0.444,0.03378279
0.445,0.03387475
0.446,0.03396672
0.447,0.03405868
0.448,0.03408933
0.449,0.03415065
0.45,0.0341813
0.451,0.03415065
0.452,0.03415065
0.453,0.03408933
0.454,0.03402802
0.455,0.03393606
0.456,0.03381344
0.457,0.03369082
0.458,0.03350689
0.459,0.03332296
0.46,0.03310838
0.461,0.03286314
0.462,0.0326179
0.463,0.03231135
0.464,0.03203546
0.465,0.03172891
0.466,0.03139171
0.467,0.03108516
0.468,0.03074796
0.469,0.03041076
0.47,0.03010421
0.471,0.02979766
0.472,0.02952177
0.473,0.02927653
0.474,0.02903129
0.475,0.0288167
0.476,0.02866343
0.477,0.02854081
0.478,0.02844885
0.479,0.02841819
0.48,0.02835688
0.481,0.02838754
0.482,0.02841819
0.483,0.02844885
0.484,0.02854081
0.485,0.02857147
0.486,0.02866343
0.487,0.02875539
0.488,0.02884736
0.489,0.02893933
0.49,0.02903129
0.491,0.0290926
0.492,0.02918456
0.493,0.02924587
0.494,0.02933784
0.495,0.0294298
0.496,0.02949111
0.497,0.02958308
0.498,0.02964438
0.499,0.02970569
0.5,0.02979766
0.501,0.02985897
0.502,0.02995093
0.503,0.0300429
0.504,0.03013486
0.505,0.03022683
0.506,0.03031879
0.507,0.03044141
0.508,0.03056403
0.509,0.03068665
0.51,0.03080927
0.511,0.03096254
0.512,0.03111582
0.513,0.03129975
0.514,0.03145302
0.515,0.03163695
0.516,0.03185153
0.517,0.03203546
0.518,0.0322807
0.519,0.03249529
0.52,0.03274052
0.521,0.03301642
0.522,0.03326165
0.523,0.03350689
0.524,0.03381344
0.525,0.03411999
0.526,0.03439588
0.527,0.03470243
0.528,0.03503963
0.529,0.03537684
0.53,0.03568339
0.531,0.03602059
0.532,0.0364191
0.533,0.0367563
0.534,0.03709351
0.535,0.03749202
0.536,0.03785988
0.537,0.03822774
0.538,0.03862625
0.539,0.03899411
0.54,0.03939262
0.541,0.03979113
0.542,0.04018965
0.543,0.04058816
0.544,0.04098667
0.545,0.04138518
0.546,0.04181435
0.547,0.04221286
0.548,0.04267269
0.549,0.0430712
0.55,0.04346971
0.551,0.04392953
0.552,0.04432805
0.553,0.04475721
0.554,0.04521704
0.555,0.04561555
0.556,0.04604472
0.557,0.04650454
0.558,0.04693371
0.559,0.04736288
0.56,0.0478227
0.561,0.04825186
0.562,0.04868103
0.563,0.0491102
0.564,0.04953937
0.565,0.04999919
0.566,0.05042836
0.567,0.05085753
0.568,0.051348
0.569,0.05177717
0.57,0.05220634
0.571,0.05269681
0.572,0.05312598
0.573,0.05361646
0.574,0.05407628
0.575,0.05450545
0.576,0.05499592
0.577,0.0554251
0.578,0.05588492
0.579,0.05637539
0.58,0.05680456
0.581,0.05729504
0.582,0.05775486
0.583,0.05821468
0.584,0.0586745
0.585,0.05913433
0.586,0.0596248
0.587,0.06008463
0.588,0.06054445
0.589,0.06103493
0.59,0.06149475
0.591,0.06195457
0.592,0.06244505
0.593,0.06290487
0.594,0.06336469
0.595,0.06385517
0.596,0.06431499
0.597,0.06480547
0.598,0.06526529
0.599,0.06572511
0.6,0.0662156
0.601,0.06667542
0.602,0.06719655
0.603,0.06768703
0.604,0.06811619
0.605,0.06860667
0.606,0.0691278
0.607,0.06955697
0.608,0.0700781
0.609,0.07056858
0.61,0.0710284
0.611,0.07154953
0.612,0.07204001
0.613,0.07249983
0.614,0.07302096
0.615,0.07351144
0.616,0.07400192
0.617,0.07449239
0.618,0.07498287
0.619,0.07547335
0.62,0.07599448
0.621,0.0764543
0.622,0.07694478
0.623,0.07746591
0.624,0.07789508
0.625,0.07841621
0.626,0.07890669
0.627,0.07936651
0.628,0.07988765
0.629,0.08034747
0.63,0.08083794
0.631,0.08132842
0.632,0.0818189
0.633,0.08227872
0.634,0.0827692
0.635,0.08325968
0.636,0.08375015
0.637,0.08424063
0.638,0.08470046
0.639,0.08519093
0.64,0.08568141
0.641,0.08617189
0.642,0.08666236
0.643,0.0871835
0.644,0.08764332
0.645,0.0881338
0.646,0.08865493
0.647,0.08911475
0.648,0.08960523
0.649,0.09012636
0.65,0.09061684
0.651,0.09107666
0.652,0.09159779
0.653,0.09205761
0.654,0.09254809
0.655,0.09309988
0.656,0.0935597
0.657,0.09408083
0.658,0.09457131
0.659,0.09503113
0.66,0.09558292
0.661,0.09604274
0.662,0.09653322
0.663,0.09705435
0.664,0.09751417
0.665,0.0980353
0.666,0.09855644
0.667,0.09901626
0.668,0.09953739
0.669,0.1000279
0.67,0.1005183
0.671,0.1010395
0.672,0.1014993
0.673,0.1020511
0.674,0.1025416
0.675,0.1030014
0.676,0.1035225
0.677,0.1040436
0.678,0.1045035
0.679,0.1050246
0.68,0.1055151
0.681,0.1060055
0.682,0.1065267
0.683,0.1070172
0.684,0.1075076
0.685,0.1080594
0.686,0.1085192
0.687,0.1090404
0.688,0.1095615
0.689,0.1099907
0.69,0.1105425
0.691,0.1110329
0.692,0.1115234
0.693,0.1121059
0.694,0.1125657
0.695,0.1130868
0.696,0.1136079
0.697,0.1140678
0.698,0.1146196
0.699,0.11511
0.7,0.1152327
0.6990001,0.1147728
0.6980001,0.1141904
0.6970001,0.1137306
0.6960001,0.1132401
0.6950001,0.112719
0.6940001,0.1122898
0.6930001,0.1117687
0.6920001,0.1112475
0.6910001,0.110849
0.6900001,0.1102666
0.6890001,0.1098068
0.6880001,0.1093469
0.6870001,0.1087951
0.6860001,0.1083353
0.6850001,0.1077835
0.6840001,0.1072931
0.6830001,0.1068332
0.6820001,0.1062815
0.6810001,0.1058216
0.6800001,0.1053311
0.6790001,0.1047794
0.6780001,0.1043195
0.6770001,0.1038291
0.6760001,0.1033386
0.6750001,0.1028481
0.6740001,0.102327
0.6730001,0.1018672
0.6720001,0.1013767
0.6710001,0.1008249
0.6700001,0.1003957
0.6690001,0.09984394
0.6680001,0.09935346
0.6670001,0.09889363
0.6660001,0.09834184
0.6650001,0.09788202
0.6640001,0.09739155
0.6630001,0.09690107
0.6620001,0.09641059
0.6610001,0.09592012
0.6600001,0.09539898
0.6590001,0.09493916
0.6580001,0.09441803
0.6570001,0.0938969
0.6560001,0.09346773
0.6550001,0.09291594
0.6540001,0.09245612
0.6530001,0.09196565
0.6520001,0.09141386
0.6510001,0.09098469
0.6500001,0.09046356
0.6490001,0.08997308
0.6480001,0.08951326
0.6470001,0.08896147
0.6460001,0.08850165
0.6450001,0.08801118
0.6440001,0.08749004
0.6430001,0.08706088
0.6420001,0.08653974
0.6410001,0.08604927
0.6400001,0.08558945
0.6390001,0.08503766
0.6380001,0.08460849
0.6370001,0.08408736
0.6360001,0.08359688
0.6350001,0.08313706
0.6340001,0.08258527
0.6330001,0.08212545
0.6320001,0.08163497
0.6310001,0.08111384
0.6300001,0.08068467
0.6290001,0.08016354
0.6280001,0.07967306
0.6270001,0.07921324
0.6260001,0.07869211
0.6250001,0.07823228
0.6240001,0.07777246
0.6230001,0.07725133
0.6220001,0.07679151
0.6210001,0.07627037
0.6200001,0.0757799
0.6190001,0.07532008
0.6180001,0.07479894
0.6170001,0.07430847
0.6160001,0.07384864
0.6150001,0.07332751
0.6140001,0.07286769
0.6130001,0.07237721
0.6120001,0.07188674
0.6110001,0.07142691
0.6100001,0.07093643
0.6090001,0.07044595
0.6080001,0.06998613
0.6070001,0.069465
0.6060001,0.06900518
0.6050001,0.0685147
0.6040001,0.06802423
0.6030001,0.06756441
0.6020001,0.06707393
0.6010001,0.0665528
0.6000001,0.06609298
0.5990001,0.0656025
0.5980001,0.06514268
0.5970001,0.06468286
0.5960001,0.06419238
0.5950001,0.0637019
0.5940001,0.06324207
0.5930001,0.0627516
0.5920001,0.06229177
0.5910001,0.0618013
0.5900001,0.06131082
0.5890001,0.06082034
0.5880001,0.06039118
0.5870001,0.05987004
0.5860001,0.05941022
0.5850001,0.05891975
0.5840001,0.05845992
0.5830001,0.05796945
0.5820001,0.05750962
0.5810001,0.0570498
0.5800001,0.05655932
0.5790001,0.05606885
0.5780001,0.05563968
0.5770001,0.0551492
0.5760001,0.05465872
0.5750001,0.0541989
0.5740001,0.05373908
0.5730001,0.0532486
0.5720001,0.05278878
0.5710001,0.05232896
0.5700001,0.05183848
0.5690001,0.05137866
0.5680001,0.05091884
0.5670001,0.05045901
0.5660001,0.04999919
0.5650001,0.04953937
0.5640001,0.04904889
0.5630001,0.04861972
0.5620001,0.04812925
0.5610001,0.04766942
0.5600001,0.0472096
0.5590001,0.04674978
0.5580001,0.04628995
0.5570001,0.04583013
0.5560001,0.04537031
0.5550001,0.04491049
0.5540001,0.04445067
0.5530001,0.04399084
0.5520001,0.04353102
0.5510001,0.04304054
0.5500001,0.04261138
0.5490001,0.04215155
0.5480001,0.04169173
0.5470001,0.04126256
0.5460001,0.04077209
0.5450001,0.04031226
0.5440001,0.0398831
0.5430001,0.03942328
0.5420001,0.03899411
0.5410001,0.03853428
0.5400001,0.03807446
0.5390001,0.0376453
0.5380001,0.03718547
0.5370001,0.03672565
0.5360001,0.03629648
0.5350001,0.03583666
0.5340001,0.03540749
0.5330001,0.03497833
0.5320001,0.0345185
0.5310001,0.03408933
0.5300001,0.03362951
0.5290001,0.03320035
0.5280001,0.03277118
0.5270001,0.03234201
0.5260001,0.03191284
0.5250001,0.03148368
0.5240001,0.03102385
0.5230001,0.03059468
0.5220001,0.03013486
0.5210001,0.02970569
0.5200001,0.02930718
0.5190001,0.02884736
0.5180001,0.02844885
0.5170001,0.02801968
0.5160001,0.02755986
0.5150001,0.02716134
0.5140001,0.02673218
0.5130001,0.02630301
0.5120001,0.0259045
0.5110001,0.02544468
0.5100001,0.02504616
0.5090001,0.02461699
0.5080001,0.02421848
0.5070001,0.02381997
0.5060001,0.0233908
0.5050001,0.02299229
0.5040001,0.02259377
0.5030001,0.02216461
0.5020001,0.02176609
0.5010001,0.02136758
0.5000001,0.02093842
0.4990001,0.02057056
0.4980001,0.02014139
0.4970001,0.01974287
0.4960001,0.01937502
0.4950001,0.01897651
0.4940001,0.01857799
0.4930001,0.01821013
0.4920001,0.01781162
0.4910001,0.01744376
0.4900001,0.01704525
0.4890001,0.01667739
0.4880001,0.01630954
0.4870001,0.01594168
0.4860001,0.01557382
0.4850001,0.01517531
0.4840001,0.01480745
0.4830001,0.01447024
0.4820001,0.01407173
0.4810001,0.01373453
0.4800001,0.01336667
0.4790001,0.01249809
0.4780001,0.01215782
0.4770001,0.01181142
0.4760001,0.01146502
0.4750001,0.01114008
0.4740001,0.01079368
0.4730001,0.01046567
0.4720001,0.0101438
0.4710001,0.009806595
0.4700001,0.009493916
0.4690001,0.009172041
0.4680001,0.0088471
0.4670001,0.008546682
0.4660001,0.008230938
0.4650001,0.007927454
0.4640001,0.007633169
0.4630001,0.007323555
0.4620001,0.007035399
0.4610001,0.006747244
0.4600001,0.006452957
0.4590001,0.006183195
0.4580001,0.005901171
0.4570001,0.005628342
0.4560001,0.005367777
0.4550001,0.005098014
0.4540001,0.004843579
0.4530001,0.004589144
0.4520001,0.004334709
0.4510001,0.004092536
0.4500001,0.003850363
0.4490001,0.003611255
0.4480001,0.003384409
0.4470001,0.003154498
0.4460001,0.002933783
0.4450001,0.0027192
0.4440001,0.002501551
0.4430001,0.002302294
0.4420001,0.002096907
0.4410001,0.001900716
0.4400001,0.001713721
0.4390001,0.001520596
0.4380001,0.001342798
0.4370001,0.001165
0.4360001,0.0009588947
0.4350001,0.0007982634
0.4340001,0.0006327273
0.4330001,0.0004754681
0.4320001,0.0003261791
0.4310001,0.000173518
0.4300001,3.434508E-05
0.4290001,-0.000108333
0.4280001,-0.000246249
0.4270001,-0.0003709117
0.4260001,-0.00049629
0.4250001,-0.0006179896
0.4240001,-0.0007335583
0.4230001,-0.0008482074
0.4220001,-0.0009576452
0.4210001,-0.001063404
0.4200001,-0.001164872
0.4190001,-0.001259902
0.4180001,-0.001358917
0.4170001,-0.001449042
0.4160001,-0.001537635
0.4150001,-0.00162776
0.4140001,-0.001708688
0.4130001,-0.001789004
0.4120001,-0.001869933
0.4110001,-0.001945344
0.4100001,-0.002026885
0.4090001,-0.002105362
0.4080001,-0.002172803
0.4070001,-0.002242696
0.4060001,-0.002307377
0.4050001,-0.002373592
0.4040001,-0.002439193
0.4030001,-0.002503875
0.4020001,-0.00256917
0.4010001,-0.002632318
0.4000001,-0.002695467
0.3990001,-0.002761988
0.3980001,-0.002822685
0.3970001,-0.002889512
0.3960001,-0.002957873
0.3950001,-0.003020408
0.3940001,-0.003053104
0.3930001,-0.003120545
0.3920001,-0.003187985
0.3910001,-0.003267688
0.3900001,-0.003341259
0.3890001,-0.003417896
0.3880001,-0.003500664
0.3870001,-0.003580367
0.3860001,-0.003669266
0.3850001,-0.003758165
0.3840001,-0.003847064
0.3830001,-0.003948225
0.3820001,-0.004043255
0.3810001,-0.004147481
0.3800001,-0.004260904
0.3790001,-0.004362065
0.3780001,-0.004478553
0.3770001,-0.004598107
0.3760001,-0.00471153
0.3750001,-0.00484028
0.3740001,-0.004965965
0.3730001,-0.005094715
0.3720001,-0.005229597
0.3710001,-0.005364478
0.3700001,-0.005508556
0.3690001,-0.005652633
0.3680001,-0.00579671
0.3670001,-0.005956116
0.3660001,-0.006106324
0.3650001,-0.006262664
0.3640001,-0.006434331
0.3630001,-0.006590671
0.3620001,-0.006762337
0.3610001,-0.00693707
0.3600001,-0.007102606
0.3590001,-0.007289601
0.3580001,-0.007467398
0.3570001,-0.007645197
0.3560001,-0.007835257
0.3550001,-0.00801612
0.3540001,-0.008209245
0.3530001,-0.008399305
0.3520001,-0.008589366
0.3510001,-0.008797818
0.3500001,-0.008987878
0.3490001,-0.009187134
0.3480001,-0.009395587
0.3470001,-0.009588713
0.3460001,-0.009797165
0.3450001,-0.01000868
0.3440001,-0.01020794
0.3430001,-0.01041946
0.3420001,-0.01062178
0.3410001,-0.01082717
0.3400001,-0.01103869
0.3390001,-0.01124101
0.3380001,-0.0114464
0.3370001,-0.01165485
0.3360001,-0.0118541
0.3350001,-0.01205949
0.3340001,-0.01225875
0.3330001,-0.01245187
0.3320001,-0.01265726
0.3310001,-0.01284119
0.3300001,-0.01303738
0.3290001,-0.01323051
0.3280001,-0.01340217
0.3270001,-0.01359223
0.3260001,-0.0137639
0.3250001,-0.01392637
0.3240001,-0.01409804
0.3230001,-0.01424518
0.3220001,-0.01440152
0.3210001,-0.0145456
0.3200001,-0.01467741
0.3190001,-0.01482762
0.3180001,-0.01494105
0.3170001,-0.01505753
0.3160001,-0.01518628
0.3150001,-0.01526905
0.3140001,-0.01537634
0.3130001,-0.01547444
0.3120001,-0.01553881
0.3110001,-0.01562771
0.3100001,-0.01569822
0.3090001,-0.01575646
0.3080001,-0.0158331
0.3070001,-0.01588828
0.3060001,-0.01594346
0.3050001,-0.01599864
0.3040001,-0.01603236
0.3030001,-0.0160906
0.3020001,-0.01613045
0.3010001,-0.0161703
0.3000001,-0.01622855
0.2990001,-0.01625307
0.2980001,-0.01629905
0.2970001,-0.01635117
0.2960001,-0.01636649
0.2950001,-0.01642167
0.2940001,-0.01645539
0.2930001,-0.01647992
0.2920001,-0.01653203
0.2910001,-0.01655042
0.2900001,-0.01658721
0.2890001,-0.01662706
0.2880001,-0.01664852
0.2870001,-0.0166945
0.2860001,-0.01671902
0.2850001,-0.01674355
0.2840001,-0.0167926
0.2830001,-0.01680179
0.2820001,-0.01683858
0.2810001,-0.0168723
0.2800001,-0.01686923
0.2790001,-0.01690602
0.2780001,-0.01692441
0.2770001,-0.01692135
0.2760001,-0.01694587
0.2750001,-0.01694281
0.2740001,-0.01694281
0.2730001,-0.01694894
0.2720001,-0.01692441
0.2710001,-0.01691522
0.2700001,-0.01689069
0.2690001,-0.01685084
0.2680001,-0.01682019
0.2670001,-0.01676501
0.2660001,-0.0167037
0.2650001,-0.01664545
0.2640001,-0.01656269
0.2630001,-0.01646766
0.2620001,-0.01636956
0.2610001,-0.01625307
0.2600001,-0.01611513
0.2590001,-0.01597411
0.2580001,-0.01580858
0.2570001,-0.01563078
0.2560001,-0.01544379
0.2550001,-0.0152292
0.2540001,-0.01500542
0.2530001,-0.01475712
0.2520001,-0.01450268
0.2510001,-0.01423292
0.2500001,-0.0139417
0.2490001,-0.01365967
0.2480001,-0.01333473
0.2470001,-0.01299753
0.2460001,-0.01268485
0.2450001,-0.01233845
0.2440001,-0.01200125
0.2430001,-0.0116947
0.2420001,-0.01135137
0.2410001,-0.01105708
0.2400001,-0.01075973
0.2390001,-0.01044705
0.2380001,-0.01019568
0.2370001,-0.009919784
0.2360001,-0.009662284
0.2350001,-0.009432373
0.2340001,-0.009181003
0.2330001,-0.008981747
0.2320001,-0.00877636
0.2310001,-0.008567907
0.2300001,-0.008402371
0.2290001,-0.008200049
0.2280001,-0.008040643
0.2270001,-0.007893501
0.2260001,-0.007718768
0.2250001,-0.007596149
0.2240001,-0.00744594
0.2230001,-0.007301863
0.2220001,-0.007182309
0.2210001,-0.007041297
0.2200001,-0.006934005
0.2190001,-0.006817516
0.2180001,-0.006697963
0.2170001,-0.006609064
0.2160001,-0.006486444
0.2150001,-0.006385284
0.2140001,-0.00630558
0.2130001,-0.006189092
0.2120001,-0.006106324
0.2110001,-0.006023556
0.2100001,-0.00591933
0.2090001,-0.005842693
0.2080001,-0.005753794
0.2070001,-0.005664895
0.2060001,-0.005588258
0.2050001,-0.005499359
0.2040001,-0.005425788
0.2030001,-0.005343019
0.2020001,-0.005266382
0.2010001,-0.005205072
0.2000001,-0.005122304
0.1990001,-0.005054864
0.1980001,-0.00499662
0.1970001,-0.004916917
0.1960001,-0.004852542
0.1950001,-0.004791233
0.1940001,-0.004723792
0.1930001,-0.004662482
0.1920001,-0.004607304
0.1910001,-0.004545994
0.1900001,-0.004484684
0.1890001,-0.004432571
0.1880001,-0.004374327
0.1870001,-0.004319148
0.1860001,-0.00426397
0.1850001,-0.004211857
0.1840001,-0.004162808
0.1830001,-0.00410763
0.1820001,-0.004061648
0.1810001,-0.004009534
0.1800001,-0.003960487
0.1790001,-0.00391757
0.1780001,-0.003865457
0.1770001,-0.00382254
0.1760001,-0.003776558
0.1750001,-0.00372751
0.1740001,-0.003690724
0.1730001,-0.003644742
0.1720001,-0.003595694
0.1710001,-0.003555843
0.1700001,-0.003512926
0.1690001,-0.003466944
0.1680001,-0.003430158
0.1670001,-0.003387242
0.1660001,-0.003344325
0.1650001,-0.003307539
0.1640001,-0.003267688
0.1630001,-0.003227836
0.1620001,-0.003194116
0.1610001,-0.00315733
0.1600001,-0.003120545
0.1590001,-0.003086824
0.1580001,-0.003053104
0.1570001,-0.003022449
0.1560001,-0.002991794
0.1550001,-0.002958074
0.1540001,-0.00293355
0.1530001,-0.002902895
0.1520001,-0.00287224
0.1510001,-0.002847716
0.1500001,-0.002820127
0.1490001,-0.002792538
0.1480001,-0.002768014
0.1470001,-0.00274349
0.1460001,-0.002715901
0.1450001,-0.002691377
0.1440001,-0.002669919
0.1430001,-0.002645395
0.1420001,-0.002623936
0.1410001,-0.002602478
0.1400001,-0.00258102
0.1390001,-0.002556496
0.1380001,-0.002538103
0.1370001,-0.002516645
0.1360001,-0.002495186
0.1350001,-0.002476793
0.1340001,-0.002455335
0.1330001,-0.002436942
0.1320001,-0.002421614
0.1310001,-0.002400156
0.1300001,-0.002381763
0.1290001,-0.002366436
0.1280001,-0.002348043
0.1270001,-0.00232965
0.1260001,-0.002314323
0.1250001,-0.00229593
0.1240001,-0.002280602
0.1230001,-0.002265275
0.1220001,-0.002249948
0.1210001,-0.00223462
0.1200001,-0.002219293
0.1190001,-0.002203965
0.1180001,-0.002188638
0.1170001,-0.00217331
0.1160001,-0.002157983
0.1150001,-0.002145721
0.1140001,-0.002130394
0.1130001,-0.002118132
0.1120001,-0.002102804
0.1110001,-0.002090542
0.1100001,-0.002075215
0.1090001,-0.002062953
0.1080001,-0.002050691
0.1070001,-0.002038429
0.1060001,-0.002026167
0.1050001,-0.002013905
0.1040001,-0.001998578
0.1030001,-0.001989381
0.1020001,-0.00197712
0.1010001,-0.001964858
0.1000001,-0.001955661
0.0990001,-0.001940334
0.09800009,-0.001931137
0.09700009,-0.001918875
0.0960001,-0.001906613
0.0950001,-0.001897417
0.09400009,-0.001885155
0.0930001,-0.001875959
0.0920001,-0.001866762
0.0910001,-0.0018545
0.09000009,-0.001845304
0.0890001,-0.001833042
0.0880001,-0.001823845
0.08700009,-0.001814649
0.08600009,-0.001802387
0.0850001,-0.00179319
0.0840001,-0.001783994
0.08300009,-0.001774798
0.08200009,-0.001765601
0.0810001,-0.001756405
0.0800001,-0.001747208
0.07900009,-0.001738012
0.0780001,-0.001728815
0.0770001,-0.001719619
0.07600009,-0.001710422
0.07500009,-0.001701226
0.0740001,-0.00169203
0.0730001,-0.001682833
0.07200009,-0.001673637
0.07100009,-0.001667506
0.0700001,-0.001658309
0.0690001,-0.001649113
0.06800009,-0.001642982
0.0670001,-0.001633785
0.0660001,-0.001624589
0.06500009,-0.001655656
0.06400009,-0.001647685
0.0630001,-0.001640328
0.0620001,-0.001632358
0.06100009,-0.001624694
0.0600001,-0.001617337
0.0590001,-0.001609367
0.0580001,-0.001602316
0.0570001,-0.001594959
0.05600009,-0.001586989
0.0550001,-0.001580245
0.05400009,-0.001572581
0.0530001,-0.00156553
0.05200009,-0.001558786
0.0510001,-0.001551123
0.05000009,-0.001544992
0.0490001,-0.001537941
0.04800009,-0.00153089
0.0470001,-0.001524453
0.0460001,-0.001517402
0.04500009,-0.001510658
0.0440001,-0.001504527
0.04300009,-0.001497477
0.0420001,-0.001491039
0.04100009,-0.001484602
0.0400001,-0.001478164
0.03900009,-0.00147234
0.0380001,-0.001465596
0.03700009,-0.001459771
0.0360001,-0.00145364
0.0350001,-0.001446896
0.03400009,-0.001441378
0.0330001,-0.001435247
0.03200009,-0.001429116
0.03100009,-0.001423599
0.0300001,-0.001417468
0.0290001,-0.001411337
0.0280001,-0.001405819
0.0270001,-0.001399994
0.0260001,-0.001394477
0.0250001,-0.001388652
0.0240001,-0.001382828
0.0230001,-0.001377923
0.02200009,-0.001371792
0.02100009,-0.001366581
0.02000009,-0.001361369
0.0190001,-0.001355545
0.0180001,-0.00135064
0.0170001,-0.001345122
0.0160001,-0.001339604
0.0150001,-0.0013347
0.0140001,-0.001329182
0.0130001,-0.001324277
0.0120001,-0.001319066
0.01100009,-0.001313854
0.0100001,-0.001309256
0.009000096,-0.001303738
0.008000095,-0.001298833
0.007000095,-0.001294235
0.006000096,-0.001288717
0.005000095,-0.001284119
0.004000095,-0.001279521
0.003000095,-0.001274616
0.002000095,-0.001270324
0.001000095,-0.001265113
9.536743E-08,-0.001252238
0.0009999046,-0.001229553
0.001999905,-0.001208402
0.002999905,-0.001188476
0.003999905,-0.00116947
0.004999904,-0.001151384
0.005999905,-0.001134217
0.006999905,-0.001117357
0.007999904,-0.001101416
0.008999905,-0.001086089
0.009999905,-0.001070761
0.0109999,-0.001056354
0.0119999,-0.001042253
0.0129999,-0.001028458
0.0139999,-0.001015276
0.0149999,-0.001002401
0.0159999,-0.0009898327
0.0169999,-0.0009775708
0.0179999,-0.0009656154
0.0189999,-0.00095366
0.0199999,-0.0009426242
0.0209999,-0.0009315885
0.0219999,-0.0009205528
0.02299991,-0.0009098236
0.02399991,-0.000899401
0.02499991,-0.0008892849
0.02599991,-0.0008791688
0.0269999,-0.0008696658
0.0279999,-0.0008598563
0.0289999,-0.0008503532
0.0299999,-0.0008411568
0.0309999,-0.0008319604
0.0319999,-0.0008230705
0.0329999,-0.0008144871
0.0339999,-0.0008059037
0.0349999,-0.0007973204
0.03599991,-0.0007890436
0.0369999,-0.0007807668
0.03799991,-0.0007727966
0.0389999,-0.0007648263
0.03999991,-0.0007571626
0.0409999,-0.0007494989
0.04199991,-0.0007421417
0.0429999,-0.0007347845
0.0439999,-0.0007274274
0.0449999,-0.0007203768
0.0459999,-0.0007133262
0.04699991,-0.0007062756
0.0479999,-0.0006992249
0.04899991,-0.0006924809
0.0499999,-0.0006857368
0.05099991,-0.0006792994
0.0519999,-0.0006728618
0.05299991,-0.0006664242
0.0539999,-0.0006602933
0.0549999,-0.0006538558
0.0559999,-0.0006477248
0.0569999,-0.0006419004
0.05799991,-0.0006357695
0.0589999,-0.000629945
0.05999991,-0.0006238141
0.0609999,-0.0006182962
0.06199991,-0.0006124718
0.0629999,-0.0006066473
0.06399991,-0.0006014361
0.06499991,-0.0005959182
0.0659999,-0.0005907068
0.0669999,-0.000585189
0.06799991,-0.0005799776
0.0689999,-0.0005747664
0.0699999,-0.000569555
0.07099991,-0.0005643437
0.07199991,-0.0005594389
0.0729999,-0.0005542276
0.0739999,-0.0005496293
0.07499991,-0.0005447246
0.07599991,-0.0005398199
0.0769999,-0.0005352216
0.0779999,-0.0005306234
0.07899991,-0.0005257186
0.0799999,-0.0005211204
0.0809999,-0.0005165222
0.08199991,-0.0005122305
0.08299991,-0.0005076323
0.0839999,-0.0005033406
0.0849999,-0.0004990489
0.08599991,-0.0004947572
0.08699991,-0.0004904656
0.0879999,-0.0004861739
0.0889999,-0.0004821887
0.08999991,-0.0004775905
0.0909999,-0.000473912
0.0919999,-0.0004696203
0.09299991,-0.0004656352
0.09399991,-0.00046165
0.0949999,-0.0004576649
0.0959999,-0.0004539863
0.09699991,-0.0004500012
0.09799991,-0.0004463226
0.0989999,-0.000442644
0.0999999,-0.0004386589
0.1009999,-0.0004352869
0.1019999,-0.0004313017
0.1029999,-0.0004276232
0.1039999,-0.0004242511
0.1049999,-0.0004205726
0.1059999,-0.0004172005
0.1069999,-0.0004135219
0.1079999,-0.0004098434
0.1089999,-0.0004064713
0.1099999,-0.0004030993
0.1109999,-0.0003997273
0.1119999,-0.0003963552
0.1129999,-0.0003929832
0.1139999,-0.0003899177
0.1149999,-0.0003865457
0.1159999,-0.0003831737
0.1169999,-0.0003798016
0.1179999,-0.0003767362
0.1189999,-0.0003736707
0.1199999,-0.0003706052
0.1209999,-0.0003672332
0.1219999,-0.0003644742
0.1229999,-0.0003611022
0.1239999,-0.0003580367
0.1249999,-0.0003552778
0.1259999,-0.0003519058
0.1269999,-0.0003491468
0.1279999,-0.0003460813
0.1289999,-0.0003433224
0.1299999,-0.0003405634
0.1309999,-0.000337498
0.1319999,-0.000334739
0.1329999,-0.0003319801
0.1339999,-0.0003289146
0.1349999,-0.0003261557
0.1359999,-0.0003230902
0.1369999,-0.0003203313
0.1379999,-0.0003178789
0.1389999,-0.0003151199
0.1399999,-0.000312361
0.1409999,-0.0003096021
0.1419999,-0.0003071497
0.1429999,-0.0003043908
0.1439999,-0.0003019384
0.1449999,-0.0002988729
0.1459999,-0.0002964205
0.1469999,-0.0002939681
0.1479999,-0.0002912092
0.1489999,-0.0002887568
0.1499999,-0.0002863044
0.1509999,-0.000283852
0.1519999,-0.0002813996
0.1529999,-0.0002789472
0.1539999,-0.0002761883
0.1549999,-0.0002737359
0.1559999,-0.0002712836
0.1569999,-0.0002688312
0.1579999,-0.0002663788
0.1589999,-0.0002639264
0.1599999,-0.000261474
0.1609999,-0.0002593282
0.1619999,-0.0002568758
0.1629999,-0.0002544234
0.1639999,-0.000251971
0.1649999,-0.0002495186
0.1659999,-0.0002470662
0.1669999,-0.0002449204
0.1679999,-0.000242468
0.1689999,-0.0002403222
0.1699999,-0.0002378698
0.1709999,-0.0002354174
0.1719999,-0.0002332716
0.1729999,-0.0002308192
0.1739999,-0.0002286733
0.1749999,-0.0002265275
0.1759999,-0.0002240751
0.1769999,-0.0002219293
0.1779999,-0.0002194769
0.1789999,-0.000217331
0.1799999,-0.0002148787
0.1809999,-0.0002130394
0.1819999,-0.000210587
0.1829999,-0.0002081346
0.1839999,-0.0002059888
0.1849999,-0.0002038429
0.1859999,-0.0002013905
0.1869999,-0.0001992447
0.1879999,-0.0001970989
0.1889999,-0.000194953
0.1899999,-0.0001925007
0.1909999,-0.0001903548
0.1919999,-0.000188209
0.1929999,-0.0001857566
0.1939999,-0.0001836107
0.1949999,-0.0001814649
0.1959999,-0.0001793191
0.1969999,-0.0001771732
0.1979999,-0.0001747208
0.1989999,-0.000172575
0.1999999,-0.0001704292
0.2009999,-0.0001679768
0.2019999,-0.0001658309
0.2029999,-0.0001636851
0.2039999,-0.0001612327
0.2049999,-0.0001590869
0.2059999,-0.0001602009
0.2069999,-0.0001580551
0.2079999,-0.0001558786
0.2089999,-0.0001536102
0.2099999,-0.0001512498
0.2109999,-0.0001490426
0.2119999,-0.0001467128
0.2129999,-0.0001445363
0.2139999,-0.0001423598
0.2149999,-0.0001400607
0.2159999,-0.000137639
0.2169999,-0.0001354012
0.2179999,-0.0001330714
0.2189999,-0.0001308643
0.2199999,-0.0001285652
0.2209999,-0.0001262661
0.2219999,-0.0001239363
0.2229999,-0.0001214839
0.2239999,-0.0001191848
0.2249999,-0.000116855
0.2259999,-0.0001145253
0.2269999,-0.0001122875
0.2279999,-0.0001098351
0.2289999,-0.0001075053
0.2299999,-0.0001051142
0.2309999,-0.0001026005
0.2319999,-0.0001002401
0.2329999,-9.781838E-05
0.2339999,-9.536599E-05
0.2349999,-9.300557E-05
0.2359999,-9.055319E-05
0.2369999,-8.81008E-05
0.2379999,-8.55871E-05
0.2389999,-8.298145E-05
0.2399999,-8.052905E-05
0.2409999,-7.79847E-05
0.2419999,-7.547101E-05
0.2429999,-7.295731E-05
0.2439999,-7.0321E-05
0.2449999,-6.78073E-05
0.2459999,-6.526295E-05
0.2469999,-6.253467E-05
0.2479999,-5.989836E-05
0.2489999,-5.720073E-05
0.2499999,-5.44418E-05
0.2509999,-5.183614E-05
0.2519999,-4.910786E-05
0.2529999,-4.656351E-05
0.2539999,-4.377393E-05
0.2549999,-4.092303E-05
0.2559999,-3.810278E-05
0.2569999,-3.522123E-05
0.2579999,-3.233967E-05
0.2589999,-2.955008E-05
0.2599999,-2.663788E-05
0.2609999,-2.381763E-05
0.2619999,-2.087477E-05
0.2629999,-1.777863E-05
0.2639999,-1.486642E-05
0.2649999,-1.170898E-05
0.2659999,-8.846866E-06
0.2669999,-5.922395E-06
0.2679999,-2.820127E-06
0.2689999,3.311889E-07
0.2699999,3.470243E-06
0.2709999,6.698197E-06
0.2719999,9.877102E-06
0.2729999,1.330431E-05
0.2739999,1.666101E-05
0.2749999,1.999319E-05
0.2759999,2.359514E-05
0.2769999,2.682003E-05
0.2779999,3.07173E-05
0.2789999,3.430392E-05
0.2799999,3.761464E-05
0.2809999,4.126256E-05
0.2819999,4.494114E-05
0.2829999,4.861972E-05
0.2839999,5.260485E-05
0.2849999,5.640604E-05
0.2859999,6.026855E-05
0.2869999,6.431499E-05
0.2879999,6.826947E-05
0.2889999,7.237721E-05
0.2899999,7.64543E-05
0.2909999,8.068467E-05
0.2919999,8.497635E-05
0.2929999,8.917606E-05
0.2939999,9.371297E-05
0.2949999,9.840316E-05
0.2959999,0.0001028175
0.2969999,0.0001076916
0.2979999,0.0001125044
0.2989999,0.0001171026
0.2999999,0.0001221606
0.3009999,0.0001272187
0.3019999,0.0001322154
0.3029999,0.00013758
0.3039999,0.000142914
0.3049999,0.0001483705
0.3059999,0.0001540417
0.3069999,0.0001602033
0.3079999,0.000166181
0.3089999,0.0001719747
0.3099999,0.0001782283
0.3109999,0.0001846352
0.3119999,0.0001909501
0.3129999,0.0001978781
0.3139999,0.0002048061
0.3149999,0.000211918
0.3159999,0.0002197043
0.3169999,0.0002274293
0.3179999,0.0002357981
0.3189999,0.0002447493
0.3199999,0.0002541603
0.3209999,0.0002645217
0.3219999,0.0002758333
0.3229999,0.0002881872
0.3239999,0.0003022271
0.3249999,0.0003209677
0.3259999,0.0003378279
0.3269999,0.0003568339
0.3279999,0.0003770661
0.3289999,0.0004000572
0.3299999,0.0004242745
0.3309999,0.0004512507
0.3319999,0.0004806794
0.3329999,0.0005113342
0.3339999,0.0005459742
0.3349999,0.000583373
0.3359999,0.000624144
0.3369999,0.0006701262
0.3379999,0.0007210132
0.3389999,0.0007804836
0.3399999,0.0008497635
0.3409999,0.0009319184
0.3419999,0.00103216
0.3429999,0.001152327
0.3439999,0.001296711
0.3449999,0.001470217
0.3459999,0.00166886
0.3469999,0.001893254
0.3479999,0.002140332
0.3489999,0.002400898
0.3499999,0.002677404
0.3509999,0.002960349
0.3519999,0.003280183
0.3529999,0.003574469
0.3539999,0.003868756
0.3549999,0.004172239
0.3559999,0.004472656
0.3569999,0.004779204
0.3579999,0.005088818
0.3589999,0.005398431
0.3599999,0.005714176
0.3609999,0.006029921
0.3619999,0.006354862
0.3629999,0.006676738
0.3639999,0.007004744
0.3649999,0.007338882
0.3659999,0.007676085
0.3669999,0.008010223
0.3679999,0.008353557
0.3689999,0.00869689
0.3699999,0.009040225
0.3709999,0.00938969
0.3719999,0.009739155
0.3729999,0.01009168
0.3739999,0.01044422
0.3749999,0.01079981
0.3759999,0.01115847
0.3769999,0.01150794
0.3779999,0.0118666
0.3789999,0.01222833
0.3799999,0.01257779
0.3809999,0.01293645
0.3819999,0.01329205
0.3829999,0.01363845
0.3839999,0.01399098
0.3849999,0.01433738
0.3859999,0.01468684
0.3869999,0.01503018
0.3879999,0.01536738
0.3889999,0.01571378
0.3899999,0.01604485
0.3909999,0.01637899
0.3919999,0.01671926
0.3929999,0.017035
0.3939999,0.01735688
0.3949999,0.01768182
0.3959999,0.01798837
0.3969999,0.01829492
0.3979999,0.01860146
0.3989999,0.01889268
0.3999999,0.01918084
0.4009999,0.019469
0.4019999,0.01974182
0.4029999,0.02001465
0.4039999,0.02028442
0.4049999,0.02052965
0.4059999,0.02078409
0.4069999,0.02102626
0.4079999,0.02124698
0.4089999,0.02148302
0.4099999,0.02170067
0.4109999,0.02190299
0.4119999,0.02210225
0.4129999,0.02227698
0.4139999,0.02245784
0.4149999,0.02261112
0.4159999,0.02276439
0.4169999,0.02291153
0.4179999,0.02301882
0.4189999,0.02314758
0.4199999,0.02324567
0.4209999,0.02331618
0.4219999,0.02340814
0.4229999,0.02346332
0.4239999,0.02350624
0.4249999,0.02355529
0.4259999,0.02355835
0.4269999,0.02357061
0.4279999,0.02357061
0.4289999,0.02353996
0.4299999,0.02352157
0.4309999,0.02345719
0.4319999,0.02340201
0.4329999,0.02332844
0.4339999,0.02321502
0.4349999,0.02311999
0.4359999,0.0229943
0.4369999,0.02284409
0.4379999,0.02270921
0.4389999,0.02253448
0.4399999,0.02236281
0.4409999,0.02217582
0.4419999,0.02197963
0.4429999,0.02178957
0.4439999,0.02156579
0.4449999,0.02134814
0.4459999,0.02114888
0.4469999,0.0209159
0.4479999,0.02071358
0.4489999,0.02052659
0.4499999,0.02032427
0.4509999,0.02015566
0.4519999,0.01999626
0.4529999,0.01984912
0.4539999,0.01972956
0.4549999,0.01962227
0.4559999,0.0195487
0.4569999,0.01947206
0.4579999,0.01941382
0.4589999,0.01938623
0.4599999,0.01934638
0.4609999,0.01934331
0.4619999,0.01934944
0.4629999,0.01934331
0.4639999,0.01936783
0.4649999,0.01938316
0.4659999,0.01940462
0.4669999,0.01944447
0.4679999,0.019469
0.4689999,0.01952111
0.4699999,0.01956403
0.4709999,0.01961307
0.4719999,0.01968358
0.4729999,0.01973263
0.4739999,0.0198062
0.4749999,0.0198859
0.4759999,0.01994414
0.4769999,0.02003304
0.4779999,0.02012194
0.4789999,0.02019858
0.4799999,0.020312
0.4809999,0.02042236
0.4819999,0.02052965
0.4829999,0.02066147
0.4839999,0.02078716
0.4849999,0.0209251
0.4859999,0.02108451
0.4869999,0.02124085
0.4879999,0.02141251
0.4889999,0.02159031
0.4899999,0.02178037
0.4909999,0.02199189
0.4919999,0.02219728
0.4929999,0.02242106
0.4939999,0.02265403
0.4949999,0.02288701
0.4959999,0.02313838
0.4969999,0.02339282
0.4979999,0.02365645
0.4989999,0.02392927
0.4999999,0.0242113
0.5009999,0.02450252
0.5019999,0.0247968
0.5029999,0.02509722
0.5039999,0.02541603
0.5049999,0.02572565
0.5059999,0.02603833
0.5069999,0.02638472
0.5079999,0.02670354
0.5089999,0.02704687
0.5099999,0.02740553
0.5109999,0.02773047
0.5119999,0.02810753
0.5129999,0.02846619
0.5139999,0.02881259
0.5149999,0.02919271
0.5159999,0.02954524
0.5169999,0.02991616
0.5179999,0.03105451
0.5189999,0.03142237
0.5199999,0.03182088
0.5209999,0.03218874
0.5219999,0.03258725
0.5229999,0.03298576
0.5239999,0.03338427
0.5249999,0.03378279
0.5259999,0.0341813
0.5269999,0.03457981
0.5279999,0.03500898
0.5289999,0.03540749
0.5299999,0.035806
0.5309999,0.03623517
0.5319999,0.03663369
0.5329999,0.03706285
0.5339999,0.03746137
0.5349999,0.03789053
0.5359999,0.0383197
0.5369999,0.03874887
0.5379999,0.03917804
0.5389999,0.0396072
0.5399999,0.04003637
0.5409999,0.04046554
0.5419999,0.04089471
0.5429999,0.04132387
0.5439999,0.04175304
0.5449999,0.04218221
0.5459999,0.04261138
0.5469999,0.0430712
0.5479999,0.04350037
0.5489999,0.04392953
0.5499999,0.04438936
0.5509999,0.04481852
0.5519999,0.04524769
0.5529999,0.04573817
0.5539999,0.04613668
0.5549999,0.0465965
0.5559999,0.04705633
0.5569999,0.04751615
0.5579999,0.04794532
0.5589999,0.04837449
0.5599999,0.04886496
0.5609999,0.04929413
0.5619999,0.04975395
0.5629999,0.05021377
0.5639999,0.05064294
0.5649999,0.05110276
0.5659999,0.05156258
0.5669999,0.05199176
0.5679999,0.05248223
0.5689999,0.0529114
0.5699999,0.05337122
0.5709999,0.0538617
0.5719999,0.05432152
0.5729999,0.05478134
0.5739999,0.05524116
0.5749999,0.05567033
0.5759999,0.05613015
0.5769999,0.05662064
0.5779999,0.05708046
0.5789999,0.05754028
0.5799999,0.0580001
0.5809999,0.05845992
0.5819999,0.05891975
0.5829999,0.05937957
0.5839999,0.05987004
0.5849999,0.06029921
0.5859999,0.06078969
0.5869999,0.06128017
0.5879999,0.06170933
0.5889999,0.06219981
0.5899999,0.06269029
0.5909999,0.06311946
0.5919999,0.06360994
0.5929999,0.06406976
0.5939999,0.06452958
0.5949999,0.06502005
0.5959999,0.06544922
0.5969999,0.0659397
0.5979999,0.06643017
0.5989999,0.06685934
0.5999999,0.06738048
0.6009999,0.06780964
0.6019999,0.06833078
0.6029999,0.06882125
0.6039999,0.06925042
0.6049999,0.06977155
0.6059999,0.07023137
0.6069999,0.07066055
0.6079999,0.07118168
0.6089999,0.0716415
0.6099999,0.07210132
0.6109999,0.0725918
0.6119999,0.07305162
0.6129999,0.0735421
0.6139999,0.07403257
0.6149999,0.07449239
0.6159999,0.07498287
0.6169999,0.07544269
0.6179999,0.07593317
0.6189999,0.07642365
0.6199999,0.07688347
0.6209999,0.07737394
0.6219999,0.07786443
0.6229999,0.0783549
0.6239999,0.07881473
0.6249999,0.0793052
0.6259999,0.07976502
0.6269999,0.0802555
0.6279999,0.08074598
0.6289999,0.08123646
0.6299999,0.08169628
0.6309999,0.08215611
0.6319999,0.08267724
0.6329999,0.0831064
0.6339999,0.08359688
0.6349999,0.08411801
0.6359999,0.08457784
0.6369999,0.08506831
0.6379999,0.0856201
0.6389999,0.08607992
0.6399999,0.0865704
0.6409999,0.08706088
0.6419999,0.08749004
0.6429999,0.08798052
0.6439999,0.08844034
0.6449999,0.08896147
0.6459999,0.08942129
0.6469999,0.08991177
0.6479999,0.0904329
0.6489999,0.09089272
0.6499999,0.0913832
0.6509999,0.09190433
0.6519999,0.0923335
0.6529999,0.09282398
0.6539999,0.09334511
0.6549999,0.09380494
0.6559999,0.09429541
0.6569999,0.09478589
0.6579999,0.09527637
0.6589999,0.09576684
0.6599999,0.09625732
0.6609999,0.0967478
0.6619999,0.09723828
0.6629999,0.09772875
0.6639999,0.09818857
0.6649999,0.09870971
0.6659999,0.09920018
0.6669999,0.09966001
0.6679999,0.1001811
0.6689999,0.1006716
0.6699999,0.1011621
0.6709999,0.1016526
0.6719999,0.102143
0.6729999,0.1026335
0.6739999,0.1031547
0.6749999,0.1036145
0.6759999,0.104105
0.6769999,0.1046261
0.6779999,0.1050859
0.6789999,0.105607
0.6799999,0.1060975
0.6809999,0.106588
0.6819999,0.1070785
0.6829999,0.1075689
0.6839999,0.1080594
0.6849999,0.1085806
0.6859999,0.1090404
0.6869999,0.1095309
0.6879999,0.110052
0.6889999,0.1105118
0.6899999,0.1110329
0.6909999,0.1115541
0.6919999,0.1120139
0.6929999,0.1125044
0.6939999,0.1130255
0.6949999,0.1134853
0.6959999,0.1140065
0.6969999,0.1144969
0.6979999,0.1149874
0.6989999,0.1154779
0.6999999,0.1156005
0.6990002,0.11511
0.6980002,0.1146196
0.6970002,0.1140984
0.6960002,0.1136079
0.6950002,0.1131175
0.6940002,0.1125963
0.6930002,0.1121059
0.6920002,0.1116154
0.6910002,0.1111249
0.6900002,0.1106344
0.6890002,0.110144
0.6880002,0.1096228
0.6870002,0.1091323
0.6860002,0.1086419
0.6850002,0.1081207
0.6840002,0.1076609
0.6830002,0.1071398
0.6820002,0.1066493
0.6810002,0.1061588
0.6800002,0.1056377
0.6790002,0.1051472
0.6780002,0.1046567
0.6770002,0.1041663
0.6760002,0.1036758
0.6750002,0.1031853
0.6740002,0.1026642
0.6730002,0.1022043
0.6720002,0.1017139
0.6710002,0.1011927
0.6700002,0.1007329
0.6690002,0.1001811
0.6680002,0.09972132
0.6670002,0.09923084
0.6660002,0.09867906
0.6650002,0.09824988
0.6640002,0.09772875
0.6630002,0.09723828
0.6620002,0.09680911
0.6610002,0.09625732
0.6600002,0.09576684
0.6590002,0.09530702
0.6580002,0.09475523
0.6570002,0.09432607
0.6560002,0.09383559
0.6550002,0.0932838
0.6540002,0.09285464
0.6530002,0.09230285
0.6520002,0.09181237
0.6510002,0.09132189
0.6500002,0.09080076
0.6490002,0.0903716
0.6480002,0.08985046
0.6470002,0.08939064
0.6460002,0.08893082
0.6450002,0.08840968
0.6440002,0.08794986
0.6430002,0.08745939
0.6420002,0.08693825
0.6410002,0.08647843
0.6400002,0.08598796
0.6390002,0.08546682
0.6380002,0.085007
0.6370002,0.08448587
0.6360002,0.08402605
0.6350002,0.08350492
0.6340002,0.08301444
0.6330002,0.08258527
0.6320002,0.08206414
0.6310002,0.08157366
0.6300002,0.08117515
0.6290002,0.08062336
0.6280002,0.08013289
0.6270002,0.07970371
0.6260002,0.07918259
0.6250002,0.07872277
0.6240002,0.07823228
0.6230002,0.07771116
0.6220002,0.07728198
0.6210002,0.07676085
0.6200002,0.07627037
0.6190002,0.0757799
0.6180002,0.07528942
0.6170002,0.0748296
0.6160002,0.07433912
0.6150002,0.07381799
0.6140002,0.07335817
0.6130002,0.07286769
0.6120002,0.07237721
0.6110002,0.07194804
0.6100002,0.07142691
0.6090002,0.07096709
0.6080002,0.07050727
0.6070002,0.06998613
0.6060002,0.06955697
0.6050002,0.06906649
0.6040002,0.06854536
0.6030002,0.06808554
0.6020002,0.06759506
0.6010002,0.06710459
0.6000002,0.06667542
0.5990002,0.06615429
0.5980002,0.06569446
0.5970002,0.06523464
0.5960002,0.06474417
0.5950002,0.06428434
0.5940002,0.06382452
0.5930002,0.06333404
0.5920002,0.06287422
0.5910002,0.06238374
0.5900002,0.06192392
0.5890002,0.06143344
0.5880002,0.06094296
0.5870002,0.06048314
0.5860002,0.06002332
0.5850002,0.05953284
0.5840002,0.05907302
0.5830002,0.05858254
0.5820002,0.05812272
0.5810002,0.05766289
0.5800002,0.05717242
0.5790002,0.0567126
0.5780002,0.05625277
0.5770002,0.05579295
0.5760002,0.05530247
0.5750002,0.05484265
0.5740002,0.05438283
0.5730002,0.05389235
0.5720002,0.05343253
0.5710002,0.0529727
0.5700002,0.05248223
0.5690002,0.05205306
0.5680002,0.05159324
0.5670002,0.05110276
0.5660002,0.05067359
0.5650002,0.05018312
0.5640002,0.04972329
0.5630002,0.04929413
0.5620002,0.04880365
0.5610002,0.04834383
0.5600002,0.04788401
0.5590002,0.04742418
0.5580002,0.04699502
0.5570002,0.04650454
0.5560002,0.04604472
0.5550002,0.04561555
0.5540002,0.04515573
0.5530002,0.04469591
0.5520002,0.04426674
0.5510002,0.04377626
0.5500002,0.04331644
0.5490002,0.04288727
0.5480002,0.04242745
0.5470002,0.04196763
0.5460002,0.04153846
0.5450002,0.04104798
0.5440002,0.04061881
0.5430002,0.04018965
0.5420002,0.03969917
0.5410002,0.03930065
0.5400002,0.03884083
0.5390002,0.03838101
0.5380002,0.03795184
0.5370002,0.03749202
0.5360002,0.0370322
0.5350002,0.03660303
0.5340002,0.03614321
0.5330002,0.03574469
0.5320002,0.03528487
0.5310002,0.0348557
0.5300002,0.03442654
0.5290002,0.03396672
0.5280002,0.0335682
0.5270002,0.03313904
0.5260002,0.03267921
0.5250002,0.03225004
0.5240002,0.03182088
0.5230002,0.03139171
0.5220002,0.03096254
0.5210002,0.03053337
0.5200002,0.03010421
0.5190002,0.02967504
0.5180002,0.02924587
0.5170002,0.0288167
0.5160002,0.02838754
0.5150002,0.02795837
0.5140002,0.02755986
0.5130002,0.02713069
0.5120002,0.02673218
0.5110002,0.02630301
0.5100002,0.02587384
0.5090002,0.02547533
0.5080002,0.02507682
0.5070002,0.02464765
0.5060002,0.02424913
0.5050002,0.02381997
0.5040002,0.02342146
0.5030002,0.02302294
0.5020002,0.02262443
0.5010002,0.02219526
0.5000002,0.02179675
0.4990002,0.02139824
0.4980002,0.02099972
0.4970002,0.02060121
0.4960002,0.02023335
0.4950002,0.01983484
0.4940002,0.01943633
0.4930002,0.01906847
0.4920002,0.01866996
0.4910002,0.0183021
0.4900002,0.01790359
0.4890002,0.01753573
0.4880002,0.01716787
0.4870002,0.01676936
0.4860002,0.0164015
0.4850002,0.0160643
0.4840002,0.01566578
0.4830002,0.01529793
0.4820002,0.01493007
0.4810002,0.01456221
0.4800002,0.01422501
0.4790002,0.01385715
0.4780002,0.01348929
0.4770002,0.01315209
0.4760002,0.01231722
0.4750002,0.01197696
0.4740002,0.01163975
0.4730002,0.01130255
0.4720002,0.01097148
0.4710002,0.01064347
0.4700002,0.01031546
0.4690002,0.009990525
0.4680002,0.009674779
0.4670002,0.009359035
0.4660002,0.009040225
0.4650002,0.008733677
0.4640002,0.008427128
0.4630002,0.008120581
0.4620002,0.007829359
0.4610002,0.007525877
0.4600002,0.007234655
0.4590002,0.006949566
0.4580002,0.00666141
0.4570002,0.006385517
0.4560002,0.006109623
0.4550002,0.00583373
0.4540002,0.005570099
0.4530002,0.005303402
0.4520002,0.005042835
0.4510002,0.004791466
0.4500002,0.004533966
0.4490002,0.004294858
0.4480002,0.004052685
0.4470002,0.003810511
0.4460002,0.003586731
0.4450002,0.003353755
0.4440002,0.003129974
0.4430002,0.002915391
0.4420002,0.002697741
0.4410002,0.002489289
0.4400002,0.002286967
0.4390002,0.002084645
0.4380002,0.001894585
0.4370002,0.001704525
0.4360002,0.001517531
0.4350002,0.001342798
0.4340002,0.001165
0.4330002,0.0009631864
0.4320002,0.0007997961
0.4310002,0.0006351797
0.4300002,0.000481599
0.4290002,0.0003304707
0.4280002,0.0001793424
0.4270002,4.047605E-05
0.4260002,-0.0001031217
0.4250002,-0.0002356118
0.4240002,-0.0003634118
0.4230002,-0.0004913852
0.4220002,-0.0006109391
0.4210002,-0.000728347
0.4200002,-0.0008429961
0.4190002,-0.0009493683
0.4180002,-0.00105758
0.4170002,-0.001160887
0.4160002,-0.001258676
0.4150002,-0.00135861
0.4140002,-0.001449655
0.4130002,-0.00153978
0.4120002,-0.001631132
0.4110002,-0.001714513
0.4100002,-0.001804025
0.4090002,-0.001892004
0.4080002,-0.001966802
0.4070002,-0.002044665
0.4060002,-0.002117624
0.4050002,-0.002191195
0.4040002,-0.00226538
0.4030002,-0.002335886
0.4020002,-0.002409151
0.4010002,-0.002476898
0.4000002,-0.002547711
0.3990002,-0.002621282
0.3980002,-0.002686884
0.3970002,-0.002761069
0.3960002,-0.002834947
0.3950002,-0.002900854
0.3940002,-0.002977185
0.3930002,-0.003052596
0.3920002,-0.003089889
0.3910002,-0.003169592
0.3900002,-0.003249295
0.3890002,-0.003328997
0.3880002,-0.003417896
0.3870002,-0.003500664
0.3860002,-0.003592629
0.3850002,-0.003687659
0.3840002,-0.003779623
0.3830002,-0.00388385
0.3820002,-0.003985011
0.3810002,-0.004092303
0.3800002,-0.004208791
0.3790002,-0.004316083
0.3780002,-0.004438702
0.3770002,-0.004564387
0.3760002,-0.004683941
0.3750002,-0.004818822
0.3740002,-0.004950637
0.3730002,-0.005085519
0.3720002,-0.005229597
0.3710002,-0.005373674
0.3700002,-0.005520817
0.3690002,-0.005680223
0.3680002,-0.0058243
0.3670002,-0.005989837
0.3660002,-0.006149241
0.3650002,-0.006314777
0.3640002,-0.006486444
0.3630002,-0.00665198
0.3620002,-0.006832844
0.3610002,-0.007007576
0.3600002,-0.007179243
0.3590002,-0.007369304
0.3580002,-0.007553232
0.3570002,-0.00773103
0.3560002,-0.007918024
0.3550002,-0.008108085
0.3540002,-0.008292013
0.3530002,-0.008485138
0.3520002,-0.008678264
0.3510002,-0.008874455
0.3500002,-0.009064515
0.3490002,-0.009260706
0.3480002,-0.009456896
0.3470002,-0.009650022
0.3460002,-0.009852344
0.3450002,-0.01004854
0.3440002,-0.01024166
0.3430002,-0.01044398
0.3420002,-0.01063711
0.3410002,-0.01083636
0.3400002,-0.01103256
0.3390002,-0.01122568
0.3380002,-0.01142494
0.3370002,-0.01161806
0.3360002,-0.01180812
0.3350002,-0.01200431
0.3340002,-0.01218824
0.3330002,-0.01237524
0.3320002,-0.01256223
0.3310002,-0.01273696
0.3300002,-0.01291783
0.3290002,-0.01309256
0.3280002,-0.0132581
0.3270002,-0.01342976
0.3260002,-0.01358917
0.3250002,-0.01374551
0.3240002,-0.01390185
0.3230002,-0.01403979
0.3220002,-0.01418081
0.3210002,-0.01431875
0.3200002,-0.01444137
0.3190002,-0.01456706
0.3180002,-0.01468355
0.3170002,-0.01478777
0.3160002,-0.014892
0.3150002,-0.01499009
0.3140002,-0.01507899
0.3130002,-0.01516483
0.3120002,-0.01524759
0.3110002,-0.0153181
0.3100002,-0.01538861
0.3090002,-0.01545911
0.3080002,-0.01551736
0.3070002,-0.01558786
0.3060002,-0.01564917
0.3050002,-0.01569515
0.3040002,-0.01575033
0.3030002,-0.01579938
0.3020002,-0.0158423
0.3010002,-0.01590054
0.3000002,-0.01594346
0.2990002,-0.01598944
0.2980002,-0.01603542
0.2970002,-0.01607527
0.2960002,-0.01613045
0.2950002,-0.01616417
0.2940002,-0.01620709
0.2930002,-0.0162592
0.2920002,-0.01629292
0.2910002,-0.01632971
0.2900002,-0.01638489
0.2890002,-0.01640941
0.2880002,-0.0164462
0.2870002,-0.01649831
0.2860002,-0.01651977
0.2850002,-0.01655349
0.2840002,-0.01660867
0.2830002,-0.01662706
0.2820002,-0.01665465
0.2810002,-0.01668837
0.2800002,-0.01670676
0.2790002,-0.01672822
0.2780002,-0.01674968
0.2770002,-0.01677421
0.2760002,-0.0167834
0.2750002,-0.0167926
0.2740002,-0.01680179
0.2730002,-0.01679566
0.2720002,-0.0167926
0.2710002,-0.01678647
0.2700002,-0.01676501
0.2690002,-0.01674661
0.2680002,-0.01671596
0.2670002,-0.01666691
0.2660002,-0.01661786
0.2650002,-0.01655349
0.2640002,-0.01647072
0.2630002,-0.01638182
0.2620002,-0.01628373
0.2610002,-0.01615804
0.2600002,-0.01603236
0.2590002,-0.01587602
0.2580002,-0.01571048
0.2570002,-0.01553268
0.2560002,-0.01533036
0.2550002,-0.01510658
0.2540002,-0.01487054
0.2530002,-0.01460997
0.2520002,-0.01434328
0.2510002,-0.01405206
0.2500002,-0.01374244
0.2490002,-0.01343283
0.2480002,-0.01309869
0.2470002,-0.01275229
0.2460002,-0.01241202
0.2450002,-0.01206869
0.2440002,-0.01171616
0.2430002,-0.01138815
0.2420002,-0.01106014
0.2410002,-0.01073214
0.2400002,-0.01044398
0.2390002,-0.01014663
0.2380002,-0.009867672
0.2370002,-0.009625498
0.2360002,-0.009358802
0.2350002,-0.009150349
0.2340002,-0.008914307
0.2330002,-0.008693592
0.2320002,-0.008512728
0.2310002,-0.008298145
0.2300002,-0.008120347
0.2290002,-0.007967073
0.2280002,-0.007777012
0.2270002,-0.007632935
0.2260002,-0.007498054
0.2250002,-0.007335583
0.2240002,-0.007219094
0.2230002,-0.00709341
0.2220002,-0.006955463
0.2210002,-0.006845106
0.2200002,-0.006734748
0.2190002,-0.006609064
0.2180002,-0.006514033
0.2170002,-0.006415938
0.2160002,-0.006311711
0.2150002,-0.006219747
0.2140002,-0.006118587
0.2130002,-0.006041949
0.2120002,-0.005949985
0.2110002,-0.005854954
0.2100002,-0.005787514
0.2090002,-0.005698615
0.2080002,-0.005612782
0.2070002,-0.005545341
0.2060002,-0.005459507
0.2050002,-0.005385936
0.2040002,-0.00531543
0.2030002,-0.005238793
0.2020002,-0.005174418
0.2010002,-0.005097781
0.2000002,-0.005033405
0.1990002,-0.004978227
0.1980002,-0.004898524
0.1970002,-0.004834149
0.1960002,-0.004782036
0.1950002,-0.00471153
0.1940002,-0.00465022
0.1930002,-0.004601172
0.1920002,-0.004536797
0.1910002,-0.004481619
0.1900002,-0.004432571
0.1890002,-0.004374327
0.1880002,-0.004325279
0.1870002,-0.004273166
0.1860002,-0.004221053
0.1850002,-0.004178136
0.1840002,-0.004122957
0.1830002,-0.004076975
0.1820002,-0.004027927
0.1810002,-0.00397888
0.1800002,-0.003939028
0.1790002,-0.00388998
0.1780002,-0.003843998
0.1770002,-0.003807213
0.1760002,-0.003758165
0.1750002,-0.003718314
0.1740002,-0.003681528
0.1730002,-0.003635545
0.1720002,-0.00359876
0.1710002,-0.003558908
0.1700002,-0.003515992
0.1690002,-0.003479206
0.1680002,-0.003439354
0.1670002,-0.003402569
0.1660002,-0.003362718
0.1650002,-0.003322866
0.1640002,-0.003286081
0.1630002,-0.003246229
0.1620002,-0.003206378
0.1610002,-0.003172658
0.1600002,-0.003129741
0.1590002,-0.003096021
0.1580002,-0.003059235
0.1570002,-0.003019383
0.1560002,-0.002988729
0.1550002,-0.002951943
0.1540002,-0.002915157
0.1530002,-0.002887568
0.1520002,-0.002853847
0.1510002,-0.002826258
0.1500002,-0.002798669
0.1490002,-0.002768014
0.1480002,-0.002740425
0.1470002,-0.002712835
0.1460002,-0.002685246
0.1450002,-0.002663787
0.1440002,-0.002636198
0.1430002,-0.00261474
0.1420002,-0.002593281
0.1410002,-0.002565692
0.1400002,-0.002544234
0.1390002,-0.002525841
0.1380002,-0.002501317
0.1370002,-0.002482924
0.1360002,-0.002461466
0.1350002,-0.002440007
0.1340002,-0.002421614
0.1330002,-0.002400156
0.1320002,-0.002381763
0.1310002,-0.00236337
0.1300002,-0.002344977
0.1290002,-0.00232965
0.1280002,-0.002311257
0.1270002,-0.002292864
0.1260002,-0.002277537
0.1250002,-0.002262209
0.1240002,-0.002246882
0.1230002,-0.002228489
0.1220002,-0.002213162
0.1210002,-0.0022009
0.1200002,-0.002182507
0.1190002,-0.002170245
0.1180002,-0.002154917
0.1170002,-0.002142655
0.1160002,-0.002127328
0.1150002,-0.002115066
0.1140002,-0.002099739
0.1130002,-0.002087477
0.1120002,-0.002072149
0.1110002,-0.002059887
0.1100002,-0.002047626
0.1090002,-0.002035364
0.1080002,-0.002023102
0.1070002,-0.00201084
0.1060002,-0.001998578
0.1050002,-0.001986316
0.1040002,-0.001974054
0.1030002,-0.001964858
0.1020002,-0.001952596
0.1010002,-0.001940334
0.1000002,-0.001931137
0.09900019,-0.001918875
0.09800019,-0.001909679
0.09700019,-0.001897417
0.09600019,-0.00188822
0.09500019,-0.001875959
0.09400019,-0.001866762
0.09300019,-0.001857566
0.09200019,-0.001848369
0.09100019,-0.001839173
0.09000019,-0.001826911
0.08900019,-0.001817714
0.08800019,-0.001808518
0.08700019,-0.001799321
0.08600019,-0.001790125
0.08500019,-0.001780929
0.08400019,-0.001771732
0.08300019,-0.001762536
0.08200019,-0.001753339
0.08100019,-0.001747208
0.08000019,-0.001738012
0.07900019,-0.001728815
0.07800019,-0.001719619
0.07700019,-0.001713488
0.07600019,-0.001704292
0.07500019,-0.001695095
0.07400019,-0.001685899
0.07300019,-0.001679768
0.07200019,-0.001670571
0.07100019,-0.001661375
0.07000019,-0.001655244
0.06900019,-0.001649113
0.06800019,-0.001639916
0.06700019,-0.001633785
0.06600019,-0.001624589
0.06500019,-0.00165351
0.06400019,-0.001646766
0.06300019,-0.001639409
0.06200019,-0.001632051
0.06100019,-0.001625001
0.06000019,-0.001617337
0.05900019,-0.001610593
0.05800019,-0.001604156
0.05700019,-0.001596798
0.05600019,-0.001590667
0.05500019,-0.001583617
0.05400019,-0.001576566
0.05300019,-0.001570742
0.05200019,-0.001563385
0.05100019,-0.001557254
0.05000019,-0.001551429
0.04900019,-0.001544379
0.04800019,-0.001538554
0.04700019,-0.001532117
0.04600019,-0.001525373
0.04500019,-0.001519548
0.04400019,-0.001513111
0.04300019,-0.001506673
0.04200019,-0.001501155
0.04100019,-0.001494718
0.04000019,-0.001488893
0.03900019,-0.001483069
0.03800019,-0.001476938
0.03700019,-0.001471727
0.03600019,-0.001465596
0.03500019,-0.001460078
0.03400019,-0.001454866
0.03300019,-0.001448429
0.03200019,-0.001442911
0.03100019,-0.0014377
0.03000019,-0.001431875
0.02900019,-0.001426357
0.02800019,-0.001421146
0.02700019,-0.001415322
0.02600019,-0.001410417
0.02500019,-0.001404899
0.02400019,-0.001399688
0.02300019,-0.001394783
0.02200019,-0.001389572
0.02100019,-0.00138436
0.02000019,-0.001379456
0.01900019,-0.001373938
0.01800019,-0.001369033
0.01700019,-0.001364128
0.01600019,-0.001358917
0.01500019,-0.001354012
0.01400019,-0.001349107
0.01300019,-0.001344203
0.01200019,-0.001339604
0.01100019,-0.0013347
0.01000019,-0.001330101
0.009000191,-0.00132489
0.00800019,-0.001319985
0.007000191,-0.001315387
0.006000191,-0.001310789
0.005000191,-0.001306191
0.004000191,-0.001301592
0.003000191,-0.001296688
0.002000191,-0.001292703
0.001000191,-0.001287798
1.907349E-07,-0.001274616
0.0009998092,-0.001251012
0.001999809,-0.001228327
0.002999809,-0.001207789
0.003999809,-0.00118817
0.004999809,-0.00116855
0.005999809,-0.001150771
0.006999809,-0.001133297
0.007999809,-0.001116131
0.00899981,-0.001099884
0.009999809,-0.00108425
0.01099981,-0.001069229
0.01199981,-0.001054514
0.01299981,-0.001040413
0.01399981,-0.001026005
0.01499981,-0.001012517
0.01599981,-0.0009996422
0.01699981,-0.0009864607
0.01799981,-0.0009741987
0.01899981,-0.0009619368
0.01999981,-0.0009499814
0.02099981,-0.0009383326
0.02199981,-0.0009269903
0.02299981,-0.000915648
0.02399981,-0.0009049188
0.02499981,-0.0008944962
0.02599981,-0.000883767
0.02699981,-0.0008736509
0.02799981,-0.0008635348
0.02899981,-0.0008537253
0.02999981,-0.0008445288
0.03099981,-0.0008347193
0.03199981,-0.0008255228
0.03299981,-0.0008163264
0.03399981,-0.0008074365
0.03499981,-0.0007985466
0.03599981,-0.0007899632
0.03699981,-0.0007813799
0.03799981,-0.0007731031
0.03899981,-0.0007648263
0.03999981,-0.000756856
0.04099981,-0.0007488858
0.04199981,-0.0007412221
0.04299981,-0.0007335583
0.04399981,-0.0007258946
0.04499981,-0.0007185375
0.04599981,-0.0007108737
0.04699981,-0.0007035166
0.04799981,-0.0006967725
0.04899981,-0.0006894154
0.04999981,-0.0006823648
0.05099981,-0.0006759273
0.05199981,-0.0006688767
0.05299981,-0.0006621326
0.05399981,-0.0006560017
0.05499981,-0.0006492576
0.05599981,-0.00064282
0.05699981,-0.0006366891
0.05799981,-0.0006302515
0.05899981,-0.0006244272
0.05999981,-0.0006182962
0.06099981,-0.0006124718
0.06199981,-0.0006066473
0.06299981,-0.000600823
0.06399981,-0.0005949985
0.06499981,-0.0005894807
0.06599981,-0.0005839628
0.06699981,-0.0005784449
0.06799981,-0.000572927
0.06899981,-0.0005674092
0.06999981,-0.0005621978
0.07099981,-0.00055668
0.07199981,-0.0005517752
0.07299981,-0.0005465639
0.07399981,-0.0005413526
0.07499981,-0.0005364478
0.07599981,-0.000531543
0.07699981,-0.0005266382
0.07799981,-0.0005217335
0.07899981,-0.0005171353
0.07999981,-0.0005122305
0.08099981,-0.0005076323
0.08199981,-0.000503034
0.08299981,-0.0004984358
0.08399981,-0.0004938376
0.08499981,-0.0004895459
0.08599981,-0.0004849477
0.08699981,-0.000480656
0.08799981,-0.0004763643
0.08899981,-0.0004717661
0.08999981,-0.000467781
0.09099981,-0.0004634893
0.09199981,-0.0004595042
0.09299981,-0.0004552125
0.09399981,-0.0004512274
0.09499981,-0.0004472423
0.09599981,-0.0004432572
0.09699981,-0.000439272
0.09799981,-0.0004352869
0.09899981,-0.0004316083
0.09999981,-0.0004276232
0.1009998,-0.0004239446
0.1019998,-0.000420266
0.1029998,-0.0004165874
0.1039998,-0.0004129088
0.1049998,-0.0004092303
0.1059998,-0.0004055517
0.1069998,-0.0004018731
0.1079998,-0.0003985011
0.1089998,-0.0003948225
0.1099998,-0.0003914505
0.1109998,-0.0003880784
0.1119998,-0.0003843998
0.1129998,-0.0003810278
0.1139998,-0.0003776558
0.1149998,-0.0003742838
0.1159998,-0.0003709117
0.1169998,-0.0003678463
0.1179998,-0.0003644742
0.1189998,-0.0003614087
0.1199998,-0.0003580367
0.1209998,-0.0003549712
0.1219998,-0.0003519058
0.1229998,-0.0003488403
0.1239998,-0.0003457748
0.1249998,-0.0003427093
0.1259998,-0.0003396438
0.1269998,-0.0003365783
0.1279998,-0.0003335129
0.1289998,-0.0003307539
0.1299998,-0.0003276884
0.1309998,-0.0003246229
0.1319998,-0.000321864
0.1329998,-0.0003191051
0.1339998,-0.0003160396
0.1349998,-0.0003132806
0.1359998,-0.0003105217
0.1369998,-0.0003077628
0.1379998,-0.0003050039
0.1389998,-0.0003022449
0.1399998,-0.000299486
0.1409998,-0.0002967271
0.1419998,-0.0002942747
0.1429998,-0.0002915157
0.1439998,-0.0002890633
0.1449998,-0.0002863044
0.1459998,-0.000283852
0.1469998,-0.0002813996
0.1479998,-0.0002786407
0.1489998,-0.0002761883
0.1499998,-0.0002737359
0.1509998,-0.0002712836
0.1519998,-0.0002685246
0.1529998,-0.0002660722
0.1539998,-0.0002636198
0.1549998,-0.0002611674
0.1559998,-0.0002587151
0.1569998,-0.0002562627
0.1579998,-0.0002538103
0.1589998,-0.0002513579
0.1599998,-0.0002489055
0.1609998,-0.0002467597
0.1619998,-0.0002440007
0.1629998,-0.0002418549
0.1639998,-0.0002394025
0.1649998,-0.0002372567
0.1659998,-0.0002348043
0.1669998,-0.0002323519
0.1679998,-0.0002302061
0.1689998,-0.0002280602
0.1699998,-0.0002259144
0.1709998,-0.0002237686
0.1719998,-0.0002213162
0.1729998,-0.0002191703
0.1739998,-0.0002167179
0.1749998,-0.0002145721
0.1759998,-0.0002121197
0.1769998,-0.0002099739
0.1779998,-0.0002078281
0.1789998,-0.0002056822
0.1799998,-0.0002035364
0.1809998,-0.000201084
0.1819998,-0.0001992447
0.1829998,-0.0001967923
0.1839998,-0.0001946465
0.1849998,-0.0001928072
0.1859998,-0.0001903548
0.1869998,-0.000188209
0.1879998,-0.0001860631
0.1889998,-0.0001839173
0.1899998,-0.0001817715
0.1909998,-0.0001796256
0.1919998,-0.0001774798
0.1929998,-0.0001756405
0.1939998,-0.0001731881
0.1949998,-0.0001710423
0.1959998,-0.000169203
0.1969998,-0.0001667506
0.1979998,-0.0001646047
0.1989998,-0.0001624589
0.1999998,-0.0001606196
0.2009998,-0.0001618257
0.2019998,-0.0001596798
0.2029998,-0.0001576566
0.2039998,-0.0001553575
0.2049998,-0.0001531503
0.2059998,-0.0001511884
0.2069998,-0.0001489813
0.2079998,-0.0001469274
0.2089998,-0.0001448735
0.2099998,-0.000142697
0.2109998,-0.0001406125
0.2119998,-0.0001384973
0.2129998,-0.0001363822
0.2139998,-0.0001343589
0.2149998,-0.0001321518
0.2159998,-0.0001301286
0.2169998,-0.0001279521
0.2179998,-0.0001257449
0.2189998,-0.0001236604
0.2199998,-0.0001213613
0.2209998,-0.0001192768
0.2219998,-0.0001171616
0.2229998,-0.0001148625
0.2239998,-0.0001128699
0.2249998,-0.0001106628
0.2259998,-0.000108425
0.2269998,-0.0001063404
0.2279998,-0.0001040413
0.2289998,-0.0001019568
0.2299998,-9.974963E-05
0.2309998,-9.754248E-05
0.2319998,-9.536599E-05
0.2329998,-9.309754E-05
0.2339998,-9.089039E-05
0.2349998,-8.87139E-05
0.2359998,-8.635347E-05
0.2369998,-8.417699E-05
0.2379998,-8.190853E-05
0.2389998,-7.957876E-05
0.2399998,-7.734096E-05
0.2409998,-7.504185E-05
0.2419998,-7.265077E-05
0.2429998,-7.035166E-05
0.2439998,-6.792993E-05
0.2449998,-6.563082E-05
0.2459998,-6.323974E-05
0.2469998,-6.084866E-05
0.2479998,-5.854955E-05
0.2489998,-5.612781E-05
0.2499998,-5.361412E-05
0.2509998,-5.128435E-05
0.2519998,-4.874E-05
0.2529998,-4.628762E-05
0.2539998,-4.377393E-05
0.2549998,-4.122957E-05
0.2559998,-3.868522E-05
0.2569998,-3.614087E-05
0.2579998,-3.344325E-05
0.2589998,-3.092955E-05
0.2599998,-2.820127E-05
0.2609998,-2.562626E-05
0.2619998,-2.292864E-05
0.2629998,-2.013905E-05
0.2639998,-1.747208E-05
0.2649998,-1.465184E-05
0.2659998,-1.183159E-05
0.2669998,-9.211658E-06
0.2679998,-6.373021E-06
0.2689998,-3.571171E-06
0.2699998,-6.558965E-07
0.2709998,2.283901E-06
0.2719998,5.186913E-06
0.2729998,8.227872E-06
0.2739998,1.126883E-05
0.2749998,1.424541E-05
0.2759998,1.749176E-05
0.2769998,2.046528E-05
0.2779998,2.365645E-05
0.2789998,2.740658E-05
0.2799998,3.034945E-05
0.2809998,3.366017E-05
0.2819998,3.706285E-05
0.2829998,4.043488E-05
0.2839998,4.392953E-05
0.2849998,4.745484E-05
0.2859998,5.104145E-05
0.2869998,5.475069E-05
0.2879998,5.83373E-05
0.2889998,6.207719E-05
0.2899998,6.587839E-05
0.2909998,6.958762E-05
0.2919998,7.366471E-05
0.2929998,7.74046E-05
0.2939998,8.14817E-05
0.2949998,8.577337E-05
0.2959998,8.966653E-05
0.2969998,9.398886E-05
0.2979998,9.843381E-05
0.2989998,0.0001025722
0.2999998,0.0001072931
0.3009998,0.000111738
0.3019998,0.0001163362
0.3029998,0.0001212103
0.3039998,0.0001259005
0.3049998,0.0001310505
0.3059998,0.0001361086
0.3069998,0.0001415038
0.3079998,0.0001470524
0.3089998,0.0001522637
0.3099998,0.0001577202
0.3109998,0.0001636979
0.3119998,0.000169461
0.3129998,0.0001755307
0.3139998,0.0001818762
0.3149998,0.0001881298
0.3159998,0.0001952111
0.3169998,0.0002022004
0.3179998,0.0002098028
0.3189998,0.0002180183
0.3199998,0.0002269388
0.3209998,0.0002366564
0.3219998,0.0002473243
0.3229998,0.0002590038
0.3239998,0.000272216
0.3249998,0.0002861333
0.3259998,0.0003018592
0.3269998,0.0003225004
0.3279998,0.0003408933
0.3289998,0.0003611255
0.3299998,0.0003835036
0.3309998,0.0004071078
0.3319998,0.0004334709
0.3329998,0.0004613668
0.3339998,0.0004920216
0.3349998,0.0005260485
0.3359998,0.0005634474
0.3369998,0.0006054445
0.3379998,0.0006535726
0.3389998,0.0007093644
0.3399998,0.0007764985
0.3409998,0.0008571207
0.3419998,0.0009558292
0.3429998,0.001078755
0.3439998,0.001226818
0.3449998,0.001405229
0.3459998,0.001614295
0.3469998,0.001846658
0.3479998,0.002104159
0.3489998,0.00237668
0.3499998,0.002659624
0.3509998,0.002954831
0.3519998,0.003280183
0.3529998,0.0035806
0.3539998,0.003887149
0.3549998,0.004190631
0.3559998,0.004506376
0.3569998,0.004819056
0.3579998,0.005131735
0.3589998,0.00545361
0.3599998,0.005772421
0.3609998,0.006097361
0.3619998,0.006428434
0.3629998,0.006750309
0.3639998,0.007087512
0.3649998,0.00742165
0.3659998,0.007755788
0.3669998,0.008102187
0.3679998,0.00843939
0.3689998,0.008782724
0.3699998,0.009132189
0.3709998,0.009478589
0.3719998,0.009828053
0.3729998,0.01017752
0.3739998,0.01052698
0.3749998,0.01087645
0.3759998,0.01122591
0.3769998,0.01157231
0.3779998,0.01192484
0.3789998,0.01227124
0.3799998,0.01261764
0.3809998,0.01296404
0.3819998,0.01329818
0.3829998,0.01364458
0.3839998,0.01397872
0.3849998,0.01431285
0.3859998,0.01465619
0.3869998,0.01497806
0.3879998,0.01530914
0.3889998,0.01564021
0.3899998,0.01595289
0.3909998,0.01627783
0.3919998,0.01659357
0.3929998,0.01689092
0.3939998,0.01720667
0.3949998,0.01750402
0.3959998,0.01779524
0.3969998,0.01809259
0.3979998,0.01836849
0.3989998,0.01865358
0.3999998,0.01892334
0.4009998,0.01918697
0.4019998,0.0194598
0.4029998,0.0197081
0.4039998,0.01995947
0.4049998,0.02021391
0.4059998,0.02043156
0.4069998,0.0206676
0.4079998,0.02088525
0.4089998,0.02108757
0.4099998,0.02130522
0.4109998,0.02149835
0.4119998,0.02167614
0.4129998,0.02184781
0.4139998,0.02201335
0.4149998,0.02216356
0.4159998,0.02230457
0.4169998,0.02243945
0.4179998,0.02254981
0.4189998,0.02267549
0.4199998,0.02277052
0.4209998,0.02285329
0.4219998,0.02293606
0.4229998,0.02297897
0.4239998,0.02303109
0.4249998,0.02307094
0.4259998,0.02308627
0.4269998,0.02310772
0.4279998,0.02309853
0.4289998,0.02308627
0.4299998,0.02306481
0.4309998,0.02300656
0.4319998,0.02296058
0.4329998,0.02289008
0.4339998,0.02279198
0.4349998,0.02270615
0.4359998,0.0225774
0.4369998,0.02244865
0.4379998,0.02231683
0.4389998,0.02214823
0.4399998,0.02199496
0.4409998,0.02181103
0.4419998,0.02162096
0.4429998,0.02144317
0.4439998,0.02122552
0.4449998,0.02102626
0.4459998,0.02083007
0.4469998,0.02060936
0.4479998,0.02042849
0.4489998,0.02023537
0.4499998,0.02004531
0.4509998,0.0198951
0.4519998,0.01973263
0.4529998,0.01960081
0.4539998,0.01949045
0.4549998,0.0193801
0.4559998,0.01931572
0.4569998,0.01924828
0.4579998,0.01919617
0.4589998,0.01918391
0.4599998,0.01914712
0.4609998,0.01915018
0.4619998,0.01916858
0.4629998,0.01915938
0.4639998,0.0192023
0.4649998,0.01923908
0.4659998,0.01926667
0.4669998,0.01933412
0.4679998,0.0193801
0.4689998,0.01943834
0.4699998,0.01951804
0.4709998,0.01957629
0.4719998,0.01966825
0.4729998,0.01975102
0.4739998,0.01983992
0.4749998,0.01995947
0.4759998,0.02004224
0.4769998,0.02014647
0.4779998,0.02028135
0.4789998,0.02037331
0.4799998,0.02051126
0.4809998,0.02065534
0.4819998,0.02077183
0.4829998,0.02094043
0.4839998,0.02108757
0.4849998,0.02124085
0.4859998,0.02142477
0.4869998,0.02159338
0.4879998,0.0217865
0.4889998,0.02198882
0.4899998,0.02219114
0.4909998,0.02242719
0.4919998,0.02264484
0.4929998,0.02288088
0.4939998,0.02314145
0.4949998,0.02337749
0.4959998,0.02364112
0.4969998,0.02391701
0.4979998,0.02417758
0.4989998,0.024478
0.4999998,0.02476921
0.5009998,0.02506044
0.5019998,0.02537005
0.5029998,0.0256674
0.5039998,0.02599234
0.5049998,0.02632035
0.5059998,0.02663303
0.5069998,0.0269825
0.5079998,0.02732276
0.5089998,0.02765383
0.5099998,0.02801556
0.5109998,0.02836503
0.5119998,0.02872675
0.5129998,0.02908848
0.5139998,0.02944714
0.5149998,0.02982113
0.5159998,0.03018899
0.5169998,0.0313304
0.5179998,0.03169826
0.5189998,0.03206612
0.5199998,0.03246463
0.5209998,0.03286314
0.5219998,0.033231
0.5229998,0.03362951
0.5239998,0.03405868
0.5249998,0.03442654
0.5259998,0.03482505
0.5269998,0.03525422
0.5279998,0.03562208
0.5289998,0.0360819
0.5299998,0.03648041
0.5309998,0.03687892
0.5319998,0.03730809
0.5329998,0.03770661
0.5339998,0.03813577
0.5349998,0.03859559
0.5359998,0.03899411
0.5369998,0.03942328
0.5379998,0.03982178
0.5389998,0.04025095
0.5399998,0.04068012
0.5409998,0.04107863
0.5419998,0.04153846
0.5429998,0.04196763
0.5439998,0.0423968
0.5449998,0.04285662
0.5459998,0.04325513
0.5469998,0.04371495
0.5479998,0.04417477
0.5489998,0.04457328
0.5499998,0.04503311
0.5509998,0.04549293
0.5519998,0.04589145
0.5529998,0.04635127
0.5539998,0.04678043
0.5549998,0.0472096
0.5559998,0.04766942
0.5569998,0.04809859
0.5579998,0.04855841
0.5589998,0.04901823
0.5599998,0.0494474
0.5609998,0.04990723
0.5619998,0.05033639
0.5629998,0.05076556
0.5639998,0.05125604
0.5649998,0.05171586
0.5659998,0.05214503
0.5669998,0.05260485
0.5679998,0.05306467
0.5689998,0.05349384
0.5699998,0.05398431
0.5709998,0.05441349
0.5719998,0.05487331
0.5729998,0.05533313
0.5739998,0.05579295
0.5749998,0.05625277
0.5759998,0.0567126
0.5769998,0.05717242
0.5779998,0.05763224
0.5789998,0.05809207
0.5799998,0.05855189
0.5809998,0.05904236
0.5819998,0.05947153
0.5829998,0.05993135
0.5839998,0.06042183
0.5849998,0.060851
0.5859998,0.06134148
0.5869998,0.06177064
0.5879998,0.06223046
0.5889998,0.06272095
0.5899998,0.06318077
0.5909998,0.06367125
0.5919998,0.06413107
0.5929998,0.06456023
0.5939998,0.06505071
0.5949998,0.06551053
0.5959998,0.06597035
0.5969998,0.06646083
0.5979998,0.06688999
0.5989998,0.06738048
0.5999998,0.0678403
0.6009998,0.06826947
0.6019998,0.0687906
0.6029998,0.06925042
0.6039998,0.06971025
0.6049998,0.07023137
0.6059998,0.07066055
0.6069998,0.07115102
0.6079998,0.0716415
0.6089998,0.07207067
0.6099998,0.0725918
0.6109998,0.07302096
0.6119998,0.07348078
0.6129998,0.07397126
0.6139998,0.07443108
0.6149998,0.07492156
0.6159998,0.07538139
0.6169998,0.07584121
0.6179998,0.07636234
0.6189998,0.07682216
0.6199998,0.07728198
0.6209998,0.07780312
0.6219998,0.07823228
0.6229998,0.07872277
0.6239998,0.07924389
0.6249998,0.07967306
0.6259998,0.08016354
0.6269998,0.08065402
0.6279998,0.08111384
0.6289998,0.08160432
0.6299998,0.08203348
0.6309998,0.08252396
0.6319998,0.08301444
0.6329998,0.08347426
0.6339998,0.08399539
0.6349998,0.08445521
0.6359998,0.08491503
0.6369998,0.08546682
0.6379998,0.08589599
0.6389998,0.08641712
0.6399998,0.0869076
0.6409998,0.08733677
0.6419998,0.08785789
0.6429998,0.08831772
0.6439998,0.08877754
0.6449998,0.08926802
0.6459998,0.08972784
0.6469998,0.09024898
0.6479998,0.0907088
0.6489998,0.09116862
0.6499998,0.09172041
0.6509998,0.09214958
0.6519998,0.09264006
0.6529998,0.09322249
0.6539998,0.09362101
0.6549998,0.09414214
0.6559998,0.09466327
0.6569998,0.09506179
0.6579998,0.09561357
0.6589998,0.09610405
0.6599998,0.09653322
0.6609998,0.09705435
0.6619998,0.09748352
0.6629998,0.09797399
0.6639998,0.09846447
0.6649998,0.09892429
0.6659998,0.09947608
0.6669998,0.0999359
0.6679998,0.1004264
0.6689998,0.1009782
0.6699998,0.1014073
0.6709998,0.1019285
0.6719998,0.1024496
0.6729998,0.1028481
0.6739998,0.1033692
0.6749998,0.1038597
0.6759998,0.1043195
0.6769998,0.1048407
0.6779998,0.1053005
0.6789998,0.105791
0.6799998,0.1063121
0.6809998,0.1067719
0.6819998,0.1072624
0.6829998,0.1077835
0.6839998,0.1082433
0.6849998,0.1087645
0.6859998,0.109255
0.6869998,0.1097454
0.6879998,0.1102053
0.6889998,0.1107264
0.6899998,0.1111862
0.6909998,0.1116767
0.6919998,0.1121672
0.6929998,0.1126576
0.6939998,0.1131481
0.6949998,0.1136386
0.6959998,0.1141291
0.6969998,0.1146502
0.6979998,0.11511
0.6989998,0.1156312
0.6999998,0.1157231
0.6990003,0.1152327
0.6980003,0.1147728
0.6970003,0.1142517
0.6960003,0.1137612
0.6950003,0.1132708
0.6940003,0.1127803
0.6930003,0.1122898
0.6920003,0.1117993
0.6910003,0.1113088
0.6900003,0.1107877
0.6890003,0.1102972
0.6880003,0.1098068
0.6870003,0.1093163
0.6860003,0.1088258
0.6850003,0.1083047
0.6840003,0.1078142
0.6830003,0.1072931
0.6820003,0.1068026
0.6810003,0.1063428
0.6800003,0.1058216
0.6790003,0.1053311
0.6780003,0.1048407
0.6770003,0.1043502
0.6760003,0.1038597
0.6750003,0.1033692
0.6740003,0.1028481
0.6730003,0.1023576
0.6720003,0.1018978
0.6710003,0.1013767
0.6700003,0.1009169
0.6690003,0.1004264
0.6680003,0.09987459
0.6670003,0.09944542
0.6660003,0.09892429
0.6650003,0.09843381
0.6640003,0.09794334
0.6630003,0.0974222
0.6620003,0.09699304
0.6610003,0.09647191
0.6600003,0.09598143
0.6590003,0.09552161
0.6580003,0.09500048
0.6570003,0.09454065
0.6560003,0.09405018
0.6550003,0.09352904
0.6540003,0.09306922
0.6530003,0.09254809
0.6520003,0.09205761
0.6510003,0.09156714
0.6500003,0.09107666
0.6490003,0.09058618
0.6480003,0.0900957
0.6470003,0.08960523
0.6460003,0.08914541
0.6450003,0.08862427
0.6440003,0.08816445
0.6430003,0.08767397
0.6420003,0.08715284
0.6410003,0.08669301
0.6400003,0.08623319
0.6390003,0.08571207
0.6380003,0.08525224
0.6370003,0.08476176
0.6360003,0.08424063
0.6350003,0.08378081
0.6340003,0.08329033
0.6330003,0.0827692
0.6320003,0.08234003
0.6310003,0.0818189
0.6300003,0.08135908
0.6290003,0.08089925
0.6280003,0.08037812
0.6270003,0.0799183
0.6260003,0.07942782
0.6250003,0.07893734
0.6240003,0.07850818
0.6230003,0.07798705
0.6220003,0.07752723
0.6210003,0.07703675
0.6200003,0.07654627
0.6190003,0.07608645
0.6180003,0.07556532
0.6170003,0.07510549
0.6160003,0.07464567
0.6150003,0.07412454
0.6140003,0.07366472
0.6130003,0.07317424
0.6120003,0.07268376
0.6110003,0.07222394
0.6100003,0.07173347
0.6090003,0.07127364
0.6080003,0.07078316
0.6070003,0.07029268
0.6060003,0.06986352
0.6050003,0.06934239
0.6040003,0.06885191
0.6030003,0.06842274
0.6020003,0.0679016
0.6010003,0.06741113
0.6000003,0.06698196
0.5990003,0.06646083
0.5980003,0.06600101
0.5970003,0.06554119
0.5960003,0.06505071
0.5950003,0.06459089
0.5940003,0.06413107
0.5930003,0.06364059
0.5920003,0.06318077
0.5910003,0.06272095
0.5900003,0.06223046
0.5890003,0.06177064
0.5880003,0.06128017
0.5870003,0.06078969
0.5860003,0.06036052
0.5850003,0.05987004
0.5840003,0.05941022
0.5830003,0.0589504
0.5820003,0.05845992
0.5810003,0.05796945
0.5800003,0.05754028
0.5790003,0.05708046
0.5780003,0.05658998
0.5770003,0.05616081
0.5760003,0.05567033
0.5750003,0.05521051
0.5740003,0.05475069
0.5730003,0.05429087
0.5720003,0.05380039
0.5710003,0.05334057
0.5700003,0.05288074
0.5690003,0.05242092
0.5680003,0.0519611
0.5670003,0.05150127
0.5660003,0.05104145
0.5650003,0.05058163
0.5640003,0.05012181
0.5630003,0.04966199
0.5620003,0.04920216
0.5610003,0.04874234
0.5600003,0.04828252
0.5590003,0.0478227
0.5580003,0.04739353
0.5570003,0.04690305
0.5560003,0.04647389
0.5550003,0.04601406
0.5540003,0.04555424
0.5530003,0.04509442
0.5520003,0.0446346
0.5510003,0.04417477
0.5500003,0.0437456
0.5490003,0.04328578
0.5480003,0.04282596
0.5470003,0.0423968
0.5460003,0.04193697
0.5450003,0.04147715
0.5440003,0.04104798
0.5430003,0.04058816
0.5420003,0.04012834
0.5410003,0.03969917
0.5400003,0.03920869
0.5390003,0.03881018
0.5380003,0.03838101
0.5370003,0.03789053
0.5360003,0.03749202
0.5350003,0.0370322
0.5340003,0.03660303
0.5330003,0.03617386
0.5320003,0.03577535
0.5310003,0.03531553
0.5300003,0.03488636
0.5290003,0.03442654
0.5280003,0.03402802
0.5270003,0.0335682
0.5260003,0.03310838
0.5250003,0.03270987
0.5240003,0.03225004
0.5230003,0.03185153
0.5220003,0.03142237
0.5210003,0.0309932
0.5200003,0.03056403
0.5190003,0.03013486
0.5180003,0.02970569
0.5170003,0.02927653
0.5160003,0.02884736
0.5150003,0.02844885
0.5140003,0.02801968
0.5130003,0.02759051
0.5120003,0.027192
0.5110003,0.02676283
0.5100003,0.02633366
0.5090003,0.0259658
0.5080003,0.02550598
0.5070003,0.02510747
0.5060003,0.02470896
0.5050003,0.02427979
0.5040003,0.02391193
0.5030003,0.02348276
0.5020003,0.02308425
0.5010003,0.02271639
0.5000003,0.02228723
0.4990003,0.02188871
0.4980003,0.0214902
0.4970003,0.02109169
0.4960003,0.02069318
0.4950003,0.02032532
0.4940003,0.01992681
0.4930003,0.01952829
0.4920003,0.01912978
0.4910003,0.01876192
0.4900003,0.01839406
0.4890003,0.01799555
0.4880003,0.01762769
0.4870003,0.01725983
0.4860003,0.01689198
0.4850003,0.01652412
0.4840003,0.01615626
0.4830003,0.0157884
0.4820003,0.01542055
0.4810003,0.01505269
0.4800003,0.01468483
0.4790003,0.01434763
0.4780003,0.01397977
0.4770003,0.01361191
0.4760003,0.01327471
0.4750003,0.01243984
0.4740003,0.01209651
0.4730003,0.01175624
0.4720003,0.01142824
0.4710003,0.01109716
0.4700003,0.01076609
0.4690003,0.01044422
0.4680003,0.01011927
0.4670003,0.009797399
0.4660003,0.009481654
0.4650003,0.009172041
0.4640003,0.008859362
0.4630003,0.008555878
0.4620003,0.008252396
0.4610003,0.007955044
0.4600003,0.007654627
0.4590003,0.007366471
0.4580003,0.007081382
0.4570003,0.006793226
0.4560003,0.006517333
0.4550003,0.006241439
0.4540003,0.00596248
0.4530003,0.005698849
0.4520003,0.005432152
0.4510003,0.005171585
0.4500003,0.004920216
0.4490003,0.004668847
0.4480003,0.004420543
0.4470003,0.004178369
0.4460003,0.003939262
0.4450003,0.003706285
0.4440003,0.003476374
0.4430003,0.003252594
0.4420003,0.003034944
0.4410003,0.00281423
0.4400003,0.002608842
0.4390003,0.00240039
0.4380003,0.002198068
0.4370003,0.002004942
0.4360003,0.001811817
0.4350003,0.001630954
0.4340003,0.001447024
0.4330003,0.001269227
0.4320003,0.001068332
0.4310003,0.0008978916
0.4300003,0.0007369537
0.4290003,0.0005790814
0.4280003,0.0004218221
0.4270003,0.0002765182
0.4260003,0.0001302947
0.4250003,-1.133061E-05
0.4240003,-0.0001480616
0.4230003,-0.0002818393
0.4220003,-0.0004098434
0.4210003,-0.0005312365
0.4200003,-0.00065171
0.4190003,-0.0007645197
0.4180003,-0.0008797819
0.4170003,-0.0009870738
0.4160003,-0.001091607
0.4150003,-0.001197366
0.4140003,-0.001291476
0.4130003,-0.001388652
0.4120003,-0.001484295
0.4110003,-0.001570129
0.4100003,-0.001666691
0.4090003,-0.001759269
0.4080003,-0.001836213
0.4070003,-0.0019199
0.4060003,-0.001996844
0.4050003,-0.002073481
0.4040003,-0.002151651
0.4030003,-0.002225529
0.4020003,-0.002301859
0.4010003,-0.002374205
0.4000003,-0.002445937
0.3990003,-0.002523187
0.3980003,-0.002593387
0.3970003,-0.002667571
0.3960003,-0.002746048
0.3950003,-0.002815941
0.3940003,-0.002891352
0.3930003,-0.002970748
0.3920003,-0.003047078
0.3910003,-0.003096021
0.3900003,-0.003175723
0.3890003,-0.003258491
0.3880003,-0.00334739
0.3870003,-0.003436289
0.3860003,-0.003528254
0.3850003,-0.003623284
0.3840003,-0.003721379
0.3830003,-0.003828671
0.3820003,-0.003929832
0.3810003,-0.004043255
0.3800003,-0.004159743
0.3790003,-0.004273166
0.3780003,-0.004398851
0.3770003,-0.004524535
0.3760003,-0.00465022
0.3750003,-0.004788167
0.3740003,-0.004926114
0.3730003,-0.005067126
0.3720003,-0.005214269
0.3710003,-0.005364478
0.3700003,-0.005517752
0.3690003,-0.005677157
0.3680003,-0.005836562
0.3670003,-0.006002098
0.3660003,-0.006170699
0.3650003,-0.006336236
0.3640003,-0.006514033
0.3630003,-0.006685701
0.3620003,-0.006863499
0.3610003,-0.007041297
0.3600003,-0.00722216
0.3590003,-0.007409154
0.3580003,-0.007596149
0.3570003,-0.007777012
0.3560003,-0.007970138
0.3550003,-0.008157132
0.3540003,-0.008344127
0.3530003,-0.008537252
0.3520003,-0.008727312
0.3510003,-0.008920438
0.3500003,-0.009113563
0.3490003,-0.009309754
0.3480003,-0.009502879
0.3470003,-0.009696005
0.3460003,-0.00989526
0.3450003,-0.01008839
0.3440003,-0.01028458
0.3430003,-0.01048077
0.3420003,-0.01067083
0.3410003,-0.01086702
0.3400003,-0.01106014
0.3390003,-0.01125327
0.3380003,-0.01144333
0.3370003,-0.01163339
0.3360003,-0.01182038
0.3350003,-0.01200431
0.3340003,-0.01218824
0.3330003,-0.01236604
0.3320003,-0.01254077
0.3310003,-0.01271551
0.3300003,-0.01288717
0.3290003,-0.01305271
0.3280003,-0.01321824
0.3270003,-0.01337152
0.3260003,-0.01352786
0.3250003,-0.01367807
0.3240003,-0.01381295
0.3230003,-0.01395703
0.3220003,-0.01408578
0.3210003,-0.01420533
0.3200003,-0.01434328
0.3190003,-0.0144475
0.3180003,-0.01455786
0.3170003,-0.01467128
0.3160003,-0.01475405
0.3150003,-0.01485521
0.3140003,-0.01494411
0.3130003,-0.01502075
0.3120003,-0.01510045
0.3110003,-0.01517096
0.3100003,-0.01524146
0.3090003,-0.01531197
0.3080003,-0.01537328
0.3070003,-0.01544992
0.3060003,-0.01550509
0.3050003,-0.01555721
0.3040003,-0.01562465
0.3030003,-0.01567063
0.3020003,-0.01572274
0.3010003,-0.01578712
0.3000003,-0.01583004
0.2990003,-0.01588215
0.2980003,-0.01593426
0.2970003,-0.01597411
0.2960003,-0.01602929
0.2950003,-0.01607834
0.2940003,-0.01612126
0.2930003,-0.01617337
0.2920003,-0.01621935
0.2910003,-0.0162592
0.2900003,-0.01631438
0.2890003,-0.0163481
0.2880003,-0.01638795
0.2870003,-0.01644007
0.2860003,-0.01646153
0.2850003,-0.01651364
0.2840003,-0.01654736
0.2830003,-0.01657495
0.2820003,-0.016624
0.2810003,-0.01664239
0.2800003,-0.01667304
0.2790003,-0.01670983
0.2780003,-0.01671596
0.2770003,-0.01674661
0.2760003,-0.01676194
0.2750003,-0.01676194
0.2740003,-0.01678034
0.2730003,-0.01677114
0.2720003,-0.01677114
0.2710003,-0.01676194
0.2700003,-0.01674355
0.2690003,-0.01673435
0.2680003,-0.0166945
0.2670003,-0.01666078
0.2660003,-0.01662706
0.2650003,-0.01654736
0.2640003,-0.01648911
0.2630003,-0.01640941
0.2620003,-0.01629292
0.2610003,-0.01619176
0.2600003,-0.01606301
0.2590003,-0.01590667
0.2580003,-0.01575646
0.2570003,-0.0155664
0.2560003,-0.01537328
0.2550003,-0.01516176
0.2540003,-0.01491039
0.2530003,-0.01467128
0.2520003,-0.01439232
0.2510003,-0.01408271
0.2500003,-0.01379762
0.2490003,-0.01345735
0.2480003,-0.01311095
0.2470003,-0.01277988
0.2460003,-0.01239976
0.2450003,-0.0120411
0.2440003,-0.01169163
0.2430003,-0.01132071
0.2420003,-0.01100803
0.2410003,-0.01067696
0.2400003,-0.01035815
0.2390003,-0.01007919
0.2380003,-0.009772642
0.2370003,-0.009518206
0.2360003,-0.009272968
0.2350003,-0.009018533
0.2340003,-0.008813146
0.2330003,-0.008589366
0.2320003,-0.008387043
0.2310003,-0.008215376
0.2300003,-0.008013055
0.2290003,-0.00785365
0.2280003,-0.007706506
0.2270003,-0.007531774
0.2260003,-0.007396893
0.2250003,-0.007262012
0.2240003,-0.007111803
0.2230003,-0.007001445
0.2220003,-0.00687576
0.2210003,-0.00674701
0.2200003,-0.00665198
0.2190003,-0.006535492
0.2180003,-0.0064282
0.2170003,-0.006339301
0.2160003,-0.006235075
0.2150003,-0.006149241
0.2140003,-0.006060342
0.2130003,-0.005959181
0.2120003,-0.005894806
0.2110003,-0.005799776
0.2100003,-0.005720073
0.2090003,-0.005655698
0.2080003,-0.005560669
0.2070003,-0.005493228
0.2060003,-0.005422722
0.2050003,-0.005339954
0.2040003,-0.00528171
0.2030003,-0.005205072
0.2020003,-0.005134566
0.2010003,-0.005073257
0.2000003,-0.00499662
0.1990003,-0.004938376
0.1980003,-0.004870935
0.1970003,-0.00480656
0.1960003,-0.004754446
0.1950003,-0.004680875
0.1940003,-0.004631828
0.1930003,-0.004576649
0.1920003,-0.004512274
0.1910003,-0.004469357
0.1900003,-0.004411113
0.1890003,-0.004355934
0.1880003,-0.004306886
0.1870003,-0.004251707
0.1860003,-0.004205726
0.1850003,-0.004156678
0.1840003,-0.004104564
0.1830003,-0.004064713
0.1820003,-0.004009534
0.1810003,-0.003969683
0.1800003,-0.003932897
0.1790003,-0.003874653
0.1780003,-0.003840933
0.1770003,-0.003798016
0.1760003,-0.003752034
0.1750003,-0.003715248
0.1740003,-0.003672331
0.1730003,-0.00363248
0.1720003,-0.003592629
0.1710003,-0.003552777
0.1700003,-0.003519057
0.1690003,-0.00347614
0.1680003,-0.003439354
0.1670003,-0.003405634
0.1660003,-0.003365783
0.1650003,-0.003325932
0.1640003,-0.003292212
0.1630003,-0.00325236
0.1620003,-0.003212509
0.1610003,-0.003178789
0.1600003,-0.003138937
0.1590003,-0.003099086
0.1580003,-0.0030623
0.1570003,-0.003022449
0.1560003,-0.002985663
0.1550003,-0.002951943
0.1540003,-0.002915157
0.1530003,-0.002881437
0.1520003,-0.002847716
0.1510003,-0.002817062
0.1500003,-0.002786407
0.1490003,-0.002755752
0.1480003,-0.002728163
0.1470003,-0.002700574
0.1460003,-0.002672984
0.1450003,-0.002645395
0.1440003,-0.002620871
0.1430003,-0.002596347
0.1420003,-0.002571823
0.1410003,-0.002547299
0.1400003,-0.002525841
0.1390003,-0.002504382
0.1380003,-0.002482924
0.1370003,-0.0024584
0.1360003,-0.002440007
0.1350003,-0.002418549
0.1340003,-0.002400156
0.1330003,-0.002381763
0.1320003,-0.002360305
0.1310003,-0.002344977
0.1300003,-0.002326585
0.1290003,-0.002308191
0.1280003,-0.002289799
0.1270003,-0.002274471
0.1260003,-0.002256078
0.1250003,-0.002240751
0.1240003,-0.002225423
0.1230003,-0.002210096
0.1220003,-0.002194769
0.1210003,-0.002179441
0.1200003,-0.002164114
0.1190003,-0.002148786
0.1180003,-0.002136525
0.1170003,-0.002121197
0.1160003,-0.002108935
0.1150003,-0.002093608
0.1140003,-0.002081346
0.1130003,-0.002069084
0.1120003,-0.002056822
0.1110003,-0.002041495
0.1100003,-0.002029233
0.1090003,-0.002016971
0.1080003,-0.002004709
0.1070003,-0.001995512
0.1060003,-0.00198325
0.1050003,-0.001970988
0.1040003,-0.001958727
0.1030003,-0.00194953
0.1020003,-0.001937268
0.1010003,-0.001925006
0.1000003,-0.00191581
0.09900028,-0.001903548
0.09800029,-0.001894351
0.09700029,-0.001885155
0.09600028,-0.001872893
0.09500029,-0.001863697
0.09400029,-0.0018545
0.09300029,-0.001842238
0.09200028,-0.001833042
0.09100029,-0.001823845
0.09000029,-0.001814649
0.08900028,-0.001805453
0.08800028,-0.001796256
0.08700029,-0.00178706
0.08600029,-0.001777863
0.08500028,-0.001771732
0.08400029,-0.001762536
0.08300029,-0.001753339
0.08200029,-0.001744143
0.08100028,-0.001734946
0.08000029,-0.00172575
0.07900029,-0.001719619
0.07800028,-0.001710422
0.07700028,-0.001701226
0.07600029,-0.001695095
0.07500029,-0.001685899
0.07400028,-0.001676702
0.07300029,-0.001670571
0.07200029,-0.001661375
0.07100029,-0.001655244
0.07000028,-0.001646047
0.06900029,-0.001639916
0.06800029,-0.001633785
0.06700028,-0.001624589
0.06600028,-0.00165351
0.06500029,-0.001646459
0.06400029,-0.001639102
0.06300028,-0.001632051
0.06200029,-0.001625307
0.06100029,-0.001618257
0.06000029,-0.001611819
0.05900029,-0.001604769
0.05800029,-0.001598025
0.05700029,-0.001591894
0.05600028,-0.001584536
0.05500029,-0.001578099
0.05400028,-0.001571968
0.05300029,-0.001564917
0.05200029,-0.001559093
0.05100029,-0.001552962
0.05000029,-0.001546218
0.04900029,-0.001540393
0.04800029,-0.001533956
0.04700029,-0.001527825
0.04600029,-0.001522001
0.04500028,-0.00151587
0.04400029,-0.001509739
0.04300028,-0.001503914
0.04200029,-0.00149809
0.04100028,-0.001491959
0.04000029,-0.001486134
0.03900029,-0.00148031
0.03800029,-0.001474792
0.03700029,-0.001469274
0.03600029,-0.00146345
0.03500029,-0.001457932
0.03400028,-0.001452414
0.03300029,-0.001446896
0.03200028,-0.001441378
0.03100029,-0.001435554
0.03000029,-0.001430343
0.02900029,-0.001424825
0.02800029,-0.001419307
0.02700029,-0.001414096
0.02600029,-0.001408884
0.02500029,-0.001403673
0.02400029,-0.001398462
0.02300029,-0.00139325
0.02200029,-0.001388345
0.02100029,-0.001382828
0.02000029,-0.001377923
0.01900029,-0.001372712
0.01800029,-0.0013675
0.01700029,-0.001362902
0.01600029,-0.001357691
0.01500029,-0.001352479
0.01400029,-0.001347881
0.01300029,-0.00134267
0.01200029,-0.001337765
0.01100029,-0.001333167
0.01000029,-0.001328262
0.009000286,-0.001323664
0.008000286,-0.001318759
0.007000286,-0.001313854
0.006000286,-0.001309563
0.005000286,-0.001304351
0.004000286,-0.00130006
0.003000286,-0.001295768
0.002000286,-0.001290863
0.001000286,-0.001286571
2.861023E-07,-0.001272777
0.0009997139,-0.001247946
0.001999714,-0.001225262
0.002999714,-0.001203497
0.003999714,-0.001183265
0.004999714,-0.001163646
0.005999714,-0.001144946
0.006999714,-0.001127473
0.007999714,-0.00111
0.008999714,-0.00109314
0.009999714,-0.001077506
0.01099971,-0.001061565
0.01199971,-0.001046851
0.01299971,-0.001032136
0.01399971,-0.001017729
0.01499971,-0.001003934
0.01599971,-0.0009907524
0.01699971,-0.0009772643
0.01799971,-0.0009646958
0.01899971,-0.0009521273
0.01999971,-0.0009398654
0.02099971,-0.0009282165
0.02199971,-0.0009165677
0.02299971,-0.0009052254
0.02399971,-0.0008941896
0.02499971,-0.0008831539
0.02599971,-0.0008727313
0.02699971,-0.0008623086
0.02799971,-0.0008518859
0.02899971,-0.0008420764
0.02999971,-0.0008322669
0.03099971,-0.0008224574
0.03199971,-0.0008132609
0.03299971,-0.0008040644
0.03399972,-0.000794868
0.03499971,-0.0007859781
0.03599972,-0.0007770882
0.03699971,-0.0007688114
0.03799972,-0.0007602281
0.03899971,-0.0007519512
0.03999971,-0.000743981
0.04099971,-0.0007357041
0.04199971,-0.0007277339
0.04299971,-0.0007200702
0.04399971,-0.0007121
0.04499971,-0.0007047429
0.04599971,-0.0006970791
0.04699972,-0.0006900285
0.04799971,-0.0006829779
0.04899972,-0.0006756207
0.04999971,-0.0006685701
0.05099971,-0.0006618261
0.05199971,-0.0006547754
0.05299971,-0.0006483379
0.05399971,-0.0006419004
0.05499971,-0.0006348498
0.05599971,-0.0006287188
0.05699971,-0.0006222813
0.05799972,-0.0006161503
0.05899971,-0.0006100194
0.05999972,-0.0006038884
0.06099971,-0.000598064
0.06199971,-0.000591933
0.06299971,-0.0005864152
0.06399971,-0.0005805907
0.06499971,-0.0005747664
0.06599972,-0.0005692485
0.06699971,-0.0005637306
0.06799971,-0.0005579062
0.06899972,-0.0005526949
0.06999972,-0.000547177
0.07099971,-0.0005416591
0.07199971,-0.0005367543
0.07299972,-0.000531543
0.07399971,-0.0005263317
0.07499971,-0.000521427
0.07599971,-0.0005165222
0.07699972,-0.0005116174
0.07799971,-0.0005067126
0.07899971,-0.0005018078
0.07999972,-0.0004972096
0.08099972,-0.0004926114
0.08199971,-0.0004877066
0.08299971,-0.0004834149
0.08399972,-0.0004785102
0.08499971,-0.000473912
0.08599971,-0.0004696203
0.08699971,-0.0004653286
0.08799972,-0.000461037
0.08899971,-0.0004567453
0.08999971,-0.0004524536
0.09099972,-0.0004481619
0.09199972,-0.0004441768
0.09299971,-0.0004401917
0.09399971,-0.0004359
0.09499972,-0.0004319148
0.09599971,-0.0004279297
0.09699971,-0.0004239446
0.09799971,-0.0004199595
0.09899972,-0.0004162809
0.09999971,-0.0004122957
0.1009997,-0.0004086172
0.1019997,-0.0004049386
0.1029997,-0.0004009535
0.1039997,-0.0003975815
0.1049997,-0.0003939029
0.1059997,-0.0003902243
0.1069997,-0.0003868522
0.1079997,-0.0003831737
0.1089997,-0.0003798016
0.1099997,-0.0003764296
0.1109997,-0.000372751
0.1119997,-0.000369379
0.1129997,-0.0003660069
0.1139997,-0.0003626349
0.1149997,-0.0003592629
0.1159997,-0.0003558909
0.1169997,-0.0003528254
0.1179997,-0.0003494534
0.1189997,-0.0003463879
0.1199997,-0.0003433224
0.1209997,-0.0003402569
0.1219997,-0.0003368849
0.1229997,-0.0003341259
0.1239997,-0.0003307539
0.1249997,-0.0003276884
0.1259997,-0.0003249295
0.1269997,-0.000321864
0.1279997,-0.0003191051
0.1289997,-0.0003160396
0.1299997,-0.0003132806
0.1309997,-0.0003102152
0.1319997,-0.0003074562
0.1329997,-0.0003046973
0.1339997,-0.0003019384
0.1349997,-0.0002988729
0.1359997,-0.0002964205
0.1369997,-0.0002936616
0.1379997,-0.0002905961
0.1389997,-0.0002881437
0.1399997,-0.0002853848
0.1409997,-0.0002826258
0.1419997,-0.0002801734
0.1429997,-0.0002777211
0.1439997,-0.0002749621
0.1449997,-0.0002725097
0.1459997,-0.0002700574
0.1469997,-0.0002672984
0.1479997,-0.0002648461
0.1489997,-0.0002623936
0.1499997,-0.0002599413
0.1509997,-0.0002574889
0.1519997,-0.0002550365
0.1529997,-0.0002525841
0.1539997,-0.0002501317
0.1549997,-0.0002476793
0.1559997,-0.000245227
0.1569997,-0.0002427746
0.1579997,-0.0002403222
0.1589997,-0.0002381763
0.1599997,-0.000235724
0.1609997,-0.0002335781
0.1619997,-0.0002311257
0.1629997,-0.0002289799
0.1639997,-0.0002268341
0.1649997,-0.0002243817
0.1659997,-0.0002222358
0.1669997,-0.0002197834
0.1679997,-0.0002176376
0.1689997,-0.0002154918
0.1699997,-0.0002133459
0.1709997,-0.0002108935
0.1719997,-0.0002087477
0.1729997,-0.0002066019
0.1739997,-0.000204456
0.1749997,-0.0002023102
0.1759997,-0.0002001643
0.1769997,-0.0001980185
0.1779997,-0.0001958727
0.1789997,-0.0001937268
0.1799997,-0.000191581
0.1809997,-0.0001894352
0.1819997,-0.0001872893
0.1829997,-0.00018545
0.1839997,-0.0001833042
0.1849997,-0.0001811584
0.1859997,-0.0001793191
0.1869997,-0.0001771732
0.1879997,-0.0001750274
0.1889997,-0.0001728816
0.1899997,-0.0001710423
0.1909997,-0.0001688964
0.1919997,-0.0001667506
0.1929997,-0.0001646047
0.1939997,-0.0001627655
0.1949997,-0.0001606196
0.1959997,-0.000161795
0.1969997,-0.0001598638
0.1979997,-0.0001577792
0.1989997,-0.0001557867
0.1999997,-0.0001537941
0.2009997,-0.0001517709
0.2019997,-0.000149809
0.2029997,-0.0001477858
0.2039997,-0.0001457319
0.2049997,-0.0001437087
0.2059997,-0.0001417774
0.2069997,-0.0001397848
0.2079997,-0.000137731
0.2089997,-0.0001357384
0.2099997,-0.0001336539
0.2109997,-0.0001315694
0.2119997,-0.0001295155
0.2129997,-0.0001275842
0.2139997,-0.000125561
0.2149997,-0.0001235684
0.2159997,-0.0001216372
0.2169997,-0.0001196446
0.2179997,-0.0001175601
0.2189997,-0.0001156288
0.2199997,-0.000113483
0.2209997,-0.0001114598
0.2219997,-0.0001094366
0.2229997,-0.0001072601
0.2239997,-0.0001052062
0.2249997,-0.0001032443
0.2259997,-0.0001011904
0.2269997,-9.910588E-05
0.2279997,-9.705201E-05
0.2289997,-9.502879E-05
0.2299997,-9.294426E-05
0.2309997,-9.089039E-05
0.2319997,-8.883652E-05
0.2329997,-8.672133E-05
0.2339997,-8.463681E-05
0.2349997,-8.258293E-05
0.2359997,-8.040644E-05
0.2369997,-7.832191E-05
0.2379997,-7.620673E-05
0.2389997,-7.396893E-05
0.2399997,-7.185374E-05
0.2409997,-6.964659E-05
0.2419997,-6.740879E-05
0.2429997,-6.517099E-05
0.2439997,-6.290253E-05
0.2449997,-6.078735E-05
0.2459997,-5.854955E-05
0.2469997,-5.628109E-05
0.2479997,-5.407395E-05
0.2489997,-5.180549E-05
0.2499997,-4.947572E-05
0.2509997,-4.729923E-05
0.2519997,-4.490815E-05
0.2529997,-4.267035E-05
0.2539997,-4.040189E-05
0.2549997,-3.801082E-05
0.2559997,-3.561974E-05
0.2569997,-3.319801E-05
0.2579997,-3.077627E-05
0.2589997,-2.841586E-05
0.2599997,-2.587151E-05
0.2609997,-2.338846E-05
0.2619997,-2.087477E-05
0.2629997,-1.829976E-05
0.2639997,-1.578607E-05
0.2649997,-1.318041E-05
0.2659997,-1.054409E-05
0.2669997,-8.14487E-06
0.2679997,-5.4779E-06
0.2689997,-2.755752E-06
0.2699997,-1.31699E-07
0.2709997,2.667087E-06
0.2719997,5.407628E-06
0.2729997,8.132842E-06
0.2739997,1.101439E-05
0.2749997,1.379172E-05
0.2759997,1.67867E-05
0.2769997,1.966212E-05
0.2779997,2.261725E-05
0.2789997,2.564288E-05
0.2799997,2.900063E-05
0.2809997,3.206612E-05
0.2819997,3.51929E-05
0.2829997,3.828905E-05
0.2839997,4.159976E-05
0.2849997,4.478787E-05
0.2859997,4.800662E-05
0.2869997,5.147062E-05
0.2879997,5.490396E-05
0.2889997,5.83373E-05
0.2899997,6.186261E-05
0.2909997,6.544922E-05
0.2919997,6.91278E-05
0.2929997,7.274507E-05
0.2939997,7.654627E-05
0.2949997,8.043943E-05
0.2959997,8.414866E-05
0.2969997,8.816444E-05
0.2979997,9.230284E-05
0.2989997,9.619601E-05
0.2999997,0.000100549
0.3009997,0.0001047794
0.3019997,0.0001090097
0.3029997,0.0001135466
0.3039997,0.0001179609
0.3049997,0.0001225592
0.3059997,0.000127372
0.3069997,0.0001322767
0.3079997,0.0001372735
0.3089997,0.0001422089
0.3099997,0.0001472056
0.3109997,0.0001525089
0.3119997,0.0001579042
0.3129997,0.000163606
0.3139997,0.000169461
0.3149997,0.0001753468
0.3159997,0.000181723
0.3169997,0.0001884057
0.3179997,0.0001953337
0.3189997,0.0002030281
0.3199997,0.0002113049
0.3209997,0.0002202255
0.3219997,0.0002302189
0.3229997,0.0002409174
0.3239997,0.0002530568
0.3249997,0.0002661157
0.3259997,0.0002806768
0.3269997,0.0002965253
0.3279997,0.000316676
0.3289997,0.0003353755
0.3299997,0.0003556077
0.3309997,0.0003770661
0.3319997,0.0004012834
0.3329997,0.0004267269
0.3339997,0.0004546228
0.3349997,0.0004858907
0.3359997,0.0005199176
0.3369997,0.0005588492
0.3379997,0.0006026856
0.3389997,0.0006538791
0.3399997,0.0007154953
0.3409997,0.0007887604
0.3419997,0.0008788856
0.3429997,0.0009920018
0.3439997,0.001129335
0.3449997,0.001297017
0.3459997,0.001496274
0.3469997,0.001721893
0.3479997,0.001974795
0.3489997,0.002245785
0.3499997,0.002531181
0.3509997,0.002827307
0.3519997,0.003130789
0.3529997,0.003464112
0.3539997,0.003773726
0.3549997,0.00408947
0.3559997,0.004405215
0.3569997,0.004724025
0.3579997,0.005048967
0.3589997,0.005373908
0.3599997,0.005698849
0.3609997,0.006029921
0.3619997,0.006360993
0.3629997,0.00669513
0.3639997,0.007035399
0.3649997,0.007372602
0.3659997,0.007715936
0.3669997,0.008056205
0.3679997,0.008399539
0.3689997,0.008749004
0.3699997,0.009092337
0.3709997,0.009438737
0.3719997,0.009791268
0.3729997,0.0101346
0.3739997,0.01048407
0.3749997,0.01083353
0.3759997,0.01117687
0.3769997,0.01152327
0.3779997,0.0118666
0.3789997,0.01220687
0.3799997,0.01255327
0.3809997,0.01288434
0.3819997,0.01322154
0.3829997,0.01356181
0.3839997,0.01388369
0.3849997,0.01421782
0.3859997,0.0145397
0.3869997,0.01485851
0.3879997,0.01518652
0.3889997,0.01549613
0.3899997,0.01581187
0.3909997,0.01612455
0.3919997,0.01642191
0.3929997,0.01672846
0.3939997,0.01702581
0.3949997,0.0173109
0.3959997,0.01760518
0.3969997,0.01788721
0.3979997,0.01816923
0.3989997,0.01844512
0.3999997,0.01870876
0.4009997,0.01897239
0.4019997,0.01922989
0.4029997,0.01947819
0.4039997,0.0197265
0.4049997,0.0199656
0.4059997,0.02018632
0.4069997,0.02041623
0.4079997,0.02063081
0.4089997,0.02083927
0.4099997,0.02105998
0.4109997,0.02124391
0.4119997,0.02143704
0.4129997,0.02161177
0.4139997,0.02176504
0.4149997,0.02194284
0.4159997,0.02208079
0.4169997,0.02220954
0.4179997,0.02235055
0.4189997,0.02245171
0.4199997,0.022559
0.4209997,0.02266016
0.4219997,0.02273067
0.4229997,0.02281037
0.4239997,0.02286862
0.4249997,0.02291153
0.4259997,0.02296058
0.4269997,0.02297591
0.4279997,0.02299124
0.4289997,0.0230035
0.4299997,0.02297284
0.4309997,0.02295445
0.4319997,0.0229146
0.4329997,0.02284409
0.4339997,0.02277972
0.4349997,0.02267856
0.4359997,0.02257433
0.4369997,0.02246397
0.4379997,0.02231683
0.4389997,0.02217582
0.4399997,0.02201641
0.4409997,0.02184168
0.4419997,0.02167001
0.4429997,0.02147382
0.4439997,0.02128683
0.4449997,0.02108757
0.4459997,0.02086992
0.4469997,0.0206768
0.4479997,0.02048367
0.4489997,0.02028135
0.4499997,0.02010355
0.4509997,0.01993495
0.4519997,0.01977554
0.4529997,0.01964066
0.4539997,0.01952111
0.4549997,0.01940769
0.4559997,0.01932185
0.4569997,0.01925441
0.4579997,0.01918697
0.4589997,0.01915938
0.4599997,0.01913179
0.4609997,0.0191226
0.4619997,0.01912873
0.4629997,0.01914405
0.4639997,0.01917471
0.4649997,0.01921456
0.4659997,0.01925748
0.4669997,0.01931879
0.4679997,0.01937397
0.4689997,0.01945367
0.4699997,0.01954563
0.4709997,0.01962227
0.4719997,0.01972956
0.4729997,0.01982459
0.4739997,0.01992269
0.4749997,0.02004531
0.4759997,0.02015566
0.4769997,0.02028135
0.4779997,0.0204101
0.4789997,0.02053885
0.4799997,0.02069519
0.4809997,0.02083314
0.4819997,0.02098948
0.4829997,0.0211734
0.4839997,0.02132055
0.4849997,0.02151061
0.4859997,0.02170373
0.4869997,0.02187234
0.4879997,0.02208692
0.4889997,0.02229537
0.4899997,0.02250382
0.4909997,0.0227368
0.4919997,0.02296058
0.4929997,0.02321195
0.4939997,0.02345412
0.4949997,0.02370856
0.4959997,0.02399671
0.4969997,0.02425421
0.4979997,0.02453317
0.4989997,0.02484892
0.4999997,0.02511868
0.5009997,0.02543136
0.5019997,0.02575324
0.5029997,0.02604139
0.5039997,0.02637859
0.5049997,0.02670047
0.5059997,0.02701928
0.5069997,0.02736568
0.5079997,0.02768756
0.5089997,0.02804315
0.5099997,0.02839875
0.5109997,0.02873289
0.5119997,0.02911914
0.5129997,0.02947167
0.5139997,0.02983646
0.5149997,0.03022271
0.5159997,0.03136105
0.5169997,0.03169826
0.5179997,0.03209677
0.5189997,0.03246463
0.5199997,0.03286314
0.5209997,0.03326165
0.5219997,0.03362951
0.5229997,0.03402802
0.5239997,0.03442654
0.5249997,0.03482505
0.5259997,0.03522356
0.5269997,0.03562208
0.5279997,0.03605124
0.5289997,0.03644976
0.5299997,0.03684827
0.5309997,0.03727744
0.5319997,0.03767595
0.5329997,0.03810512
0.5339997,0.03853428
0.5349997,0.03896345
0.5359997,0.03936196
0.5369997,0.03979113
0.5379997,0.0402203
0.5389997,0.04061881
0.5399997,0.04107863
0.5409997,0.04147715
0.5419997,0.04193697
0.5429997,0.04233548
0.5439997,0.04276465
0.5449997,0.04322447
0.5459997,0.04362299
0.5469997,0.04405215
0.5479997,0.04451197
0.5489997,0.04491049
0.5499997,0.04537031
0.5509997,0.04579948
0.5519997,0.0462593
0.5529997,0.04671912
0.5539997,0.04714829
0.5549997,0.04760811
0.5559997,0.04806793
0.5569997,0.04846645
0.5579997,0.04892627
0.5589997,0.04935544
0.5599997,0.04981526
0.5609997,0.05024443
0.5619997,0.05070425
0.5629997,0.05113342
0.5639997,0.05159324
0.5649997,0.05202241
0.5659997,0.05248223
0.5669997,0.0529114
0.5679997,0.05337122
0.5689997,0.0538617
0.5699997,0.05429087
0.5709997,0.05475069
0.5719997,0.05521051
0.5729997,0.05563968
0.5739997,0.05613015
0.5749997,0.05655932
0.5759997,0.05701914
0.5769997,0.05747896
0.5779997,0.05790814
0.5789997,0.05836796
0.5799997,0.05885844
0.5809997,0.0592876
0.5819997,0.05977808
0.5829997,0.06020725
0.5839997,0.06066707
0.5849997,0.06115754
0.5859997,0.06158672
0.5869997,0.06207719
0.5879997,0.06256767
0.5889997,0.06299683
0.5899997,0.06345665
0.5909997,0.06391648
0.5919997,0.0643763
0.5929997,0.06486678
0.5939997,0.0653266
0.5949997,0.06575577
0.5959997,0.06624625
0.5969997,0.06670607
0.5979997,0.0671659
0.5989997,0.06762572
0.5999997,0.06808554
0.6009997,0.06857602
0.6019997,0.06903584
0.6029997,0.06949566
0.6039997,0.07001679
0.6049997,0.07044595
0.6059997,0.07093643
0.6069997,0.07142691
0.6079997,0.07185608
0.6089997,0.07234656
0.6099997,0.07277572
0.6109997,0.0732662
0.6119997,0.07372602
0.6129997,0.0741552
0.6139997,0.07470698
0.6149997,0.07516681
0.6159997,0.07559597
0.6169997,0.07614776
0.6179997,0.07657693
0.6189997,0.0770674
0.6199997,0.07755788
0.6209997,0.07798705
0.6219997,0.07847752
0.6229997,0.078968
0.6239997,0.07939716
0.6249997,0.0799183
0.6259997,0.08037812
0.6269997,0.08083794
0.6279997,0.08132842
0.6289997,0.08175759
0.6299997,0.08227872
0.6309997,0.08273854
0.6319997,0.08319836
0.6329997,0.0837195
0.6339997,0.08417932
0.6349997,0.0846698
0.6359997,0.08519093
0.6369997,0.08558945
0.6379997,0.08611058
0.6389997,0.08660105
0.6399997,0.08703022
0.6409997,0.08755135
0.6419997,0.08801118
0.6429997,0.088471
0.6439997,0.08899213
0.6449997,0.08942129
0.6459997,0.08991177
0.6469997,0.09040225
0.6479997,0.09086207
0.6489997,0.0913832
0.6499997,0.09184303
0.6509997,0.0923335
0.6519997,0.09282398
0.6529997,0.0932838
0.6539997,0.09377428
0.6549997,0.09426476
0.6559997,0.09475523
0.6569997,0.09524571
0.6579997,0.09573619
0.6589997,0.09619602
0.6599997,0.09668649
0.6609997,0.09711566
0.6619997,0.09763679
0.6629997,0.09809661
0.6639997,0.09858709
0.6649997,0.09913888
0.6659997,0.09956805
0.6669997,0.1000892
0.6679997,0.1006103
0.6689997,0.1010088
0.6699997,0.1015606
0.6709997,0.1020511
0.6719997,0.1024802
0.6729997,0.103032
0.6739997,0.1034612
0.6749997,0.1039517
0.6759997,0.1044422
0.6769997,0.104902
0.6779997,0.1054231
0.6789997,0.1058829
0.6799997,0.1063734
0.6809997,0.1069252
0.6819997,0.1073237
0.6829997,0.1078755
0.6839997,0.1083966
0.6849997,0.1087951
0.6859997,0.1093469
0.6869997,0.1098374
0.6879997,0.1102972
0.6889997,0.1108184
0.6899997,0.1112475
0.6909997,0.1117687
0.6919997,0.1122591
0.6929997,0.112719
0.6939997,0.1132708
0.6949997,0.1136999
0.6959997,0.1141904
0.6969997,0.1147422
0.6979997,0.1151713
0.6989997,0.1156925
0.6999997,0.1158458
0.6990004,0.115294
0.6980004,0.1148341
0.6970004,0.114313
0.6960004,0.1137919
0.6950004,0.1133321
0.6940004,0.1128109
0.6930004,0.1123511
0.6920004,0.11183
0.6910004,0.1113395
0.6900004,0.1109103
0.6890004,0.1103585
0.6880004,0.1098987
0.6870004,0.1094389
0.6860004,0.1088871
0.6850004,0.1084273
0.6840004,0.1079368
0.6830004,0.107385
0.6820004,0.1069558
0.6810004,0.1064347
0.6800004,0.1059136
0.6790004,0.1054538
0.6780004,0.104902
0.6770004,0.1044422
0.6760004,0.1039517
0.6750004,0.1034305
0.6740004,0.1029707
0.6730004,0.1024496
0.6720004,0.1019591
0.6710004,0.1014993
0.6700004,0.1009782
0.6690004,0.100457
0.6680004,0.09999721
0.6670004,0.09947608
0.6660004,0.0989856
0.6650004,0.09852578
0.6640004,0.0980353
0.6630004,0.09754483
0.6620004,0.097085
0.6610004,0.09656387
0.6600004,0.09610405
0.6590004,0.09561357
0.6580004,0.0951231
0.6570004,0.09463262
0.6560004,0.09411149
0.6550004,0.09365166
0.6540004,0.09313053
0.6530004,0.09264006
0.6520004,0.09218023
0.6510004,0.09168976
0.6500004,0.09119927
0.6490004,0.09073945
0.6480004,0.09021832
0.6470004,0.0897585
0.6460004,0.08926802
0.6450004,0.08874689
0.6440004,0.08828707
0.6430004,0.08779659
0.6420004,0.08730611
0.6410004,0.08684629
0.6400004,0.08632516
0.6390004,0.08583468
0.6380004,0.08537485
0.6370004,0.08485373
0.6360004,0.08436324
0.6350004,0.08390342
0.6340004,0.08341295
0.6330004,0.08292247
0.6320004,0.08246265
0.6310004,0.08194152
0.6300004,0.08151235
0.6290004,0.08102188
0.6280004,0.0805314
0.6270004,0.08007158
0.6260004,0.07955044
0.6250004,0.07909062
0.6240004,0.0786308
0.6230004,0.07810967
0.6220004,0.0776805
0.6210004,0.07715937
0.6200004,0.07666889
0.6190004,0.07623972
0.6180004,0.07568794
0.6170004,0.07522812
0.6160004,0.07476829
0.6150004,0.07424716
0.6140004,0.07381799
0.6130004,0.07332751
0.6120004,0.07283704
0.6110004,0.07240786
0.6100004,0.07188674
0.6090004,0.07142691
0.6080004,0.07096709
0.6070004,0.07044595
0.6060004,0.07001679
0.6050004,0.06949566
0.6040004,0.06903584
0.6030004,0.06857602
0.6020004,0.06808554
0.6010004,0.06762572
0.6000004,0.06713524
0.5990004,0.06664476
0.5980004,0.0662156
0.5970004,0.06569446
0.5960004,0.06526529
0.5950004,0.06480547
0.5940004,0.06428434
0.5930004,0.06385517
0.5920004,0.06336469
0.5910004,0.06287422
0.5900004,0.0624144
0.5890004,0.06192392
0.5880004,0.0614641
0.5870004,0.06100427
0.5860004,0.06051379
0.5850004,0.06008463
0.5840004,0.05959415
0.5830004,0.05910368
0.5820004,0.0586745
0.5810004,0.05818403
0.5800004,0.05772421
0.5790004,0.05729504
0.5780004,0.05680456
0.5770004,0.05631408
0.5760004,0.05585426
0.5750004,0.05539444
0.5740004,0.05496527
0.5730004,0.0544748
0.5720004,0.05401497
0.5710004,0.05355515
0.5700004,0.05309533
0.5690004,0.05260485
0.5680004,0.05217568
0.5670004,0.05171586
0.5660004,0.05125604
0.5650004,0.05079622
0.5640004,0.05033639
0.5630004,0.04990723
0.5620004,0.04941675
0.5610004,0.04898758
0.5600004,0.04852776
0.5590004,0.04803728
0.5580004,0.04760811
0.5570004,0.04714829
0.5560004,0.04668847
0.5550004,0.0462593
0.5540004,0.04576882
0.5530004,0.04533966
0.5520004,0.04487984
0.5510004,0.04442001
0.5500004,0.04399084
0.5490004,0.04353102
0.5480004,0.0430712
0.5470004,0.04264203
0.5460004,0.04218221
0.5450004,0.04175304
0.5440004,0.04132387
0.5430004,0.04083339
0.5420004,0.04040423
0.5410004,0.03997506
0.5400004,0.03951524
0.5390004,0.03908607
0.5380004,0.03862625
0.5370004,0.03816643
0.5360004,0.03773726
0.5350004,0.03730809
0.5340004,0.03687892
0.5330004,0.03644976
0.5320004,0.03598994
0.5310004,0.03556077
0.5300004,0.0351316
0.5290004,0.03470243
0.5280004,0.03427326
0.5270004,0.03381344
0.5260004,0.03341493
0.5250004,0.03295511
0.5240004,0.03252594
0.5230004,0.03212743
0.5220004,0.0316676
0.5210004,0.03126909
0.5200004,0.03083992
0.5190004,0.03041076
0.5180004,0.02998159
0.5170004,0.02955242
0.5160004,0.02915391
0.5150004,0.02872474
0.5140004,0.02829557
0.5130004,0.02789706
0.5120004,0.02746789
0.5110004,0.02703872
0.5100004,0.02664021
0.5090004,0.02621104
0.5080004,0.02581253
0.5070004,0.02541402
0.5060004,0.02498485
0.5050004,0.02458634
0.5040004,0.02418783
0.5030004,0.02378931
0.5020004,0.0233908
0.5010004,0.02296163
0.5000004,0.02256312
0.4990004,0.02216461
0.4980004,0.02176609
0.4970004,0.02136758
0.4960004,0.02099972
0.4950004,0.02060121
0.4940004,0.0202027
0.4930004,0.01983484
0.4920004,0.01943633
0.4910004,0.01903781
0.4900004,0.01866996
0.4890004,0.0183021
0.4880004,0.01793424
0.4870004,0.01756638
0.4860004,0.01716787
0.4850004,0.01680001
0.4840004,0.01643215
0.4830004,0.0160643
0.4820004,0.01569644
0.4810004,0.01535923
0.4800004,0.01499138
0.4790004,0.01462352
0.4780004,0.01425566
0.4770004,0.01391846
0.4760004,0.0135506
0.4750004,0.0132134
0.4740004,0.0123816
0.4730004,0.01204746
0.4720004,0.01171332
0.4710004,0.01137919
0.4700004,0.01105118
0.4690004,0.01072624
0.4680004,0.01039823
0.4670004,0.01007636
0.4660004,0.009757548
0.4650004,0.009447934
0.4640004,0.009132189
0.4630004,0.008822575
0.4620004,0.008522158
0.4610004,0.008212545
0.4600004,0.007924389
0.4590004,0.007630103
0.4580004,0.007335817
0.4570004,0.007056858
0.4560004,0.006771768
0.4550004,0.006492809
0.4540004,0.006216915
0.4530004,0.005944087
0.4520004,0.00567739
0.4510004,0.005413759
0.4500004,0.005156258
0.4490004,0.004901823
0.4480004,0.004650454
0.4470004,0.004405215
0.4460004,0.004163042
0.4450004,0.003927
0.4440004,0.003694023
0.4430004,0.003467177
0.4420004,0.003246463
0.4410004,0.003025748
0.4400004,0.00281423
0.4390004,0.002602712
0.4380004,0.002397324
0.4370004,0.002198068
0.4360004,0.002001877
0.4350004,0.001817948
0.4340004,0.001627888
0.4330004,0.001447024
0.4320004,0.001272292
0.4310004,0.001067413
0.4300004,0.0009024898
0.4290004,0.0007397127
0.4280004,0.0005793879
0.4270004,0.0004294858
0.4260004,0.0002792772
0.4250004,0.0001348929
0.4240004,-2.440713E-06
0.4230004,-0.0001444137
0.4220004,-0.0002761681
0.4210004,-0.0004021796
0.4200004,-0.0005251055
0.4190004,-0.0006431266
0.4180004,-0.0007605346
0.4170004,-0.000870892
0.4160004,-0.0009784905
0.4150004,-0.001088235
0.4140004,-0.00118633
0.4130004,-0.001285039
0.4120004,-0.001384054
0.4110004,-0.001474179
0.4100004,-0.001571661
0.4090004,-0.001667304
0.4080004,-0.00174762
0.4070004,-0.001833454
0.4060004,-0.00191193
0.4050004,-0.001991633
0.4040004,-0.002071948
0.4030004,-0.002147972
0.4020004,-0.002225222
0.4010004,-0.00230094
0.4000004,-0.002374205
0.3990004,-0.002453907
0.3980004,-0.002524413
0.3970004,-0.00260289
0.3960004,-0.002680753
0.3950004,-0.002751872
0.3940004,-0.002831881
0.3930004,-0.002910664
0.3920004,-0.002987301
0.3910004,-0.003037777
0.3900004,-0.003120545
0.3890004,-0.003206378
0.3880004,-0.003295277
0.3870004,-0.003384176
0.3860004,-0.003479206
0.3850004,-0.003577302
0.3840004,-0.003675397
0.3830004,-0.003782689
0.3820004,-0.00388998
0.3810004,-0.004000338
0.3800004,-0.004122957
0.3790004,-0.004239446
0.3780004,-0.004368196
0.3770004,-0.004496946
0.3760004,-0.004625696
0.3750004,-0.004766709
0.3740004,-0.004907721
0.3730004,-0.005051799
0.3720004,-0.005205072
0.3710004,-0.005358347
0.3700004,-0.005514686
0.3690004,-0.005677157
0.3680004,-0.005839627
0.3670004,-0.006008229
0.3660004,-0.006179896
0.3650004,-0.006351563
0.3640004,-0.006532426
0.3630004,-0.006707159
0.3620004,-0.006888022
0.3610004,-0.007071951
0.3600004,-0.007252815
0.3590004,-0.00744594
0.3580004,-0.00762987
0.3570004,-0.007816863
0.3560004,-0.008009989
0.3550004,-0.008193919
0.3540004,-0.008387043
0.3530004,-0.008580169
0.3520004,-0.008770229
0.3510004,-0.008969485
0.3500004,-0.009159545
0.3490004,-0.009352671
0.3480004,-0.009554992
0.3470004,-0.009741987
0.3460004,-0.009941244
0.3450004,-0.01014357
0.3440004,-0.01032749
0.3430004,-0.01052982
0.3420004,-0.01071988
0.3410004,-0.01090381
0.3400004,-0.01110306
0.3390004,-0.01129006
0.3380004,-0.01147705
0.3370004,-0.01166405
0.3360004,-0.01184797
0.3350004,-0.0120319
0.3340004,-0.01220357
0.3330004,-0.01238137
0.3320004,-0.0125561
0.3310004,-0.01271857
0.3300004,-0.01288717
0.3290004,-0.01305577
0.3280004,-0.01320292
0.3270004,-0.01336232
0.3260004,-0.01350947
0.3250004,-0.01365048
0.3240004,-0.01378842
0.3230004,-0.01391717
0.3220004,-0.01404899
0.3210004,-0.01416548
0.3200004,-0.01428197
0.3190004,-0.01440152
0.3180004,-0.01449962
0.3170004,-0.01460078
0.3160004,-0.014705
0.3150004,-0.01478777
0.3140004,-0.01487974
0.3130004,-0.01495944
0.3120004,-0.01502995
0.3110004,-0.01511578
0.3100004,-0.01517709
0.3090004,-0.01524453
0.3080004,-0.01532117
0.3070004,-0.01538554
0.3060004,-0.01544685
0.3050004,-0.01551429
0.3040004,-0.0155664
0.3030004,-0.01562465
0.3020004,-0.01568289
0.3010004,-0.01574114
0.3000004,-0.01579938
0.2990004,-0.01584536
0.2980004,-0.01590361
0.2970004,-0.01595572
0.2960004,-0.01600477
0.2950004,-0.01606301
0.2940004,-0.01610593
0.2930004,-0.01615804
0.2920004,-0.01621322
0.2910004,-0.01625307
0.2900004,-0.01630825
0.2890004,-0.01635423
0.2880004,-0.01639408
0.2870004,-0.01644313
0.2860004,-0.01648298
0.2850004,-0.01652284
0.2840004,-0.01657188
0.2830004,-0.01659947
0.2820004,-0.01663626
0.2810004,-0.01667304
0.2800004,-0.0166945
0.2790004,-0.01672516
0.2780004,-0.01674968
0.2770004,-0.01676501
0.2760004,-0.01678647
0.2750004,-0.01679566
0.2740004,-0.01680179
0.2730004,-0.01680792
0.2720004,-0.01680486
0.2710004,-0.01679566
0.2700004,-0.0167834
0.2690004,-0.01675581
0.2680004,-0.01672822
0.2670004,-0.01668837
0.2660004,-0.01664545
0.2650004,-0.01659641
0.2640004,-0.01651977
0.2630004,-0.016437
0.2620004,-0.01635117
0.2610004,-0.01623161
0.2600004,-0.01610593
0.2590004,-0.01596798
0.2580004,-0.01579631
0.2570004,-0.01563078
0.2560004,-0.01544685
0.2550004,-0.01521387
0.2540004,-0.0149809
0.2530004,-0.01473259
0.2520004,-0.0144475
0.2510004,-0.01415015
0.2500004,-0.01383747
0.2490004,-0.01350027
0.2480004,-0.01314467
0.2470004,-0.01277682
0.2460004,-0.01240589
0.2450004,-0.0120319
0.2440004,-0.01165791
0.2430004,-0.01130232
0.2420004,-0.01094366
0.2410004,-0.01062178
0.2400004,-0.01029684
0.2390004,-0.009993357
0.2380004,-0.009702136
0.2370004,-0.009420111
0.2360004,-0.009187134
0.2350004,-0.008932699
0.2340004,-0.008705853
0.2330004,-0.008518859
0.2320004,-0.008288948
0.2310004,-0.008101954
0.2300004,-0.007954811
0.2290004,-0.007746358
0.2280004,-0.007617608
0.2270004,-0.007467398
0.2260004,-0.007304928
0.2250004,-0.007185374
0.2240004,-0.007035166
0.2230004,-0.006912547
0.2220004,-0.006796058
0.2210004,-0.006667308
0.2200004,-0.006575344
0.2190004,-0.006452724
0.2180004,-0.006360759
0.2170004,-0.006281057
0.2160004,-0.006161503
0.2150004,-0.006084866
0.2140004,-0.005995967
0.2130004,-0.005894806
0.2120004,-0.005827365
0.2110004,-0.005741532
0.2100004,-0.005658764
0.2090004,-0.005597454
0.2080004,-0.005502424
0.2070004,-0.005438049
0.2060004,-0.00538287
0.2050004,-0.005309299
0.2040004,-0.005244924
0.2030004,-0.005171353
0.2020004,-0.005097781
0.2010004,-0.005027275
0.2000004,-0.004965965
0.1990004,-0.004910786
0.1980004,-0.00484028
0.1970004,-0.004782036
0.1960004,-0.004723792
0.1950004,-0.004659417
0.1940004,-0.004607304
0.1930004,-0.004552125
0.1920004,-0.004493881
0.1910004,-0.004447898
0.1900004,-0.004389654
0.1890004,-0.004340607
0.1880004,-0.004294624
0.1870004,-0.004239446
0.1860004,-0.004193463
0.1850004,-0.004147481
0.1840004,-0.004095368
0.1830004,-0.004058582
0.1820004,-0.0040126
0.1810004,-0.003957421
0.1800004,-0.003926767
0.1790004,-0.003874653
0.1780004,-0.003837867
0.1770004,-0.003798016
0.1760004,-0.003752034
0.1750004,-0.003712183
0.1740004,-0.003669266
0.1730004,-0.003635545
0.1720004,-0.003595694
0.1710004,-0.003552777
0.1700004,-0.003522123
0.1690004,-0.003482271
0.1680004,-0.00344242
0.1670004,-0.0034087
0.1660004,-0.003371914
0.1650004,-0.003335128
0.1640004,-0.003301408
0.1630004,-0.003264622
0.1620004,-0.003227836
0.1610004,-0.003191051
0.1600004,-0.003154265
0.1590004,-0.003114413
0.1580004,-0.003080693
0.1570004,-0.003043907
0.1560004,-0.003007122
0.1550004,-0.002970336
0.1540004,-0.002936616
0.1530004,-0.002902895
0.1520004,-0.002869175
0.1510004,-0.00283852
0.1500004,-0.0028048
0.1490004,-0.002774145
0.1480004,-0.002746556
0.1470004,-0.002712835
0.1460004,-0.002685246
0.1450004,-0.002660722
0.1440004,-0.002633133
0.1430004,-0.002605543
0.1420004,-0.00258102
0.1410004,-0.002556496
0.1400004,-0.002531972
0.1390004,-0.002507448
0.1380004,-0.00248599
0.1370004,-0.002464531
0.1360004,-0.002440007
0.1350004,-0.002421614
0.1340004,-0.002400156
0.1330004,-0.002378698
0.1320004,-0.00236337
0.1310004,-0.002341912
0.1300004,-0.002323519
0.1290004,-0.002308191
0.1280004,-0.002286733
0.1270004,-0.002271406
0.1260004,-0.002256078
0.1250004,-0.002237685
0.1240004,-0.002222358
0.1230004,-0.002207031
0.1220004,-0.002191703
0.1210004,-0.002176376
0.1200004,-0.002161048
0.1190004,-0.002145721
0.1180004,-0.002133459
0.1170004,-0.002118132
0.1160004,-0.00210587
0.1150004,-0.002090542
0.1140004,-0.00207828
0.1130004,-0.002066019
0.1120004,-0.002050691
0.1110004,-0.002038429
0.1100004,-0.002026167
0.1090004,-0.002013905
0.1080004,-0.002001643
0.1070004,-0.001989381
0.1060004,-0.001980185
0.1050004,-0.001967923
0.1040004,-0.001955661
0.1030004,-0.001943399
0.1020004,-0.001934203
0.1010004,-0.001921941
0.1000004,-0.001909679
0.09900038,-0.001900482
0.09800038,-0.001891286
0.09700038,-0.00188209
0.09600038,-0.001869828
0.09500038,-0.001860631
0.09400038,-0.001851435
0.09300038,-0.001839173
0.09200038,-0.001833042
0.09100038,-0.00182078
0.09000038,-0.001811583
0.08900038,-0.001802387
0.08800038,-0.00179319
0.08700038,-0.001783994
0.08600038,-0.001774798
0.08500038,-0.001765601
0.08400038,-0.00175947
0.08300038,-0.001747208
0.08200038,-0.001741077
0.08100038,-0.001731881
0.08000038,-0.001722684
0.07900038,-0.001716554
0.07800038,-0.001707357
0.07700038,-0.001698161
0.07600038,-0.00169203
0.07500038,-0.001682833
0.07400038,-0.001673637
0.07300038,-0.001667506
0.07200038,-0.001658309
0.07100038,-0.001652178
0.07000038,-0.001642982
0.06900038,-0.001636851
0.06800038,-0.00163072
0.06700038,-0.001621523
0.06600038,-0.001650444
0.06500039,-0.001643087
0.06400038,-0.00163665
0.06300038,-0.001629906
0.06200038,-0.001622242
0.06100038,-0.001615804
0.06000038,-0.00160906
0.05900038,-0.001601703
0.05800038,-0.001595572
0.05700038,-0.001588828
0.05600038,-0.001581778
0.05500038,-0.001575646
0.05400038,-0.001568902
0.05300038,-0.001562158
0.05200038,-0.001556027
0.05100038,-0.001549896
0.05000038,-0.001543459
0.04900038,-0.001537328
0.04800038,-0.00153089
0.04700038,-0.001524759
0.04600038,-0.001518629
0.04500038,-0.001512498
0.04400038,-0.001506673
0.04300038,-0.001500542
0.04200038,-0.001494411
0.04100038,-0.001488587
0.04000038,-0.001482456
0.03900038,-0.001476938
0.03800038,-0.001471114
0.03700038,-0.001465289
0.03600038,-0.001459771
0.03500038,-0.00145364
0.03400038,-0.001448122
0.03300038,-0.001442298
0.03200038,-0.001436474
0.03100038,-0.001431262
0.03000038,-0.001425131
0.02900038,-0.001419613
0.02800038,-0.001414709
0.02700038,-0.001408884
0.02600038,-0.001403673
0.02500038,-0.001398462
0.02400038,-0.001392331
0.02300038,-0.001387732
0.02200038,-0.001382215
0.02100038,-0.001376697
0.02000038,-0.001371792
0.01900038,-0.001366887
0.01800038,-0.001361369
0.01700038,-0.001356464
0.01600038,-0.00135156
0.01500038,-0.001346348
0.01400038,-0.001341444
0.01300038,-0.001336232
0.01200038,-0.001331327
0.01100038,-0.001326729
0.01000038,-0.001321518
0.009000381,-0.00131692
0.008000381,-0.001311708
0.007000382,-0.00130711
0.006000381,-0.001302205
0.005000381,-0.001296994
0.004000382,-0.001292396
0.003000381,-0.001287798
0.002000381,-0.0012832
0.001000381,-0.001278908
3.814697E-07,-0.001264807
0.0009996186,-0.001239363
0.001999618,-0.001216065
0.002999618,-0.0011943
0.003999618,-0.001173455
0.004999619,-0.00115353
0.005999619,-0.001134524
0.006999618,-0.001116744
0.007999619,-0.001098657
0.008999619,-0.001081797
0.009999619,-0.001065857
0.01099962,-0.001049916
0.01199962,-0.001034895
0.01299962,-0.001019874
0.01399962,-0.001005467
0.01499962,-0.0009916719
0.01599962,-0.0009778773
0.01699962,-0.0009646958
0.01799962,-0.0009518207
0.01899962,-0.0009392523
0.01999962,-0.0009272969
0.02099962,-0.0009153415
0.02199962,-0.0009036926
0.02299962,-0.0008920438
0.02399962,-0.000881008
0.02499962,-0.0008699723
0.02599962,-0.0008592432
0.02699962,-0.0008488205
0.02799962,-0.0008383978
0.02899962,-0.0008285883
0.02999962,-0.0008184722
0.03099962,-0.0008089693
0.03199962,-0.0007994662
0.03299962,-0.0007902698
0.03399962,-0.0007810733
0.03499962,-0.0007721835
0.03599962,-0.0007632935
0.03699962,-0.0007550167
0.03799962,-0.0007464333
0.03899962,-0.0007381566
0.03999962,-0.0007298798
0.04099962,-0.0007219095
0.04199962,-0.0007139393
0.04299962,-0.0007062756
0.04399962,-0.0006983053
0.04499962,-0.0006909482
0.04599962,-0.0006832844
0.04699962,-0.0006759273
0.04799962,-0.0006688767
0.04899962,-0.0006618261
0.04999962,-0.0006547754
0.05099962,-0.0006480314
0.05199962,-0.0006409807
0.05299962,-0.0006342367
0.05399962,-0.0006277992
0.05499962,-0.0006210551
0.05599962,-0.0006149242
0.05699962,-0.0006084866
0.05799962,-0.0006023557
0.05899962,-0.0005962247
0.05999962,-0.0005900938
0.06099962,-0.0005842693
0.06199962,-0.0005781384
0.06299962,-0.0005723139
0.06399962,-0.0005667961
0.06499962,-0.0005606651
0.06599962,-0.0005551472
0.06699962,-0.0005496293
0.06799962,-0.0005441115
0.06899962,-0.0005389001
0.06999962,-0.0005333824
0.07099961,-0.000528171
0.07199962,-0.0005229597
0.07299962,-0.0005177484
0.07399962,-0.0005128436
0.07499962,-0.0005076323
0.07599962,-0.0005027275
0.07699962,-0.0004981293
0.07799962,-0.0004932245
0.07899962,-0.0004883197
0.07999962,-0.0004837215
0.08099962,-0.0004788167
0.08199961,-0.0004742185
0.08299962,-0.0004699268
0.08399962,-0.0004650221
0.08499962,-0.0004607304
0.08599962,-0.0004564387
0.08699962,-0.0004518405
0.08799962,-0.0004475488
0.08899962,-0.0004432572
0.08999962,-0.000439272
0.09099962,-0.0004349803
0.09199962,-0.0004309952
0.09299962,-0.0004270101
0.09399962,-0.0004227184
0.09499962,-0.0004187333
0.09599962,-0.0004147482
0.09699962,-0.0004110696
0.09799962,-0.0004070844
0.09899962,-0.0004034059
0.09999962,-0.0003994207
0.1009996,-0.0003957421
0.1019996,-0.000391757
0.1029996,-0.0003880784
0.1039996,-0.0003843998
0.1049996,-0.0003810278
0.1059996,-0.0003773492
0.1069996,-0.0003736707
0.1079996,-0.0003702986
0.1089996,-0.0003669266
0.1099996,-0.0003632481
0.1109996,-0.000359876
0.1119996,-0.0003568105
0.1129996,-0.0003531319
0.1139996,-0.0003500664
0.1149996,-0.0003466944
0.1159996,-0.0003433224
0.1169996,-0.0003402569
0.1179996,-0.0003371914
0.1189996,-0.0003338194
0.1199996,-0.0003307539
0.1209996,-0.0003276884
0.1219996,-0.0003246229
0.1229996,-0.0003215575
0.1239996,-0.000318492
0.1249996,-0.0003154265
0.1259996,-0.000312361
0.1269996,-0.0003096021
0.1279996,-0.0003065366
0.1289996,-0.0003037777
0.1299996,-0.0003010187
0.1309996,-0.0002982598
0.1319996,-0.0002955009
0.1329996,-0.0002927419
0.1339996,-0.000289983
0.1349996,-0.0002872241
0.1359996,-0.0002844651
0.1369996,-0.0002817062
0.1379996,-0.0002789472
0.1389996,-0.0002761883
0.1399996,-0.0002737359
0.1409996,-0.000270977
0.1419996,-0.0002685246
0.1429996,-0.0002660722
0.1439996,-0.0002633133
0.1449996,-0.0002608609
0.1459996,-0.0002584085
0.1469996,-0.0002559561
0.1479996,-0.0002531972
0.1489996,-0.0002510514
0.1499996,-0.000248599
0.1509996,-0.0002461466
0.1519996,-0.0002436942
0.1529996,-0.0002412418
0.1539996,-0.0002387894
0.1549996,-0.0002366436
0.1559996,-0.0002341912
0.1569996,-0.0002320454
0.1579996,-0.000229593
0.1589996,-0.0002271406
0.1599996,-0.0002246882
0.1609996,-0.0002225424
0.1619996,-0.0002203965
0.1629996,-0.0002182507
0.1639996,-0.0002157983
0.1649996,-0.0002136525
0.1659996,-0.0002115066
0.1669996,-0.0002090542
0.1679996,-0.000207215
0.1689996,-0.0002050691
0.1699996,-0.0002029233
0.1709996,-0.0002007774
0.1719996,-0.0001986316
0.1729996,-0.0001964858
0.1739996,-0.0001943399
0.1749996,-0.0001921941
0.1759996,-0.0001903548
0.1769996,-0.000188209
0.1779996,-0.0001860631
0.1789996,-0.0001842238
0.1799996,-0.0001817715
0.1809996,-0.0001799322
0.1819996,-0.0001780929
0.1829996,-0.000175947
0.1839996,-0.0001738012
0.1849996,-0.0001719619
0.1859996,-0.0001698161
0.1869996,-0.0001676702
0.1879996,-0.0001655244
0.1889996,-0.0001636851
0.1899996,-0.0001615393
0.1909996,-0.0001597
0.1919996,-0.0001609673
0.1929996,-0.0001589748
0.1939996,-0.0001570742
0.1949996,-0.0001552042
0.1959996,-0.000153181
0.1969996,-0.0001512804
0.1979996,-0.0001493185
0.1989996,-0.0001473872
0.1999996,-0.0001454866
0.2009996,-0.0001435554
0.2019996,-0.0001416241
0.2029996,-0.0001396929
0.2039996,-0.000137731
0.2049996,-0.0001357384
0.2059996,-0.0001337459
0.2069996,-0.0001318452
0.2079996,-0.0001298833
0.2089996,-0.0001279214
0.2099996,-0.0001260208
0.2109996,-0.0001240896
0.2119996,-0.0001221583
0.2129996,-0.0001202271
0.2139996,-0.0001183265
0.2149996,-0.0001164259
0.2159996,-0.0001144333
0.2169996,-0.000112502
0.2179996,-0.0001106014
0.2189996,-0.0001086702
0.2199996,-0.0001067083
0.2209996,-0.0001048383
0.2219996,-0.0001028458
0.2229996,-0.0001008839
0.2239996,-9.895261E-05
0.2249996,-9.699071E-05
0.2259996,-9.505945E-05
0.2269996,-9.309754E-05
0.2279996,-9.113563E-05
0.2289996,-8.917372E-05
0.2299996,-8.721181E-05
0.2309996,-8.521925E-05
0.2319996,-8.325734E-05
0.2329996,-8.132608E-05
0.2339996,-7.933352E-05
0.2349996,-7.737162E-05
0.2359996,-7.531774E-05
0.2369996,-7.326387E-05
0.2379996,-7.130195E-05
0.2389996,-6.921743E-05
0.2399996,-6.722486E-05
0.2409996,-6.514033E-05
0.2419996,-6.305581E-05
0.2429996,-6.097128E-05
0.2439996,-5.876413E-05
0.2449996,-5.671026E-05
0.2459996,-5.459508E-05
0.2469996,-5.241858E-05
0.2479996,-5.033405E-05
0.2489996,-4.812691E-05
0.2499996,-4.58891E-05
0.2509996,-4.380458E-05
0.2519996,-4.156677E-05
0.2529996,-3.939028E-05
0.2539996,-3.718313E-05
0.2549996,-3.488402E-05
0.2559996,-3.267687E-05
0.2569996,-3.037777E-05
0.2579996,-2.8048E-05
0.2589996,-2.58102E-05
0.2599996,-2.341912E-05
0.2609996,-2.10587E-05
0.2619996,-1.872893E-05
0.2629996,-1.627654E-05
0.2639996,-1.391612E-05
0.2649996,-1.149439E-05
0.2659996,-9.211658E-06
0.2669996,-6.921743E-06
0.2679996,-4.282362E-06
0.2689996,-1.768667E-06
0.2699996,7.726183E-07
0.2709996,3.411999E-06
0.2719996,5.916498E-06
0.2729996,8.607992E-06
0.2739996,1.133627E-05
0.2749996,1.400017E-05
0.2759996,1.683881E-05
0.2769996,1.954257E-05
0.2779996,2.23904E-05
0.2789996,2.521064E-05
0.2799996,2.838754E-05
0.2809996,3.129974E-05
0.2819996,3.424261E-05
0.2829996,3.721613E-05
0.2839996,4.043488E-05
0.2849996,4.34084E-05
0.2859996,4.650454E-05
0.2869996,4.975395E-05
0.2879996,5.288074E-05
0.2889996,5.631408E-05
0.2899996,5.953284E-05
0.2909996,6.290487E-05
0.2919996,6.639952E-05
0.2929996,6.983286E-05
0.2939996,7.338882E-05
0.2949996,7.706739E-05
0.2959996,8.053139E-05
0.2969996,8.436324E-05
0.2979996,8.804183E-05
0.2989996,9.187368E-05
0.2999996,9.595077E-05
0.3009996,9.972131E-05
0.3019996,0.0001038904
0.3029996,0.0001079981
0.3039996,0.0001121365
0.3049996,0.0001165508
0.3059996,0.0001207505
0.3069996,0.0001255327
0.3079996,0.0001301922
0.3089996,0.0001347291
0.3099996,0.0001396032
0.3109996,0.0001444774
0.3119996,0.0001495047
0.3129996,0.0001549613
0.3139996,0.0001602646
0.3149996,0.0001659357
0.3159996,0.000172036
0.3169996,0.0001779831
0.3179996,0.0001846352
0.3189996,0.0001916858
0.3199996,0.0001993188
0.3209996,0.0002078409
0.3219996,0.0002168534
0.3229996,0.0002269695
0.3239996,0.0002381585
0.3249996,0.0002500832
0.3259996,0.0002635407
0.3269996,0.0002781631
0.3279996,0.0002936744
0.3289996,0.0003142237
0.3299996,0.0003326166
0.3309996,0.0003525422
0.3319996,0.0003743071
0.3329996,0.0003979113
0.3339996,0.0004236614
0.3349996,0.0004518639
0.3359996,0.0004834383
0.3369996,0.0005183848
0.3379996,0.000557623
0.3389996,0.0006039118
0.3399996,0.0006575577
0.3409996,0.0007219329
0.3419996,0.0008010223
0.3429996,0.0008978916
0.3439996,0.001018365
0.3449996,0.001166121
0.3459996,0.001344532
0.3469996,0.001553598
0.3479996,0.001790867
0.3489996,0.002052046
0.3499996,0.00233407
0.3509996,0.00262805
0.3519996,0.002934292
0.3529996,0.003277118
0.3539996,0.003589797
0.3549996,0.003911673
0.3559996,0.004236614
0.3569996,0.004558489
0.3579996,0.004892627
0.3589996,0.005220633
0.3599996,0.005554772
0.3609996,0.005891975
0.3619996,0.006226112
0.3629996,0.00656638
0.3639996,0.006909714
0.3649996,0.007249983
0.3659996,0.007596382
0.3669996,0.007942782
0.3679996,0.008286116
0.3689996,0.008632516
0.3699996,0.00898198
0.3709996,0.009331445
0.3719996,0.009677845
0.3729996,0.01002731
0.3739996,0.01037371
0.3749996,0.01071704
0.3759996,0.01106651
0.3769996,0.01140371
0.3779996,0.01174705
0.3789996,0.01208731
0.3799996,0.01242145
0.3809996,0.01275865
0.3819996,0.01308666
0.3829996,0.0134116
0.3839996,0.01373961
0.3849996,0.01406148
0.3859996,0.01438336
0.3869996,0.01469604
0.3879996,0.01501485
0.3889996,0.01532446
0.3899996,0.01562795
0.3909996,0.01593756
0.3919996,0.01624104
0.3929996,0.01653226
0.3939996,0.01683268
0.3949996,0.01711777
0.3959996,0.0173998
0.3969996,0.01768795
0.3979996,0.01795465
0.3989996,0.01822747
0.3999996,0.01849724
0.4009996,0.01875167
0.4019996,0.01901224
0.4029996,0.01926054
0.4039996,0.01950272
0.4049996,0.01974182
0.4059996,0.01997174
0.4069996,0.02019552
0.4079996,0.02041623
0.4089996,0.02063081
0.4099996,0.02084233
0.4109996,0.02104465
0.4119996,0.02123472
0.4129996,0.02140945
0.4139996,0.02158725
0.4149996,0.02174359
0.4159996,0.02189992
0.4169996,0.02204707
0.4179996,0.02218195
0.4189996,0.0223015
0.4199996,0.02241799
0.4209996,0.02252222
0.4219996,0.02261418
0.4229996,0.02270308
0.4239996,0.02277665
0.4249996,0.0228349
0.4259996,0.02289314
0.4269996,0.02293912
0.4279996,0.02295751
0.4289996,0.02297591
0.4299996,0.02297591
0.4309996,0.02295445
0.4319996,0.02292686
0.4329996,0.02288394
0.4339996,0.02281344
0.4349996,0.022746
0.4359996,0.0226479
0.4369996,0.02253141
0.4379996,0.02242106
0.4389996,0.02227698
0.4399996,0.0221329
0.4409996,0.02198576
0.4419996,0.0217957
0.4429996,0.02162403
0.4439996,0.02144317
0.4449996,0.02122552
0.4459996,0.02104465
0.4469996,0.0208362
0.4479996,0.02063695
0.4489996,0.02046221
0.4499996,0.02026296
0.4509996,0.02009742
0.4519996,0.01993188
0.4529996,0.01977248
0.4539996,0.01965292
0.4549996,0.01952724
0.4559996,0.01942301
0.4569996,0.01934944
0.4579996,0.0192728
0.4589996,0.01923295
0.4599996,0.01919923
0.4609996,0.01917778
0.4619996,0.01919004
0.4629996,0.01919004
0.4639996,0.0192115
0.4649996,0.01925748
0.4659996,0.01928813
0.4669996,0.01935864
0.4679996,0.01943834
0.4689996,0.01949352
0.4699996,0.01960388
0.4709996,0.01968358
0.4719996,0.01977554
0.4729996,0.01989203
0.4739996,0.01999319
0.4749996,0.02012501
0.4759996,0.02025376
0.4769996,0.02038251
0.4779996,0.02053885
0.4789996,0.02067067
0.4799996,0.02083007
0.4809996,0.02099867
0.4819996,0.02114888
0.4829996,0.02133281
0.4839996,0.02150754
0.4849996,0.02168841
0.4859996,0.02188766
0.4869996,0.02208079
0.4879996,0.02229844
0.4889996,0.02250689
0.4899996,0.02273067
0.4909996,0.02296978
0.4919996,0.02320275
0.4929996,0.02345106
0.4939996,0.02370549
0.4949996,0.023963
0.4959996,0.02423582
0.4969996,0.02450252
0.4979996,0.02479374
0.4989996,0.02508496
0.4999996,0.02536698
0.5009996,0.02567966
0.5019996,0.02598008
0.5029996,0.02629276
0.5039996,0.02662996
0.5049996,0.02694571
0.5059996,0.02727985
0.5069996,0.02762625
0.5079996,0.02795119
0.5089996,0.02829452
0.5099996,0.02865318
0.5109996,0.02899345
0.5119996,0.02936744
0.5129996,0.02972917
0.5139996,0.03008476
0.5149996,0.03120778
0.5159996,0.03157564
0.5169996,0.0319435
0.5179996,0.03234201
0.5189996,0.03270987
0.5199996,0.03310838
0.5209996,0.03350689
0.5219996,0.03387475
0.5229996,0.03427326
0.5239996,0.03467178
0.5249996,0.03507029
0.5259996,0.0354688
0.5269996,0.03589797
0.5279996,0.03629648
0.5289996,0.036695
0.5299996,0.03709351
0.5309996,0.03749202
0.5319996,0.03795184
0.5329996,0.03835035
0.5339996,0.03874887
0.5349996,0.03920869
0.5359996,0.0396072
0.5369996,0.04003637
0.5379996,0.04046554
0.5389996,0.04086405
0.5399996,0.04129322
0.5409996,0.04169173
0.5419996,0.04215155
0.5429996,0.04258072
0.5439996,0.04297924
0.5449996,0.04343906
0.5459996,0.04386823
0.5469996,0.04429739
0.5479996,0.04475721
0.5489996,0.04515573
0.5499996,0.04561555
0.5509996,0.04604472
0.5519996,0.04647389
0.5529996,0.04693371
0.5539996,0.04736288
0.5549996,0.04779204
0.5559996,0.04825186
0.5569996,0.04865038
0.5579996,0.04914085
0.5589996,0.04957002
0.5599996,0.04999919
0.5609996,0.05045901
0.5619996,0.05088818
0.5629996,0.051348
0.5639996,0.05180782
0.5649996,0.05223699
0.5659996,0.05269681
0.5669996,0.05315664
0.5679996,0.0535858
0.5689996,0.05404563
0.5699996,0.0544748
0.5709996,0.05496527
0.5719996,0.05539444
0.5729996,0.05582361
0.5739996,0.05631408
0.5749996,0.05674325
0.5759996,0.05720307
0.5769996,0.05769355
0.5779996,0.05812272
0.5789996,0.05858254
0.5799996,0.05904236
0.5809996,0.05950218
0.5819996,0.05993135
0.5829996,0.06042183
0.5839996,0.060851
0.5849996,0.06131082
0.5859996,0.0618013
0.5869996,0.06226112
0.5879996,0.06272095
0.5889996,0.06318077
0.5899996,0.06360994
0.5909996,0.06410041
0.5919996,0.06456023
0.5929996,0.06502005
0.5939996,0.06544922
0.5949996,0.06590905
0.5959996,0.06639952
0.5969996,0.06685934
0.5979996,0.06731917
0.5989996,0.06780964
0.5999996,0.06826947
0.6009996,0.06869864
0.6019996,0.06918911
0.6029996,0.06967959
0.6039996,0.07013941
0.6049996,0.07059924
0.6059996,0.07108971
0.6069996,0.07154953
0.6079996,0.07200935
0.6089996,0.07246917
0.6099996,0.072929
0.6109996,0.07338882
0.6119996,0.07387929
0.6129996,0.07436978
0.6139996,0.07479894
0.6149996,0.07528942
0.6159996,0.07574924
0.6169996,0.07620906
0.6179996,0.0767302
0.6189996,0.07719002
0.6199996,0.07764985
0.6209996,0.07814032
0.6219996,0.07860014
0.6229996,0.07905997
0.6239996,0.07955044
0.6249996,0.08001027
0.6259996,0.08050074
0.6269996,0.08099122
0.6279996,0.08142038
0.6289996,0.08191086
0.6299996,0.08237069
0.6309996,0.08283051
0.6319996,0.08332099
0.6329996,0.08378081
0.6339996,0.08427128
0.6349996,0.08476176
0.6359996,0.08519093
0.6369996,0.08571207
0.6379996,0.08617189
0.6389996,0.08663171
0.6399996,0.08715284
0.6409996,0.08761266
0.6419996,0.08810314
0.6429996,0.08859362
0.6439996,0.08905344
0.6449996,0.08954392
0.6459996,0.09003439
0.6469996,0.09049422
0.6479996,0.09098469
0.6489996,0.09147517
0.6499996,0.09193499
0.6509996,0.09242547
0.6519996,0.09291594
0.6529996,0.09340642
0.6539996,0.09386625
0.6549996,0.09432607
0.6559996,0.09484719
0.6569996,0.09527637
0.6579996,0.09576684
0.6589996,0.09631863
0.6599996,0.0967478
0.6609996,0.09726893
0.6619996,0.09772875
0.6629996,0.09818857
0.6639996,0.09870971
0.6649996,0.09913888
0.6659996,0.09966001
0.6669996,0.1001198
0.6679996,0.1006103
0.6689996,0.1011314
0.6699996,0.1015913
0.6709996,0.1021124
0.6719996,0.1025416
0.6729996,0.103032
0.6739996,0.1035532
0.6749996,0.1039823
0.6759996,0.1045035
0.6769996,0.1049633
0.6779996,0.1054231
0.6789996,0.1059749
0.6799996,0.1064041
0.6809996,0.1068945
0.6819996,0.1074463
0.6829996,0.1078755
0.6839996,0.1083966
0.6849996,0.1089178
0.6859996,0.1093469
0.6869996,0.1098068
0.6879996,0.1103585
0.6889996,0.1108184
0.6899996,0.1113088
0.6909996,0.11183
0.6919996,0.1122591
0.6929996,0.1127496
0.6939996,0.1132401
0.6949996,0.1136999
0.6959996,0.1142211
0.6969996,0.1147115
0.6979996,0.115202
0.6989996,0.1156925
0.6999996,0.1158151
0.6990005,0.1153246
0.6980005,0.1148341
0.6970005,0.114313
0.6960005,0.1138225
0.6950005,0.1133321
0.6940005,0.1128416
0.6930005,0.1123511
0.6920004,0.11183
0.6910005,0.1113701
0.6900005,0.1108797
0.6890005,0.1103892
0.6880005,0.1099294
0.6870005,0.1093776
0.6860005,0.1089178
0.6850005,0.1083966
0.6840005,0.1078755
0.6830005,0.1074463
0.6820005,0.1069252
0.6810005,0.1064347
0.6800005,0.1059749
0.6790005,0.1054538
0.6780005,0.1049939
0.6770005,0.1045035
0.6760005,0.1039517
0.6750005,0.1034919
0.6740005,0.1029707
0.6730005,0.1025109
0.6720005,0.1020204
0.6710005,0.1014993
0.6700005,0.1010395
0.6690005,0.100549
0.6680005,0.1000585
0.6670005,0.0995987
0.6660005,0.09904691
0.6650005,0.09858709
0.6640005,0.09809661
0.6630005,0.09757548
0.6620005,0.09711566
0.6610005,0.09662518
0.6600005,0.09613471
0.6590005,0.09564423
0.6580005,0.09515375
0.6570005,0.09469392
0.6560005,0.0941728
0.6550004,0.09368231
0.6540005,0.09322249
0.6530005,0.09270137
0.6520005,0.09224154
0.6510005,0.09175106
0.6500005,0.09122993
0.6490005,0.09077011
0.6480005,0.09027963
0.6470005,0.08978915
0.6460005,0.08932933
0.6450005,0.08883885
0.6440005,0.08831772
0.6430005,0.08785789
0.6420005,0.08733677
0.6410004,0.08687695
0.6400005,0.08641712
0.6390005,0.08592664
0.6380005,0.08543617
0.6370005,0.08494569
0.6360005,0.08448587
0.6350005,0.08399539
0.6340005,0.08350492
0.6330005,0.08304509
0.6320005,0.08252396
0.6310005,0.08203348
0.6300005,0.08157366
0.6290005,0.08108319
0.6280005,0.08062336
0.6270005,0.08016354
0.6260005,0.07964241
0.6250005,0.07921324
0.6240005,0.07869211
0.6230005,0.07823228
0.6220005,0.07774181
0.6210005,0.07725133
0.6200005,0.07676085
0.6190005,0.07630103
0.6180004,0.07581055
0.6170005,0.07532008
0.6160005,0.07486025
0.6150005,0.07436978
0.6140005,0.07390995
0.6130005,0.07341947
0.6120005,0.072929
0.6110005,0.07243852
0.6100005,0.0719787
0.6090005,0.07151888
0.6080005,0.0710284
0.6070005,0.07053792
0.6060005,0.07010876
0.6050005,0.06961828
0.6040004,0.0691278
0.6030005,0.06866798
0.6020005,0.06817751
0.6010005,0.06768703
0.6000005,0.06725786
0.5990005,0.06676738
0.5980005,0.06630756
0.5970005,0.06584774
0.5960005,0.06535726
0.5950005,0.06489744
0.5940005,0.06440695
0.5930005,0.06391648
0.5920005,0.06348731
0.5910005,0.06299683
0.5900005,0.06253701
0.5890005,0.06207719
0.5880005,0.06158672
0.5870005,0.06112689
0.5860005,0.06066707
0.5850005,0.06020725
0.5840005,0.05974742
0.5830005,0.05925695
0.5820005,0.05879712
0.5810004,0.0583373
0.5800005,0.05784683
0.5790005,0.057387
0.5780005,0.05692718
0.5770005,0.05646735
0.5760005,0.05600753
0.5750005,0.05554771
0.5740005,0.05505724
0.5730005,0.05462807
0.5720005,0.05416824
0.5710005,0.05367777
0.5700005,0.05321795
0.5690005,0.05275812
0.5680005,0.0522983
0.5670004,0.05183848
0.5660005,0.05137866
0.5650005,0.05094949
0.5640005,0.05045901
0.5630005,0.05002984
0.5620005,0.04960068
0.5610005,0.0491102
0.5600005,0.04868103
0.5590005,0.04819056
0.5580005,0.04776139
0.5570005,0.04730156
0.5560005,0.04684174
0.5550005,0.04641258
0.5540005,0.0459221
0.5530005,0.04549293
0.5520005,0.04506376
0.5510005,0.04457328
0.5500005,0.04414412
0.5490005,0.04371495
0.5480005,0.04322447
0.5470005,0.0427953
0.5460005,0.04233548
0.5450005,0.04190632
0.5440005,0.04144649
0.5430005,0.04101732
0.5420005,0.0405575
0.5410005,0.04012834
0.5400005,0.03966851
0.5390005,0.03927
0.5380005,0.03881018
0.5370005,0.03835035
0.5360005,0.03789053
0.5350005,0.03743071
0.5340005,0.03700154
0.5330005,0.03663369
0.5320005,0.03614321
0.5310005,0.03574469
0.5300004,0.03531553
0.5290005,0.03488636
0.5280005,0.03442654
0.5270005,0.03402802
0.5260005,0.0335682
0.5250005,0.03313904
0.5240005,0.03270987
0.5230005,0.0322807
0.5220005,0.03185153
0.5210005,0.03142237
0.5200005,0.03102385
0.5190005,0.03059468
0.5180005,0.03016552
0.5170005,0.02973635
0.5160004,0.02930718
0.5150005,0.02887801
0.5140005,0.0284795
0.5130005,0.02808099
0.5120005,0.02765182
0.5110005,0.02722265
0.5100005,0.02682414
0.5090005,0.02639497
0.5080005,0.02599646
0.5070005,0.02559795
0.5060005,0.02516878
0.5050005,0.02477027
0.5040005,0.02437175
0.5030005,0.02397324
0.5020005,0.02357473
0.5010005,0.02317622
0.5000005,0.0227777
0.4990005,0.02234854
0.4980005,0.02195002
0.4970005,0.02155151
0.4960005,0.021153
0.4950005,0.02078514
0.4940005,0.02038663
0.4930005,0.02001877
0.4920005,0.01962026
0.4910005,0.0192524
0.4900005,0.01885389
0.4890005,0.01851668
0.4880005,0.01811817
0.4870005,0.01775031
0.4860005,0.01738245
0.4850005,0.01698394
0.4840005,0.01661608
0.4830005,0.01624822
0.4820005,0.01591102
0.4810005,0.01551251
0.4800005,0.01517531
0.4790005,0.01480745
0.4780005,0.01443959
0.4770005,0.01410239
0.4760005,0.01376519
0.4750005,0.01339733
0.4740005,0.01306012
0.4730005,0.01222833
0.4720005,0.01189419
0.4710005,0.01156312
0.4700005,0.01123204
0.4690005,0.01090404
0.4680005,0.0105791
0.4670005,0.01025722
0.4660005,0.00993841
0.4650005,0.009622667
0.4640005,0.009316118
0.4630005,0.009003439
0.4620005,0.00869689
0.4610005,0.008396474
0.4600005,0.008096056
0.4590005,0.00780177
0.4580005,0.007513615
0.4570005,0.007219328
0.4560005,0.006940369
0.4550005,0.006655279
0.4540005,0.006379386
0.4530005,0.006112689
0.4520005,0.005836796
0.4510005,0.00557623
0.4500005,0.005315664
0.4490005,0.005058163
0.4480005,0.004809859
0.4470005,0.004558489
0.4460005,0.004316316
0.4450005,0.004080274
0.4440005,0.003841166
0.4430005,0.003611255
0.4420005,0.003387475
0.4410005,0.003163695
0.4400005,0.002952177
0.4390005,0.002737593
0.4380005,0.00252914
0.4370005,0.002329884
0.4360005,0.002127562
0.4350005,0.001940567
0.4340005,0.001753573
0.4330005,0.001566578
0.4320005,0.001391846
0.4310005,0.001214048
0.4300005,0.001016219
0.4290005,0.0008516028
0.4280005,0.0006882126
0.4270005,0.0005370842
0.4260005,0.0003828905
0.4250005,0.0002348276
0.4240005,9.626783E-05
0.4230005,-4.505092E-05
0.4220005,-0.0001833453
0.4210005,-0.0003111453
0.4200005,-0.0004374327
0.4190005,-0.0005554538
0.4180005,-0.0006765404
0.4170005,-0.0007893501
0.4160005,-0.0008987879
0.4150005,-0.001009758
0.4140005,-0.001110919
0.4130005,-0.001211161
0.4120005,-0.001311402
0.4110005,-0.001403673
0.4100005,-0.001503301
0.4090005,-0.001600783
0.4080005,-0.001683551
0.4070005,-0.001769998
0.4060005,-0.001851233
0.4050005,-0.001932775
0.4040005,-0.002012784
0.4030005,-0.002091261
0.4020005,-0.00217035
0.4010005,-0.002245761
0.4000005,-0.002321172
0.3990005,-0.002400874
0.3980005,-0.00247322
0.3970005,-0.002550163
0.3960005,-0.002630786
0.3950005,-0.002704357
0.3940005,-0.002784366
0.3930005,-0.002863762
0.3920005,-0.002942239
0.3910005,-0.003027766
0.3900005,-0.003077628
0.3890005,-0.003163461
0.3880005,-0.003255426
0.3870005,-0.003344325
0.3860005,-0.00344242
0.3850005,-0.003543581
0.3840005,-0.003641677
0.3830005,-0.003752034
0.3820005,-0.003859326
0.3810005,-0.003975814
0.3800005,-0.004095368
0.3790005,-0.004214922
0.3780005,-0.004343672
0.3770005,-0.004475488
0.3760005,-0.004610369
0.3750005,-0.004751381
0.3740005,-0.004892393
0.3730005,-0.005042602
0.3720005,-0.005195876
0.3710005,-0.005355281
0.3700005,-0.005517752
0.3690005,-0.005680223
0.3680005,-0.005845758
0.3670005,-0.006020491
0.3660005,-0.006189092
0.3650005,-0.006369956
0.3640005,-0.006547754
0.3630005,-0.006725552
0.3620005,-0.006912547
0.3610005,-0.00709341
0.3600005,-0.00728347
0.3590005,-0.007473529
0.3580005,-0.007660524
0.3570005,-0.00785365
0.3560005,-0.008043709
0.3550005,-0.008230704
0.3540005,-0.00842996
0.3530005,-0.008623085
0.3520005,-0.008813146
0.3510005,-0.009015468
0.3500005,-0.009205527
0.3490005,-0.009401718
0.3480005,-0.009600975
0.3470005,-0.009791034
0.3460005,-0.009990291
0.3450005,-0.01018342
0.3440005,-0.01037961
0.3430005,-0.01056967
0.3420005,-0.01075973
0.3410005,-0.01095898
0.3400005,-0.01114291
0.3390005,-0.01133297
0.3380005,-0.0115261
0.3370005,-0.01170083
0.3360005,-0.01188783
0.3350005,-0.01206869
0.3340005,-0.01223729
0.3330005,-0.01241202
0.3320005,-0.01257756
0.3310005,-0.01274003
0.3300005,-0.01290863
0.3290005,-0.01305884
0.3280005,-0.01321824
0.3270005,-0.01336845
0.3260005,-0.0135064
0.3250005,-0.01365661
0.3240005,-0.01378536
0.3230005,-0.01390798
0.3220005,-0.01404286
0.3210005,-0.01415322
0.3200005,-0.01426357
0.3190005,-0.01438006
0.3180005,-0.01448122
0.3170005,-0.01457625
0.3160005,-0.01467741
0.3150005,-0.01476938
0.3140005,-0.01484908
0.3130005,-0.01493185
0.3120005,-0.01501768
0.3110005,-0.01508819
0.3100005,-0.01516483
0.3090005,-0.0152384
0.3080005,-0.01530584
0.3070005,-0.01537941
0.3060005,-0.01543765
0.3050005,-0.01550203
0.3040005,-0.01556334
0.3030005,-0.01562158
0.3020005,-0.01568289
0.3010005,-0.0157442
0.3000005,-0.01579631
0.2990005,-0.01586069
0.2980005,-0.01591587
0.2970005,-0.01596185
0.2960005,-0.01602929
0.2950005,-0.01607527
0.2940005,-0.01613045
0.2930005,-0.01619789
0.2920005,-0.01623468
0.2910005,-0.01629599
0.2900005,-0.01635117
0.2890005,-0.01638795
0.2880005,-0.01644313
0.2870005,-0.01647992
0.2860005,-0.01652284
0.2850005,-0.01656575
0.2840005,-0.0166056
0.2830005,-0.01665158
0.2820005,-0.01668224
0.2810005,-0.01672516
0.2800005,-0.01674968
0.2790005,-0.01677114
0.2780005,-0.01679873
0.2770005,-0.01681405
0.2760005,-0.01682938
0.2750005,-0.01684471
0.2740005,-0.01685084
0.2730005,-0.01685391
0.2720005,-0.01684778
0.2710005,-0.01684164
0.2700005,-0.01682938
0.2690005,-0.01679873
0.2680005,-0.01677727
0.2670005,-0.01674048
0.2660005,-0.01668531
0.2650005,-0.01663013
0.2640005,-0.01656269
0.2630005,-0.01647685
0.2620005,-0.01638795
0.2610005,-0.01628373
0.2600005,-0.01614578
0.2590005,-0.01601396
0.2580005,-0.01585456
0.2570005,-0.01566757
0.2560005,-0.01548977
0.2550005,-0.01526905
0.2540005,-0.01502075
0.2530005,-0.01477244
0.2520005,-0.01449348
0.2510005,-0.01417774
0.2500005,-0.01387119
0.2490005,-0.0135156
0.2480005,-0.0131508
0.2470005,-0.01277988
0.2460005,-0.01238443
0.2450005,-0.01200738
0.2440005,-0.01162113
0.2430005,-0.0112502
0.2420005,-0.01088235
0.2410005,-0.01054208
0.2400005,-0.01020487
0.2390005,-0.009901391
0.2380005,-0.009628564
0.2370005,-0.009331211
0.2360005,-0.009092105
0.2350005,-0.008859128
0.2340005,-0.008604692
0.2330005,-0.008417699
0.2320005,-0.00820618
0.2310005,-0.008003858
0.2300005,-0.007850585
0.2290005,-0.007663589
0.2280005,-0.007498054
0.2270005,-0.007369304
0.2260005,-0.007206833
0.2250005,-0.007081148
0.2240005,-0.006961594
0.2230005,-0.00680832
0.2220005,-0.006719421
0.2210005,-0.006593736
0.2200005,-0.006471117
0.2190005,-0.006400611
0.2180005,-0.006274926
0.2170005,-0.006192158
0.2160005,-0.006103259
0.2150005,-0.006011295
0.2140005,-0.005925461
0.2130005,-0.005836562
0.2120005,-0.005750729
0.2110005,-0.005680223
0.2100005,-0.005600519
0.2090005,-0.005536145
0.2080005,-0.005453377
0.2070005,-0.00538287
0.2060005,-0.005321561
0.2050005,-0.005244924
0.2040005,-0.005183614
0.2030005,-0.005119239
0.2020005,-0.005048733
0.2010005,-0.004993554
0.2000005,-0.004929179
0.1990005,-0.004864804
0.1980005,-0.004809625
0.1970005,-0.004748316
0.1960005,-0.004683941
0.1950005,-0.004634893
0.1940005,-0.004579714
0.1930005,-0.004518405
0.1920005,-0.004472422
0.1910005,-0.004417243
0.1900005,-0.004371261
0.1890005,-0.004322214
0.1880005,-0.004267035
0.1870005,-0.004227184
0.1860005,-0.00417507
0.1850005,-0.004132153
0.1840005,-0.004089237
0.1830005,-0.004040189
0.1820005,-0.004000338
0.1810005,-0.003954356
0.1800005,-0.003911439
0.1790005,-0.003871588
0.1780005,-0.003828671
0.1770005,-0.003791885
0.1760005,-0.003752034
0.1750005,-0.003709117
0.1740005,-0.003675397
0.1730005,-0.003635545
0.1720005,-0.00359876
0.1710005,-0.003561974
0.1700005,-0.003525188
0.1690005,-0.003488402
0.1680005,-0.003454682
0.1670005,-0.003417896
0.1660005,-0.003384176
0.1650005,-0.00334739
0.1640005,-0.00331367
0.1630005,-0.00327995
0.1620005,-0.003240098
0.1610005,-0.003209443
0.1600005,-0.003172658
0.1590005,-0.003135872
0.1580005,-0.003102152
0.1570005,-0.0030623
0.1560005,-0.00302858
0.1550005,-0.00299486
0.1540005,-0.002958074
0.1530005,-0.002924354
0.1520005,-0.002893699
0.1510005,-0.002859978
0.1500005,-0.002832389
0.1490005,-0.0028048
0.1480005,-0.00277108
0.1470005,-0.002746556
0.1460005,-0.002718966
0.1450005,-0.002691377
0.1440005,-0.002666853
0.1430005,-0.002642329
0.1420005,-0.002620871
0.1410005,-0.002596347
0.1400005,-0.002574889
0.1390005,-0.002550365
0.1380005,-0.002528906
0.1370005,-0.002507448
0.1360005,-0.00248599
0.1350005,-0.002464531
0.1340005,-0.002443073
0.1330005,-0.002421614
0.1320005,-0.002400156
0.1310005,-0.002378698
0.1300005,-0.002357239
0.1290005,-0.002338846
0.1280005,-0.002320454
0.1270005,-0.002298995
0.1260005,-0.002280602
0.1250005,-0.002262209
0.1240005,-0.002243817
0.1230005,-0.002228489
0.1220005,-0.002210096
0.1210005,-0.002194769
0.1200005,-0.002179441
0.1190005,-0.002164114
0.1180005,-0.002148786
0.1170005,-0.002133459
0.1160005,-0.002118132
0.1150005,-0.00210587
0.1140005,-0.002090542
0.1130005,-0.002075215
0.1120005,-0.002062953
0.1110005,-0.002047626
0.1100005,-0.002035364
0.1090005,-0.002023102
0.1080005,-0.00201084
0.1070005,-0.001998578
0.1060005,-0.001986316
0.1050005,-0.001974054
0.1040005,-0.001964858
0.1030005,-0.001952596
0.1020005,-0.001940334
0.1010005,-0.001931137
0.1000005,-0.001918875
0.09900048,-0.001906613
0.09800047,-0.001897417
0.09700048,-0.001885155
0.09600048,-0.001875959
0.09500048,-0.001866762
0.09400047,-0.001857566
0.09300048,-0.001845304
0.09200048,-0.001836107
0.09100047,-0.001826911
0.09000048,-0.001817714
0.08900048,-0.001808518
0.08800048,-0.001799321
0.08700047,-0.001790125
0.08600048,-0.001780929
0.08500048,-0.001771732
0.08400048,-0.001762536
0.08300047,-0.001753339
0.08200048,-0.001744143
0.08100048,-0.001738012
0.08000048,-0.001728815
0.07900048,-0.001719619
0.07800048,-0.001710422
0.07700048,-0.001704292
0.07600047,-0.001695095
0.07500048,-0.001685899
0.07400048,-0.001676702
0.07300048,-0.001670571
0.07200047,-0.001661375
0.07100048,-0.001655244
0.07000048,-0.001646047
0.06900048,-0.001639916
0.06800048,-0.00163072
0.06700048,-0.001624589
0.06600048,-0.001653203
0.06500047,-0.00164554
0.06400048,-0.001638795
0.06300048,-0.001631438
0.06200048,-0.001624081
0.06100048,-0.001617031
0.06000048,-0.001609673
0.05900048,-0.001602929
0.05800048,-0.001595879
0.05700048,-0.001589135
0.05600048,-0.001583004
0.05500048,-0.00157534
0.05400048,-0.001569209
0.05300048,-0.001562772
0.05200048,-0.001555414
0.05100048,-0.001549283
0.05000048,-0.001542846
0.04900048,-0.001536102
0.04800048,-0.001529664
0.04700048,-0.001523533
0.04600048,-0.001516789
0.04500048,-0.001510658
0.04400048,-0.001504221
0.04300048,-0.001498703
0.04200048,-0.001491652
0.04100048,-0.001486134
0.04000048,-0.001480003
0.03900048,-0.001473566
0.03800048,-0.001468048
0.03700048,-0.001461917
0.03600048,-0.001455786
0.03500048,-0.001450268
0.03400048,-0.001443831
0.03300048,-0.001438313
0.03200048,-0.001432489
0.03100048,-0.001426664
0.03000048,-0.001421453
0.02900048,-0.001415322
0.02800048,-0.001409804
0.02700048,-0.001404286
0.02600048,-0.001398462
0.02500048,-0.00139325
0.02400048,-0.001387732
0.02300048,-0.001382215
0.02200048,-0.001377003
0.02100048,-0.001371485
0.02000048,-0.001366581
0.01900048,-0.001361369
0.01800048,-0.001355851
0.01700048,-0.00135064
0.01600048,-0.001345122
0.01500048,-0.001340217
0.01400048,-0.001335313
0.01300048,-0.001329795
0.01200048,-0.001325197
0.01100048,-0.001320292
0.01000048,-0.001314774
0.009000476,-0.001310176
0.008000477,-0.001304964
0.007000477,-0.00130006
0.006000477,-0.001295461
0.005000477,-0.001290557
0.004000477,-0.001285652
0.003000477,-0.001281054
0.002000477,-0.001276149
0.001000477,-0.001271857
