EXPID. 0255
[电化学]: CV : 0 >> 0.7 >> 0 >> 0(V) @ 0.01(V/s) X 10(Seg)
起始电位 (V),0
上限电位 (V),0.7
下限电位 (V),0
终止电位 (V),0
扫速 (V/s),0.01
电解液 信息:
KOH,1
0.001,2.323752E-05
0.002,2.378931E-05
0.003,2.427979E-05
0.004,2.470896E-05
0.005,2.526074E-05
0.006,2.568991E-05
0.007,2.608842E-05
0.008,2.645628E-05
0.009,2.670152E-05
0.01,2.700807E-05
0.011,2.728396E-05
0.012,2.765182E-05
0.013,2.798902E-05
0.014,2.841819E-05
0.015,2.872474E-05
0.016,2.900063E-05
0.017,2.930718E-05
0.018,2.961373E-05
0.019,2.979766E-05
0.02,3.010421E-05
0.021,3.034945E-05
0.022,3.065599E-05
0.023,3.10545E-05
0.024,3.139171E-05
0.025,3.157564E-05
0.026,3.188219E-05
0.027,3.218873E-05
0.028,3.237266E-05
0.029,3.264856E-05
0.03,3.292445E-05
0.031,3.332296E-05
0.032,3.359886E-05
0.033,3.387475E-05
0.034,3.411999E-05
0.035,3.436523E-05
0.036,3.457981E-05
0.037,3.482505E-05
0.038,3.516225E-05
0.039,3.553011E-05
0.04,3.5806E-05
0.041,3.605124E-05
0.042,3.632714E-05
0.043,3.660303E-05
0.044,3.681761E-05
0.045,3.703219E-05
0.046,3.730809E-05
0.047,3.76453E-05
0.048,3.79825E-05
0.049,3.835035E-05
0.05,3.853428E-05
0.051,3.881018E-05
0.052,3.905542E-05
0.053,3.927E-05
0.054,3.951524E-05
0.055,3.985244E-05
0.056,4.02203E-05
0.057,4.046554E-05
0.058,4.074143E-05
0.059,4.101732E-05
0.06,4.129322E-05
0.061,4.147715E-05
0.062,4.175304E-05
0.063,4.21209E-05
0.064,4.248875E-05
0.065,4.270334E-05
0.066,4.304054E-05
0.067,4.331644E-05
0.068,4.356167E-05
0.069,4.377626E-05
0.07,4.405215E-05
0.071,4.445066E-05
0.072,4.481852E-05
0.073,4.509441E-05
0.074,4.543162E-05
0.075,4.56462E-05
0.076,4.595275E-05
0.077,4.619799E-05
0.078,4.650454E-05
0.079,4.696436E-05
0.08,4.724025E-05
0.081,4.75468E-05
0.082,4.782269E-05
0.083,4.806793E-05
0.084,4.846645E-05
0.085,4.892627E-05
0.086,4.923281E-05
0.087,4.953937E-05
0.088,4.97846E-05
0.089,5.012181E-05
0.09,5.052032E-05
0.091,5.091884E-05
0.092,5.137865E-05
0.093,5.162389E-05
0.094,5.199175E-05
0.095,5.232896E-05
0.096,5.272746E-05
0.097,5.318729E-05
0.098,5.35858E-05
0.099,5.3923E-05
0.1,5.429086E-05
0.101,5.465872E-05
0.102,5.52105E-05
0.103,5.570098E-05
0.104,5.603819E-05
0.105,5.640604E-05
0.106,5.686587E-05
0.107,5.726438E-05
0.108,5.787748E-05
0.109,5.827599E-05
0.11,5.86745E-05
0.111,5.919564E-05
0.112,5.956349E-05
0.113,6.008463E-05
0.114,6.069772E-05
0.115,6.112688E-05
0.116,6.161736E-05
0.117,6.204653E-05
0.118,6.265963E-05
0.119,6.324207E-05
0.12,6.373255E-05
0.121,6.422302E-05
0.122,6.483612E-05
0.123,6.547987E-05
0.124,6.612363E-05
0.125,6.66141E-05
0.126,6.710459E-05
0.127,6.787095E-05
0.128,6.848405E-05
0.129,6.906649E-05
0.13,6.97409E-05
0.131,7.029268E-05
0.132,7.118167E-05
0.133,7.185608E-05
0.134,7.253049E-05
0.135,7.320489E-05
0.136,7.384864E-05
0.137,7.464566E-05
0.138,7.5504E-05
0.139,7.620906E-05
0.14,7.706739E-05
0.141,7.783377E-05
0.142,7.853883E-05
0.143,7.955044E-05
0.144,8.043943E-05
0.145,8.132842E-05
0.146,8.218676E-05
0.147,8.307574E-05
0.148,8.405669E-05
0.149,8.491503E-05
0.15,8.59573E-05
0.151,8.715284E-05
0.152,8.807248E-05
0.153,8.905343E-05
0.154,9.024898E-05
0.155,9.119927E-05
0.156,9.239481E-05
0.157,9.359034E-05
0.158,9.472457E-05
0.159,9.601207E-05
0.16,9.720762E-05
0.161,9.840316E-05
0.162,9.962935E-05
0.163,0.0001009168
0.164,0.0001024496
0.165,0.0001038291
0.166,0.0001052698
0.167,0.0001067413
0.168,0.0001081514
0.169,0.0001096228
0.17,0.0001112169
0.171,0.0001128109
0.172,0.0001145276
0.173,0.0001162136
0.174,0.0001178077
0.175,0.0001196163
0.176,0.0001213023
0.177,0.0001231722
0.178,0.0001252568
0.179,0.0001271267
0.18,0.0001291193
0.181,0.0001311118
0.182,0.0001331044
0.183,0.0001352196
0.184,0.0001373961
0.185,0.0001397259
0.186,0.0001421169
0.187,0.0001442934
0.188,0.0001468071
0.189,0.0001492289
0.19,0.0001515893
0.191,0.0001542869
0.192,0.0001569539
0.193,0.0001595902
0.194,0.000162533
0.195,0.000165292
0.196,0.0001682962
0.197,0.0001711471
0.198,0.0001742738
0.199,0.00017737
0.2,0.0001804661
0.201,0.0001838688
0.202,0.0001873328
0.203,0.0001907048
0.204,0.0001943527
0.205,0.0001980926
0.206,0.0002016793
0.207,0.0002055111
0.208,0.0002092817
0.209,0.0002132668
0.21,0.0002174972
0.211,0.0002217888
0.212,0.0002261725
0.213,0.0002304948
0.214,0.0002349398
0.215,0.00023963
0.216,0.0002441668
0.217,0.000249133
0.218,0.0002542216
0.219,0.0002593103
0.22,0.0002647976
0.221,0.0002701009
0.222,0.0002754348
0.223,0.0002813512
0.224,0.0002869303
0.225,0.0002927548
0.226,0.0003028814
0.227,0.0003087058
0.228,0.0003154498
0.229,0.0003218873
0.23,0.0003286314
0.231,0.0003353755
0.232,0.0003424261
0.233,0.0003497833
0.234,0.000357447
0.235,0.0003648041
0.236,0.0003730809
0.237,0.0003810512
0.238,0.000389328
0.239,0.0003982179
0.24,0.0004068012
0.241,0.0004159977
0.242,0.0004255007
0.243,0.0004350037
0.244,0.0004448132
0.245,0.0004549293
0.246,0.0004650454
0.247,0.0004760812
0.248,0.0004871169
0.249,0.0004984592
0.25,0.000510108
0.251,0.0005217568
0.252,0.0005346319
0.253,0.0005468938
0.254,0.0005600754
0.255,0.00057387
0.256,0.0005876647
0.257,0.0006020725
0.258,0.0006167868
0.259,0.0006315011
0.26,0.0006477482
0.261,0.0006636887
0.262,0.0006799357
0.263,0.0006971025
0.264,0.0007145757
0.265,0.0007323555
0.266,0.0007513615
0.267,0.0007703675
0.268,0.0007909063
0.269,0.0008108319
0.27,0.0008316771
0.271,0.0008540552
0.272,0.0008761266
0.273,0.0008994243
0.274,0.0009236416
0.275,0.0009481655
0.276,0.0009745287
0.277,0.001000892
0.278,0.001027868
0.279,0.001057297
0.28,0.001086725
0.281,0.00111738
0.282,0.001149874
0.283,0.001182981
0.284,0.001218234
0.285,0.001254714
0.286,0.001292419
0.287,0.00133411
0.288,0.001376413
0.289,0.001421476
0.29,0.001469297
0.291,0.001518345
0.292,0.001573217
0.293,0.001630542
0.294,0.001691852
0.295,0.001759599
0.296,0.001829798
0.297,0.001908581
0.298,0.001993495
0.299,0.002082701
0.3,0.002183555
0.301,0.002288701
0.302,0.002401817
0.303,0.002526889
0.304,0.002655946
0.305,0.002796958
0.306,0.002948086
0.307,0.003142236
0.308,0.003310838
0.309,0.003488636
0.31,0.00367563
0.311,0.003881018
0.312,0.004092536
0.313,0.004316316
0.314,0.004555424
0.315,0.004803728
0.316,0.005067359
0.317,0.005337122
0.318,0.005625277
0.319,0.00592876
0.32,0.006238374
0.321,0.00656638
0.322,0.006900518
0.323,0.007246917
0.324,0.007608644
0.325,0.007973436
0.326,0.008353557
0.327,0.008742873
0.328,0.00913832
0.329,0.00955216
0.33,0.009966001
0.331,0.01038904
0.332,0.01082127
0.333,0.01124737
0.334,0.0116888
0.335,0.0121333
0.336,0.01257166
0.337,0.01302842
0.338,0.01347598
0.339,0.0139266
0.34,0.01438336
0.341,0.01482786
0.342,0.01527848
0.343,0.01572298
0.344,0.01616441
0.345,0.0166181
0.346,0.01705953
0.347,0.01750402
0.348,0.01794239
0.349,0.01837462
0.35,0.01881605
0.351,0.01924215
0.352,0.01967438
0.353,0.02010355
0.354,0.02052046
0.355,0.02094656
0.356,0.0213604
0.357,0.02177118
0.358,0.02218808
0.359,0.02259272
0.36,0.02300963
0.361,0.02341121
0.362,0.02380972
0.363,0.02422049
0.364,0.02460981
0.365,0.02500832
0.366,0.02540684
0.367,0.02578389
0.368,0.02617627
0.369,0.02655946
0.37,0.02694264
0.371,0.02732276
0.372,0.02769982
0.373,0.02808607
0.374,0.02845393
0.375,0.02882791
0.376,0.0292111
0.377,0.0295667
0.378,0.02994682
0.379,0.03111582
0.38,0.03145302
0.381,0.03182088
0.382,0.03215808
0.383,0.03255659
0.384,0.0328938
0.385,0.033231
0.386,0.03362951
0.387,0.03399737
0.388,0.03433457
0.389,0.03470243
0.39,0.03503963
0.391,0.03540749
0.392,0.03574469
0.393,0.03611255
0.394,0.03644976
0.395,0.03678696
0.396,0.03715482
0.397,0.03749202
0.398,0.03782922
0.399,0.03819708
0.4,0.03853428
0.401,0.03887149
0.402,0.03923934
0.403,0.03954589
0.404,0.0398831
0.405,0.0402203
0.406,0.04052685
0.407,0.04089471
0.408,0.04120126
0.409,0.04153846
0.41,0.04187566
0.411,0.04218221
0.412,0.04251941
0.413,0.04282596
0.414,0.04313251
0.415,0.04350037
0.416,0.04377626
0.417,0.04411346
0.418,0.04442001
0.419,0.04472656
0.42,0.04503311
0.421,0.04533966
0.422,0.0456462
0.423,0.04595275
0.424,0.0462593
0.425,0.04653519
0.426,0.04684174
0.427,0.04714829
0.428,0.04742418
0.429,0.04770008
0.43,0.04797597
0.431,0.04825186
0.432,0.04852776
0.433,0.04880365
0.434,0.04907954
0.435,0.04932478
0.436,0.04957002
0.437,0.04981526
0.438,0.0500605
0.439,0.05030574
0.44,0.05052032
0.441,0.05073491
0.442,0.05094949
0.443,0.05116407
0.444,0.051348
0.445,0.05153193
0.446,0.05174651
0.447,0.05186913
0.448,0.05205306
0.449,0.05217568
0.45,0.0522983
0.451,0.05242092
0.452,0.05248223
0.453,0.05254354
0.454,0.0526355
0.455,0.0526355
0.456,0.0526355
0.457,0.0526355
0.458,0.05257419
0.459,0.05248223
0.46,0.05232896
0.461,0.05217568
0.462,0.0519611
0.463,0.0516852
0.464,0.05137866
0.465,0.05098015
0.466,0.05052032
0.467,0.04999919
0.468,0.04932478
0.469,0.04861972
0.47,0.04779204
0.471,0.04681109
0.472,0.04579948
0.473,0.04457328
0.474,0.04328578
0.475,0.04193697
0.476,0.04043488
0.477,0.03896345
0.478,0.03743071
0.479,0.03589797
0.48,0.03448785
0.481,0.03307773
0.482,0.03179022
0.483,0.03053337
0.484,0.02936849
0.485,0.02832623
0.486,0.02731462
0.487,0.02642563
0.488,0.0256286
0.489,0.02486223
0.49,0.02424913
0.491,0.02366669
0.492,0.02314556
0.493,0.02271639
0.494,0.02234854
0.495,0.02207264
0.496,0.02185806
0.497,0.02164347
0.498,0.02155151
0.499,0.02145955
0.5,0.02142889
0.501,0.02145955
0.502,0.02145955
0.503,0.02155151
0.504,0.02164347
0.505,0.02176609
0.506,0.02195002
0.507,0.0221033
0.508,0.02231788
0.509,0.02250181
0.51,0.02274705
0.511,0.02299229
0.512,0.02326818
0.513,0.02354407
0.514,0.02381997
0.515,0.02409586
0.516,0.02443307
0.517,0.02473961
0.518,0.02504616
0.519,0.02538336
0.52,0.02568991
0.521,0.02602712
0.522,0.02639497
0.523,0.02673218
0.524,0.02710003
0.525,0.02746789
0.526,0.02783575
0.527,0.02817295
0.528,0.02857147
0.529,0.02893933
0.53,0.02930718
0.531,0.02970569
0.532,0.03010421
0.533,0.03050272
0.534,0.03090123
0.535,0.03126909
0.536,0.0316676
0.537,0.03209677
0.538,0.03249529
0.539,0.0328938
0.54,0.03332296
0.541,0.03372148
0.542,0.03411999
0.543,0.03454916
0.544,0.03494767
0.545,0.03537684
0.546,0.03577535
0.547,0.03623517
0.548,0.03663369
0.549,0.03706285
0.55,0.03749202
0.551,0.03792119
0.552,0.03835035
0.553,0.03881018
0.554,0.03923934
0.555,0.03969917
0.556,0.04009768
0.557,0.04052685
0.558,0.04098667
0.559,0.04138518
0.56,0.04187566
0.561,0.04230483
0.562,0.04273399
0.563,0.04319382
0.564,0.04362299
0.565,0.04408281
0.566,0.04451197
0.567,0.0449718
0.568,0.04543162
0.569,0.04586079
0.57,0.04632061
0.571,0.04681109
0.572,0.04724025
0.573,0.04770008
0.574,0.0481599
0.575,0.04858907
0.576,0.04907954
0.577,0.04950871
0.578,0.04996854
0.579,0.05042836
0.58,0.05085753
0.581,0.051348
0.582,0.05180782
0.583,0.05226765
0.584,0.05275812
0.585,0.05318729
0.586,0.05367777
0.587,0.05416824
0.588,0.05459742
0.589,0.05508789
0.59,0.05554771
0.591,0.05600753
0.592,0.05646735
0.593,0.05695784
0.594,0.05741766
0.595,0.05787748
0.596,0.05836796
0.597,0.05882778
0.598,0.05931826
0.599,0.05977808
0.6,0.0602379
0.601,0.06072838
0.602,0.0611882
0.603,0.06167868
0.604,0.06216915
0.605,0.06262898
0.606,0.06311946
0.607,0.06360994
0.608,0.0640391
0.609,0.06456023
0.61,0.06502005
0.611,0.06547987
0.612,0.06597035
0.613,0.06646083
0.614,0.06692065
0.615,0.06741113
0.616,0.06787095
0.617,0.06839209
0.618,0.06888256
0.619,0.06934239
0.62,0.06983286
0.621,0.07032334
0.622,0.07078316
0.623,0.07127364
0.624,0.07176412
0.625,0.07222394
0.626,0.07274507
0.627,0.07323555
0.628,0.07369537
0.629,0.07418585
0.63,0.07464567
0.631,0.07513615
0.632,0.07562663
0.633,0.0761171
0.634,0.07660758
0.635,0.07709806
0.636,0.07755788
0.637,0.07807901
0.638,0.07856949
0.639,0.07902931
0.64,0.07951979
0.641,0.08001027
0.642,0.08047009
0.643,0.08099122
0.644,0.08145104
0.645,0.08194152
0.646,0.08243199
0.647,0.08292247
0.648,0.08341295
0.649,0.08390342
0.65,0.08436324
0.651,0.08488438
0.652,0.08540551
0.653,0.08586534
0.654,0.08638646
0.655,0.08681564
0.656,0.08733677
0.657,0.08782724
0.658,0.08831772
0.659,0.08883885
0.66,0.08932933
0.661,0.08981981
0.662,0.09031029
0.663,0.09077011
0.664,0.09129124
0.665,0.09178172
0.666,0.09224154
0.667,0.09276267
0.668,0.0932838
0.669,0.09374363
0.67,0.09426476
0.671,0.09475523
0.672,0.09524571
0.673,0.09576684
0.674,0.09622667
0.675,0.09671714
0.676,0.09723828
0.677,0.0976981
0.678,0.09821923
0.679,0.09870971
0.68,0.09920018
0.681,0.09972132
0.682,0.1002118
0.683,0.1007023
0.684,0.1012234
0.685,0.1017139
0.686,0.1022043
0.687,0.1026948
0.688,0.1031853
0.689,0.1036758
0.69,0.1042276
0.691,0.1046874
0.692,0.1052085
0.693,0.105699
0.694,0.1061895
0.695,0.1067106
0.696,0.1071704
0.697,0.1076916
0.698,0.1082127
0.699,0.1086725
0.7,0.1088565
0.6990001,0.108366
0.6980001,0.1078448
0.6970001,0.107385
0.6960001,0.1068945
0.6950001,0.1063734
0.6940001,0.1059442
0.6930001,0.1054538
0.6920001,0.104902
0.6910001,0.1044728
0.6900001,0.1039517
0.6890001,0.1034612
0.6880001,0.1030014
0.6870001,0.1025109
0.6860001,0.1020204
0.6850001,0.1015299
0.6840001,0.1010395
0.6830001,0.100549
0.6820001,0.1000585
0.6810001,0.09956805
0.6800001,0.09907757
0.6790001,0.09858709
0.6780001,0.09809661
0.6770001,0.09763679
0.6760001,0.09711566
0.6750001,0.09662518
0.6740001,0.09616536
0.6730001,0.09567488
0.6720001,0.09521506
0.6710001,0.09472458
0.6700001,0.0942341
0.6690001,0.09374363
0.6680001,0.0932838
0.6670001,0.09273202
0.6660001,0.09227219
0.6650001,0.09178172
0.6640001,0.09129124
0.6630001,0.09083142
0.6620001,0.09034094
0.6610001,0.08988111
0.6600001,0.08942129
0.6590001,0.08890016
0.6580001,0.08844034
0.6570001,0.08794986
0.6560001,0.08745939
0.6550001,0.08696891
0.6540001,0.08647843
0.6530001,0.08598796
0.6520001,0.08552813
0.6510001,0.08503766
0.6500001,0.08454718
0.6490001,0.08408736
0.6480001,0.08356623
0.6470001,0.0831064
0.6460001,0.08264658
0.6450001,0.08212545
0.6440001,0.08163497
0.6430001,0.08120581
0.6420001,0.08068467
0.6410001,0.08022485
0.6400001,0.07973437
0.6390001,0.07927455
0.6380001,0.07881473
0.6370001,0.07829359
0.6360001,0.07783377
0.6350001,0.07734329
0.6340001,0.07685282
0.6330001,0.076393
0.6320001,0.07590251
0.6310001,0.07544269
0.6300001,0.07495221
0.6290001,0.07449239
0.6280001,0.07403257
0.6270001,0.07351144
0.6260001,0.07305162
0.6250001,0.0725918
0.6240001,0.07210132
0.6230001,0.0716415
0.6220001,0.07115102
0.6210001,0.07066055
0.6200001,0.07020072
0.6190001,0.06971025
0.6180001,0.06925042
0.6170001,0.0687906
0.6160001,0.06830012
0.6150001,0.0678403
0.6140001,0.06734982
0.6130001,0.06688999
0.6120001,0.06643017
0.6110001,0.0659397
0.6100001,0.06547987
0.6090001,0.06502005
0.6080001,0.06452958
0.6070001,0.06406976
0.6060001,0.06357928
0.6050001,0.0630888
0.6040001,0.06265964
0.6030001,0.06216915
0.6020001,0.06170933
0.6010001,0.06121886
0.6000001,0.06075903
0.5990001,0.06029921
0.5980001,0.05983939
0.5970001,0.05934891
0.5960001,0.05891975
0.5950001,0.05845992
0.5940001,0.05793879
0.5930001,0.05750962
0.5920001,0.0570498
0.5910001,0.05655932
0.5900001,0.05613015
0.5890001,0.05563968
0.5880001,0.05517985
0.5870001,0.05472003
0.5860001,0.05426021
0.5850001,0.05380039
0.5840001,0.05330991
0.5830001,0.05285009
0.5820001,0.05242092
0.5810001,0.05193045
0.5800001,0.05150127
0.5790001,0.05104145
0.5780001,0.05055097
0.5770001,0.05012181
0.5760001,0.04969264
0.5750001,0.04920216
0.5740001,0.048773
0.5730001,0.04831317
0.5720001,0.04785335
0.5710001,0.04739353
0.5700001,0.04693371
0.5690001,0.04647389
0.5680001,0.04604472
0.5670001,0.04558489
0.5660001,0.04512507
0.5650001,0.04469591
0.5640001,0.04423608
0.5630001,0.04377626
0.5620001,0.04331644
0.5610001,0.04288727
0.5600001,0.04242745
0.5590001,0.04196763
0.5580001,0.04153846
0.5570001,0.04110929
0.5560001,0.04064947
0.5550001,0.0402203
0.5540001,0.03976048
0.5530001,0.03933131
0.5520001,0.03890214
0.5510001,0.03844232
0.5500001,0.0379825
0.5490001,0.03755333
0.5480001,0.03712416
0.5470001,0.036695
0.5460001,0.03623517
0.5450001,0.035806
0.5440001,0.03537684
0.5430001,0.03494767
0.5420001,0.0345185
0.5410001,0.03408933
0.5400001,0.03366017
0.5390001,0.033231
0.5380001,0.03280183
0.5370001,0.03237266
0.5360001,0.0319435
0.5350001,0.03151433
0.5340001,0.03111582
0.5330001,0.03068665
0.5320001,0.03025748
0.5310001,0.02982831
0.5300001,0.02939915
0.5290001,0.02896998
0.5280001,0.02854081
0.5270001,0.0281423
0.5260001,0.02774378
0.5250001,0.02731462
0.5240001,0.02691611
0.5230001,0.02651759
0.5220001,0.02608843
0.5210001,0.02568991
0.5200001,0.02526074
0.5190001,0.02486223
0.5180001,0.02446372
0.5170001,0.02406521
0.5160001,0.02366669
0.5150001,0.02326818
0.5140001,0.02286967
0.5130001,0.02247116
0.5120001,0.02204199
0.5110001,0.02167413
0.5100001,0.02124496
0.5090001,0.0208771
0.5080001,0.02047859
0.5070001,0.02011073
0.5060001,0.01971222
0.5050001,0.01934436
0.5040001,0.01894585
0.5030001,0.01857799
0.5020001,0.01821013
0.5010001,0.01784228
0.5000001,0.01744376
0.4990001,0.01707591
0.4980001,0.0167387
0.4970001,0.01637085
0.4960001,0.01600299
0.4950001,0.01563513
0.4940001,0.01526727
0.4930001,0.01493007
0.4920001,0.01453156
0.4910001,0.01419435
0.4900001,0.01385715
0.4890001,0.01348929
0.4880001,0.01318274
0.4870001,0.01231109
0.4860001,0.01198309
0.4850001,0.01165815
0.4840001,0.01131788
0.4830001,0.01099907
0.4820001,0.01067413
0.4810001,0.01035225
0.4800001,0.01003651
0.4790001,0.009717696
0.4780001,0.009414214
0.4770001,0.0091046
0.4760001,0.008798052
0.4750001,0.008503765
0.4740001,0.008203348
0.4730001,0.007909061
0.4720001,0.007627037
0.4710001,0.007332751
0.4700001,0.007056858
0.4690001,0.006774833
0.4680001,0.00649894
0.4670001,0.006232243
0.4660001,0.00596248
0.4650001,0.005701914
0.4640001,0.005444414
0.4630001,0.005186913
0.4620001,0.00494474
0.4610001,0.004693371
0.4600001,0.004451197
0.4590001,0.004221286
0.4580001,0.003985244
0.4570001,0.003761464
0.4560001,0.003540749
0.4550001,0.003316969
0.4540001,0.003108516
0.4530001,0.002896998
0.4520001,0.002694676
0.4510001,0.002498485
0.4500001,0.002302294
0.4490001,0.0021153
0.4480001,0.001931371
0.4470001,0.001750507
0.4460001,0.00157884
0.4450001,0.001407173
0.4440001,0.001244703
0.4430001,0.001053618
0.4420001,0.0008960523
0.4410001,0.0007467633
0.4400001,0.0006026856
0.4390001,0.0004595275
0.4380001,0.0003267921
0.4370001,0.0001940567
0.4360001,6.653265E-05
0.4350001,-5.530014E-05
0.4340001,-0.000173781
0.4330001,-0.0002861003
0.4320001,-0.0003923701
0.4310001,-0.0004990489
0.4300001,-0.0005971444
0.4290001,-0.0006937071
0.4280001,-0.0007868978
0.4270001,-0.0008724247
0.4260001,-0.0009591779
0.4250001,-0.001038267
0.4240001,-0.001113985
0.4230001,-0.001191541
0.4220001,-0.001259902
0.4210001,-0.001326423
0.4200001,-0.001392637
0.4190001,-0.001448736
0.4180001,-0.001507899
0.4170001,-0.001563998
0.4160001,-0.001613659
0.4150001,-0.001666998
0.4140001,-0.00171298
0.4130001,-0.001756817
0.4120001,-0.00180096
0.4110001,-0.001838972
0.4100001,-0.001884954
0.4090001,-0.001927564
0.4080001,-0.001957299
0.4070001,-0.001992246
0.4060001,-0.002018302
0.4050001,-0.002047731
0.4040001,-0.002078386
0.4030001,-0.00210107
0.4020001,-0.002128353
0.4010001,-0.002152877
0.4000001,-0.002172189
0.3990001,-0.00219702
0.3980001,-0.002216332
0.3970001,-0.002239323
0.3960001,-0.002259249
0.3950001,-0.002274577
0.3940001,-0.002296341
0.3930001,-0.002312282
0.3920001,-0.00232669
0.3910001,-0.002349068
0.3900001,-0.002362249
0.3890001,-0.00237819
0.3880001,-0.002395663
0.3870001,-0.002407006
0.3860001,-0.002422333
0.3850001,-0.002437047
0.3840001,-0.002448389
0.3830001,-0.002464636
0.3820001,-0.002476285
0.3810001,-0.002493145
0.3800001,-0.002507247
0.3790001,-0.002518896
0.3780001,-0.002537595
0.3770001,-0.002549857
0.3760001,-0.002562119
0.3750001,-0.002580512
0.3740001,-0.002591241
0.3730001,-0.002605649
0.3720001,-0.002622202
0.3710001,-0.002637836
0.3700001,-0.002652857
0.3690001,-0.002667878
0.3680001,-0.002684125
0.3670001,-0.002701292
0.3660001,-0.002716313
0.3650001,-0.002737464
0.3640001,-0.002754018
0.3630001,-0.002770572
0.3620001,-0.00279295
0.3610001,-0.002810729
0.3600001,-0.002829429
0.3590001,-0.002853646
0.3580001,-0.002876637
0.3570001,-0.002897483
0.3560001,-0.002921087
0.3550001,-0.002945304
0.3540001,-0.002969215
0.3530001,-0.002994352
0.3520001,-0.003022861
0.3510001,-0.003016318
0.3500001,-0.003040842
0.3490001,-0.003071497
0.3480001,-0.003102152
0.3470001,-0.003132806
0.3460001,-0.003169592
0.3450001,-0.003206378
0.3440001,-0.003233967
0.3430001,-0.003276884
0.3420001,-0.00331367
0.3410001,-0.003350456
0.3400001,-0.003396438
0.3390001,-0.003439354
0.3380001,-0.003482271
0.3370001,-0.003528254
0.3360001,-0.003574236
0.3350001,-0.003626349
0.3340001,-0.003675397
0.3330001,-0.003724444
0.3320001,-0.003782689
0.3310001,-0.003834802
0.3300001,-0.003893046
0.3290001,-0.003954356
0.3280001,-0.004009534
0.3270001,-0.00408004
0.3260001,-0.004147481
0.3250001,-0.004211857
0.3240001,-0.004282362
0.3230001,-0.004352869
0.3220001,-0.004423374
0.3210001,-0.004500012
0.3200001,-0.004579714
0.3190001,-0.004662482
0.3180001,-0.004739119
0.3170001,-0.004828018
0.3160001,-0.004916917
0.3150001,-0.004999685
0.3140001,-0.005094715
0.3130001,-0.005189745
0.3120001,-0.00528171
0.3110001,-0.005385936
0.3100001,-0.005487097
0.3090001,-0.005588258
0.3080001,-0.005698615
0.3070001,-0.005818169
0.3060001,-0.005931592
0.3050001,-0.006041949
0.3040001,-0.006158438
0.3030001,-0.006284122
0.3020001,-0.006397545
0.3010001,-0.006526296
0.3000001,-0.006655046
0.2990001,-0.006783796
0.2980001,-0.006921743
0.2970001,-0.007056624
0.2960001,-0.007194571
0.2950001,-0.007344779
0.2940001,-0.007485792
0.2930001,-0.007632935
0.2920001,-0.007783143
0.2910001,-0.007933352
0.2900001,-0.008092757
0.2890001,-0.008249097
0.2880001,-0.008408502
0.2870001,-0.008580169
0.2860001,-0.008742639
0.2850001,-0.008914307
0.2840001,-0.009089039
0.2830001,-0.009257641
0.2820001,-0.009435439
0.2810001,-0.009616302
0.2800001,-0.009797165
0.2790001,-0.009987226
0.2780001,-0.01017422
0.2770001,-0.01035815
0.2760001,-0.01056047
0.2750001,-0.01075053
0.2740001,-0.01094672
0.2730001,-0.01115518
0.2720001,-0.01135137
0.2710001,-0.01156288
0.2700001,-0.01176827
0.2690001,-0.01197672
0.2680001,-0.01219437
0.2670001,-0.01240283
0.2660001,-0.01262354
0.2650001,-0.01284119
0.2640001,-0.01305577
0.2630001,-0.01328875
0.2620001,-0.01351253
0.2610001,-0.01373938
0.2600001,-0.01398155
0.2590001,-0.01420533
0.2580001,-0.0144475
0.2570001,-0.01468661
0.2560001,-0.01492265
0.2550001,-0.01517096
0.2540001,-0.01541006
0.2530001,-0.01565224
0.2520001,-0.01590974
0.2510001,-0.01615498
0.2500001,-0.01641554
0.2490001,-0.01667611
0.2480001,-0.01692441
0.2470001,-0.01719111
0.2460001,-0.01745168
0.2450001,-0.01770918
0.2440001,-0.017982
0.2430001,-0.01825483
0.2420001,-0.01852153
0.2410001,-0.01879436
0.2400001,-0.01906718
0.2390001,-0.01934308
0.2380001,-0.0196251
0.2370001,-0.019901
0.2360001,-0.02018915
0.2350001,-0.02047731
0.2340001,-0.02075627
0.2330001,-0.02103829
0.2320001,-0.02131112
0.2310001,-0.02160234
0.2300001,-0.02189356
0.2290001,-0.02218478
0.2280001,-0.02249439
0.2270001,-0.02279481
0.2260001,-0.02309216
0.2250001,-0.02341097
0.2240001,-0.02370526
0.2230001,-0.02401487
0.2220001,-0.02433675
0.2210001,-0.02462797
0.2200001,-0.02494984
0.2190001,-0.02526253
0.2180001,-0.02555988
0.2170001,-0.02588175
0.2160001,-0.02618217
0.2150001,-0.02648872
0.2140001,-0.0267922
0.2130001,-0.02709568
0.2120001,-0.02741449
0.2110001,-0.02770571
0.2100001,-0.02801533
0.2090001,-0.02832801
0.2080001,-0.0285947
0.2070001,-0.02890738
0.2060001,-0.02918941
0.2050001,-0.02946224
0.2040001,-0.02975346
0.2030001,-0.03001709
0.2020001,-0.03027765
0.2010001,-0.03065366
0.2000001,-0.03086824
0.1990001,-0.03111348
0.1980001,-0.03135872
0.1970001,-0.03160396
0.1960001,-0.03181854
0.1950001,-0.03203313
0.1940001,-0.03224771
0.1930001,-0.03243164
0.1920001,-0.03261557
0.1910001,-0.0327995
0.1900001,-0.03298343
0.1890001,-0.03310604
0.1880001,-0.03325932
0.1870001,-0.03338194
0.1860001,-0.03347391
0.1850001,-0.03356587
0.1840001,-0.03365783
0.1830001,-0.03371914
0.1820001,-0.0337498
0.1810001,-0.0337498
0.1800001,-0.03378045
0.1790001,-0.03371914
0.1780001,-0.03365783
0.1770001,-0.03359652
0.1760001,-0.03341259
0.1750001,-0.03325932
0.1740001,-0.03301408
0.1730001,-0.03264622
0.1720001,-0.03227837
0.1710001,-0.03181854
0.1700001,-0.03120545
0.1690001,-0.03056169
0.1680001,-0.02982598
0.1670001,-0.02896764
0.1660001,-0.02807865
0.1650001,-0.02703639
0.1640001,-0.02599413
0.1630001,-0.0248599
0.1620001,-0.02369501
0.1610001,-0.02253013
0.1600001,-0.02133459
0.1590001,-0.02013905
0.1580001,-0.01897417
0.1570001,-0.0178706
0.1560001,-0.01682833
0.1550001,-0.01581672
0.1540001,-0.01501155
0.1530001,-0.01412869
0.1520001,-0.01331021
0.1510001,-0.01262661
0.1500001,-0.01196753
0.1490001,-0.01134523
0.1480001,-0.01085782
0.1470001,-0.01034282
0.1460001,-0.009846213
0.1450001,-0.00947529
0.1440001,-0.009079843
0.1430001,-0.008699723
0.1420001,-0.008439157
0.1410001,-0.00813874
0.1400001,-0.007875108
0.1390001,-0.007681982
0.1380001,-0.007449006
0.1370001,-0.007277339
0.1360001,-0.007108737
0.1350001,-0.006949332
0.1340001,-0.006817516
0.1330001,-0.006655046
0.1320001,-0.006526296
0.1310001,-0.006406742
0.1300001,-0.00626573
0.1290001,-0.006170699
0.1280001,-0.006032753
0.1270001,-0.005940788
0.1260001,-0.005861086
0.1250001,-0.005723139
0.1240001,-0.005671026
0.1230001,-0.00557293
0.1220001,-0.005462573
0.1210001,-0.005398198
0.1200001,-0.005306234
0.1190001,-0.0052204
0.1180001,-0.005140697
0.1170001,-0.00505793
0.1160001,-0.004984358
0.1150001,-0.00490159
0.1140001,-0.004831084
0.1130001,-0.004751381
0.1120001,-0.00465022
0.1110001,-0.004558256
0.1100001,-0.004454029
0.1090001,-0.004340607
0.1080001,-0.004257839
0.1070001,-0.004162808
0.1060001,-0.004073909
0.1050001,-0.003997272
0.1040001,-0.003908373
0.1030001,-0.003828671
0.1020001,-0.003758165
0.1010001,-0.003672331
0.1000001,-0.003589563
0.0990001,-0.00347614
0.09800009,-0.003368848
0.09700009,-0.003292212
0.0960001,-0.00321864
0.0950001,-0.003151199
0.09400009,-0.003089889
0.0930001,-0.00302858
0.0920001,-0.002955008
0.0910001,-0.002881437
0.09000009,-0.002786407
0.0890001,-0.002688312
0.0880001,-0.002608609
0.08700009,-0.002541168
0.08600009,-0.002479859
0.0850001,-0.002421614
0.0840001,-0.002366436
0.08300009,-0.002314323
0.08200009,-0.002259144
0.0810001,-0.002213162
0.0800001,-0.002167179
0.07900009,-0.002121197
0.0780001,-0.002072149
0.0770001,-0.002023102
0.07600009,-0.00197712
0.07500009,-0.001934203
0.0740001,-0.001900482
0.0730001,-0.001866762
0.07200009,-0.001836107
0.07100009,-0.001808518
0.0700001,-0.001780929
0.0690001,-0.00175947
0.06800009,-0.001734946
0.0670001,-0.001713488
0.0660001,-0.00169203
0.06500009,-0.001670571
0.06400009,-0.001649113
0.0630001,-0.00163072
0.0620001,-0.001612327
0.06100009,-0.001632664
0.0600001,-0.001615498
0.0590001,-0.001598638
0.0580001,-0.001582697
0.0570001,-0.001566757
0.05600009,-0.001551429
0.0550001,-0.001537021
0.05400009,-0.001522307
0.0530001,-0.001508512
0.05200009,-0.001494411
0.0510001,-0.001480617
0.05000009,-0.001467742
0.0490001,-0.00145456
0.04800009,-0.001441685
0.0470001,-0.001429423
0.0460001,-0.001417161
0.04500009,-0.001405206
0.0440001,-0.001393863
0.04300009,-0.001381908
0.0420001,-0.001370566
0.04100009,-0.001359837
0.0400001,-0.001348801
0.03900009,-0.001338378
0.0380001,-0.001327649
0.03700009,-0.001317226
0.0360001,-0.00130711
0.0350001,-0.001296994
0.03400009,-0.001287185
0.0330001,-0.001277682
0.03200009,-0.001268179
0.03100009,-0.001258982
0.0300001,-0.001250092
0.0290001,-0.001240896
0.0280001,-0.001232006
0.0270001,-0.001223423
0.0260001,-0.001214839
0.0250001,-0.001206562
0.0240001,-0.001197979
0.0230001,-0.001190009
0.02200009,-0.001181732
0.02100009,-0.001174068
0.02000009,-0.001166098
0.0190001,-0.001157821
0.0180001,-0.001150771
0.0170001,-0.001143107
0.0160001,-0.001135443
0.0150001,-0.001128393
0.0140001,-0.001121035
0.0130001,-0.001113985
0.0120001,-0.001107241
0.01100009,-0.001099884
0.0100001,-0.001093446
0.009000096,-0.001087009
0.008000095,-0.001080264
0.007000095,-0.001073827
0.006000096,-0.001067389
0.005000095,-0.001060952
0.004000095,-0.001054821
0.003000095,-0.001048384
0.002000095,-0.001042559
0.001000095,-0.001036122
9.536743E-08,-0.001022327
0.0009999046,-0.0009990291
0.001999905,-0.0009778773
0.002999905,-0.0009591779
0.003999905,-0.0009413981
0.004999904,-0.0009245379
0.005999905,-0.000908904
0.006999905,-0.0008938831
0.007999904,-0.0008797819
0.008999905,-0.0008662938
0.009999905,-0.0008531122
0.0109999,-0.0008408502
0.0119999,-0.0008285883
0.0129999,-0.000817246
0.0139999,-0.0008062103
0.0149999,-0.0007954811
0.0159999,-0.0007850585
0.0169999,-0.0007749424
0.0179999,-0.0007651328
0.0189999,-0.0007556298
0.0199999,-0.0007461268
0.0209999,-0.0007375435
0.0219999,-0.0007289601
0.02299991,-0.0007200702
0.02399991,-0.0007121
0.02499991,-0.0007038232
0.02599991,-0.0006961594
0.0269999,-0.0006884958
0.0279999,-0.0006808321
0.0289999,-0.0006734749
0.0299999,-0.0006664242
0.0309999,-0.0006593736
0.0319999,-0.0006526296
0.0329999,-0.0006458855
0.0339999,-0.0006391415
0.0349999,-0.000632704
0.03599991,-0.0006259599
0.0369999,-0.0006198289
0.03799991,-0.000613698
0.0389999,-0.000607567
0.03999991,-0.0006017426
0.0409999,-0.0005959182
0.04199991,-0.0005900938
0.0429999,-0.0005845759
0.0439999,-0.000579058
0.0449999,-0.0005738467
0.0459999,-0.0005683288
0.04699991,-0.0005631176
0.0479999,-0.0005579062
0.04899991,-0.0005526949
0.0499999,-0.0005474835
0.05099991,-0.0005425788
0.0519999,-0.000537674
0.05299991,-0.0005330758
0.0539999,-0.000528171
0.0549999,-0.0005235728
0.0559999,-0.0005189746
0.0569999,-0.0005143763
0.05799991,-0.0005097781
0.0589999,-0.0005054864
0.05999991,-0.0005008882
0.0609999,-0.0004965966
0.06199991,-0.0004926114
0.0629999,-0.0004883197
0.06399991,-0.0004840281
0.06499991,-0.0004800429
0.0659999,-0.0004757512
0.0669999,-0.0004720727
0.06799991,-0.0004680876
0.0689999,-0.0004641024
0.0699999,-0.0004604238
0.07099991,-0.0004564387
0.07199991,-0.0004527601
0.0729999,-0.0004490816
0.0739999,-0.000445403
0.07499991,-0.0004420309
0.07599991,-0.0004383524
0.0769999,-0.0004349803
0.0779999,-0.0004313017
0.07899991,-0.0004279297
0.0799999,-0.0004245577
0.0809999,-0.0004208791
0.08199991,-0.0004175071
0.08299991,-0.0004141351
0.0839999,-0.0004110696
0.0849999,-0.0004076975
0.08599991,-0.000404632
0.08699991,-0.00040126
0.0879999,-0.0003981945
0.0889999,-0.0003951291
0.08999991,-0.0003920636
0.0909999,-0.0003886915
0.0919999,-0.0003856261
0.09299991,-0.0003828671
0.09399991,-0.0003798016
0.0949999,-0.0003767362
0.0959999,-0.0003739772
0.09699991,-0.0003709117
0.09799991,-0.0003681528
0.0989999,-0.0003653939
0.0999999,-0.0003623284
0.1009999,-0.0003595694
0.1019999,-0.0003568105
0.1029999,-0.0003540516
0.1039999,-0.0003512927
0.1049999,-0.0003485337
0.1059999,-0.0003460813
0.1069999,-0.0003433224
0.1079999,-0.0003405634
0.1089999,-0.0003378045
0.1099999,-0.0003353521
0.1109999,-0.0003325932
0.1119999,-0.0003301408
0.1129999,-0.0003276884
0.1139999,-0.000325236
0.1149999,-0.0003227837
0.1159999,-0.0003203313
0.1169999,-0.0003178789
0.1179999,-0.0003154265
0.1189999,-0.0003129741
0.1199999,-0.0003105217
0.1209999,-0.0003080693
0.1219999,-0.000305617
0.1229999,-0.0003034711
0.1239999,-0.0003010187
0.1249999,-0.0002985664
0.1259999,-0.0002964205
0.1269999,-0.0002939681
0.1279999,-0.0002918223
0.1289999,-0.000289983
0.1299999,-0.0002875306
0.1309999,-0.0002853848
0.1319999,-0.0002829324
0.1329999,-0.0002807866
0.1339999,-0.0002786407
0.1349999,-0.0002764949
0.1359999,-0.000274349
0.1369999,-0.0002722032
0.1379999,-0.0002700574
0.1389999,-0.0002679115
0.1399999,-0.0002657657
0.1409999,-0.0002636198
0.1419999,-0.0002617805
0.1429999,-0.0002596347
0.1439999,-0.0002574889
0.1449999,-0.000255343
0.1459999,-0.0002535038
0.1469999,-0.0002513579
0.1479999,-0.0002492121
0.1489999,-0.0002470662
0.1499999,-0.0002449204
0.1509999,-0.0002430811
0.1519999,-0.0002409353
0.1529999,-0.0002387894
0.1539999,-0.0002369501
0.1549999,-0.0002351108
0.1559999,-0.000232965
0.1569999,-0.0002311257
0.1579999,-0.0002292864
0.1589999,-0.0002271406
0.1599999,-0.0002253013
0.1609999,-0.000223462
0.1619999,-0.0002213162
0.1629999,-0.0002194769
0.1639999,-0.0002176376
0.1649999,-0.0002157983
0.1659999,-0.0002136525
0.1669999,-0.0002118132
0.1679999,-0.0002099739
0.1689999,-0.0002078281
0.1699999,-0.0002059888
0.1709999,-0.0002038429
0.1719999,-0.0002020036
0.1729999,-0.0002001643
0.1739999,-0.0001983251
0.1749999,-0.0001961792
0.1759999,-0.0001943399
0.1769999,-0.0001921941
0.1779999,-0.0001906613
0.1789999,-0.0001885155
0.1799999,-0.0001866762
0.1809999,-0.0001848369
0.1819999,-0.0001826911
0.1829999,-0.0001808518
0.1839999,-0.000178706
0.1849999,-0.0001768667
0.1859999,-0.0001747208
0.1869999,-0.0001728816
0.1879999,-0.0001707357
0.1889999,-0.0001685899
0.1899999,-0.0001667506
0.1909999,-0.0001646047
0.1919999,-0.0001624589
0.1929999,-0.0001606196
0.1939999,-0.000161887
0.1949999,-0.0001598331
0.1959999,-0.0001577486
0.1969999,-0.0001557254
0.1979999,-0.0001536408
0.1989999,-0.0001514337
0.1999999,-0.0001493491
0.2009999,-0.0001471113
0.2019999,-0.0001448429
0.2029999,-0.0001426664
0.2039999,-0.0001402753
0.2049999,-0.0001378842
0.2059999,-0.0001355851
0.2069999,-0.0001332554
0.2079999,-0.0001309256
0.2089999,-0.0001285652
0.2099999,-0.0001261434
0.2109999,-0.0001237524
0.2119999,-0.0001212693
0.2129999,-0.0001187863
0.2139999,-0.0001161806
0.2149999,-0.0001135137
0.2159999,-0.000110908
0.2169999,-0.0001081491
0.2179999,-0.0001053901
0.2189999,-0.0001026925
0.2199999,-9.987225E-05
0.2209999,-9.705201E-05
0.2219999,-9.423176E-05
0.2229999,-9.122759E-05
0.2239999,-8.819276E-05
0.2249999,-8.503532E-05
0.2259999,-8.181656E-05
0.2269999,-7.865911E-05
0.2279999,-7.528708E-05
0.2289999,-7.216029E-05
0.2299999,-6.878826E-05
0.2309999,-6.52323E-05
0.2319999,-6.1707E-05
0.2329999,-5.793645E-05
0.2339999,-5.416591E-05
0.2349999,-5.051799E-05
0.2359999,-4.65022E-05
0.2369999,-4.254773E-05
0.2379999,-3.853195E-05
0.2389999,-3.433224E-05
0.2399999,-3.007122E-05
0.2409999,-2.55343E-05
0.2419999,-2.090542E-05
0.2429999,-1.624589E-05
0.2439999,-1.134112E-05
0.2449999,-6.467001E-06
0.2459999,-1.523428E-06
0.2469999,3.644975E-06
0.2479999,8.81951E-06
0.2489999,1.437416E-05
0.2499999,2.015873E-05
0.2509999,2.59658E-05
0.2519999,3.212742E-05
0.2529999,3.822774E-05
0.2539999,4.460394E-05
0.2549999,5.1348E-05
0.2559999,5.809206E-05
0.2569999,6.511201E-05
0.2579999,7.23159E-05
0.2589999,7.96424E-05
0.2599999,8.764331E-05
0.2609999,9.542964E-05
0.2619999,0.0001037371
0.2629999,0.000112535
0.2639999,0.000121241
0.2649999,0.0001306214
0.2659999,0.0001405842
0.2669999,0.0001502405
0.2679999,0.000160939
0.2689999,0.0001719441
0.2699999,0.0001832864
0.2709999,0.0001953031
0.2719999,0.0002076876
0.2729999,0.0002210225
0.2739999,0.0002349704
0.2749999,0.0002496541
0.2759999,0.0002655333
0.2769999,0.0002816577
0.2779999,0.000299039
0.2789999,0.0003215808
0.2799999,0.0003405868
0.2809999,0.0003620452
0.2819999,0.0003850363
0.2829999,0.0004095602
0.2839999,0.000436843
0.2849999,0.0004662716
0.2859999,0.0004984592
0.2869999,0.0005340188
0.2879999,0.0005735635
0.2889999,0.000618013
0.2899999,0.0006673672
0.2909999,0.0007228525
0.2919999,0.0007869211
0.2929999,0.0008586534
0.2939999,0.0009420345
0.2949999,0.001038291
0.2959999,0.001148035
0.2969999,0.001275865
0.2979999,0.001423315
0.2989999,0.001591304
0.2999999,0.001785042
0.3009999,0.002003305
0.3019999,0.002249156
0.3029999,0.002519839
0.3039999,0.002814432
0.3049999,0.003133548
0.3059999,0.003497832
0.3069999,0.003850363
0.3079999,0.004221286
0.3089999,0.004595275
0.3099999,0.004981526
0.3109999,0.005370842
0.3119999,0.005766289
0.3129999,0.006170933
0.3139999,0.006572511
0.3149999,0.006974089
0.3159999,0.007384864
0.3169999,0.007786443
0.3179999,0.008191085
0.3189999,0.00859573
0.3199999,0.008994242
0.3209999,0.009395821
0.3219999,0.009788202
0.3229999,0.01017445
0.3239999,0.01056683
0.3249999,0.01094389
0.3259999,0.01132094
0.3269999,0.011698
0.3279999,0.01206279
0.3289999,0.01243371
0.3299999,0.01279851
0.3309999,0.0131541
0.3319999,0.01351276
0.3329999,0.01386529
0.3339999,0.01421476
0.3349999,0.01456729
0.3359999,0.01491062
0.3369999,0.01525396
0.3379999,0.01559729
0.3389999,0.01593756
0.3399999,0.01627783
0.3409999,0.01661503
0.3419999,0.01695837
0.3429999,0.01728944
0.3439999,0.01762358
0.3449999,0.01797304
0.3459999,0.01830105
0.3469999,0.01863212
0.3479999,0.01897852
0.3489999,0.01930039
0.3499999,0.01963147
0.3509999,0.01997787
0.3519999,0.02030281
0.3529999,0.02063388
0.3539999,0.02098028
0.3549999,0.02130216
0.3559999,0.02163936
0.3569999,0.02197963
0.3579999,0.0223107
0.3589999,0.0226479
0.3599999,0.02298817
0.3609999,0.02332231
0.3619999,0.02365951
0.3629999,0.02399058
0.3639999,0.02432779
0.3649999,0.02467112
0.3659999,0.02499913
0.3669999,0.02533939
0.3679999,0.0256766
0.3689999,0.02600767
0.3699999,0.02634487
0.3709999,0.02667901
0.3719999,0.02701928
0.3729999,0.02735035
0.3739999,0.02768142
0.3749999,0.02801863
0.3759999,0.02832824
0.3769999,0.02866544
0.3779999,0.02899652
0.3789999,0.02930613
0.3799999,0.0296464
0.3809999,0.02995601
0.3819999,0.03102385
0.3829999,0.03136105
0.3839999,0.03163695
0.3849999,0.03197415
0.3859999,0.0322807
0.3869999,0.03258725
0.3879999,0.0328938
0.3889999,0.03320035
0.3899999,0.03347624
0.3909999,0.03378279
0.3919999,0.03408933
0.3929999,0.03436523
0.3939999,0.03464112
0.3949999,0.03491702
0.3959999,0.03522356
0.3969999,0.03549946
0.3979999,0.03577535
0.3989999,0.03605124
0.3999999,0.03629648
0.4009999,0.03654172
0.4019999,0.03681761
0.4029999,0.03706285
0.4039999,0.03727744
0.4049999,0.03755333
0.4059999,0.03776791
0.4069999,0.0379825
0.4079999,0.03819708
0.4089999,0.03841167
0.4099999,0.03859559
0.4109999,0.03877952
0.4119999,0.03896345
0.4129999,0.03911673
0.4139999,0.03930065
0.4149999,0.03945393
0.4159999,0.03957655
0.4169999,0.03966851
0.4179999,0.03979113
0.4189999,0.03985244
0.4199999,0.03994441
0.4209999,0.04000572
0.4219999,0.04000572
0.4229999,0.04003637
0.4239999,0.04003637
0.4249999,0.03997506
0.4259999,0.0398831
0.4269999,0.03976048
0.4279999,0.03963786
0.4289999,0.03945393
0.4299999,0.03920869
0.4309999,0.0389328
0.4319999,0.03859559
0.4329999,0.03819708
0.4339999,0.03770661
0.4349999,0.03712416
0.4359999,0.03648041
0.4369999,0.03571404
0.4379999,0.03482505
0.4389999,0.03384409
0.4399999,0.03270987
0.4409999,0.03142237
0.4419999,0.03007355
0.4429999,0.02857147
0.4439999,0.02700807
0.4449999,0.02544468
0.4459999,0.02388128
0.4469999,0.02234854
0.4479999,0.02090776
0.4489999,0.0195896
0.4499999,0.01836341
0.4509999,0.01725983
0.4519999,0.01627888
0.4529999,0.01542055
0.4539999,0.01462352
0.4549999,0.01394911
0.4559999,0.01336667
0.4569999,0.01284554
0.4579999,0.01195856
0.4589999,0.01160603
0.4599999,0.01132094
0.4609999,0.01110636
0.4619999,0.01092243
0.4629999,0.01079675
0.4639999,0.01071091
0.4649999,0.01065573
0.4659999,0.01063734
0.4669999,0.01064654
0.4679999,0.01067719
0.4689999,0.01073544
0.4699999,0.01082127
0.4709999,0.01091017
0.4719999,0.01102666
0.4729999,0.01116767
0.4739999,0.01130562
0.4749999,0.01146809
0.4759999,0.01164588
0.4769999,0.01182368
0.4779999,0.01201987
0.4789999,0.01222526
0.4799999,0.01243984
0.4809999,0.01266669
0.4819999,0.01289967
0.4829999,0.01314184
0.4839999,0.01339627
0.4849999,0.01364764
0.4859999,0.01391434
0.4869999,0.01418717
0.4879999,0.01445387
0.4889999,0.01474509
0.4899999,0.01503324
0.4909999,0.0153214
0.4919999,0.01563408
0.4929999,0.0159345
0.4939999,0.01624411
0.4949999,0.01656292
0.4959999,0.01687253
0.4969999,0.0172036
0.4979999,0.01752855
0.4989999,0.01785655
0.4999999,0.01819989
0.5009999,0.01854016
0.5019999,0.01888349
0.5029999,0.01923295
0.5039999,0.01957935
0.5049999,0.01993495
0.5059999,0.02029974
0.5069999,0.02064921
0.5079999,0.0210232
0.5089999,0.02138186
0.5099999,0.02174971
0.5109999,0.02212984
0.5119999,0.02250382
0.5129999,0.02288088
0.5139999,0.02325793
0.5149999,0.02364418
0.5159999,0.0240335
0.5169999,0.02441056
0.5179999,0.024806
0.5189999,0.02520452
0.5199999,0.02558463
0.5209999,0.02598621
0.5219999,0.02637859
0.5229999,0.02677404
0.5239999,0.02717868
0.5249999,0.0275772
0.5259999,0.02799104
0.5269999,0.02838955
0.5279999,0.0287942
0.5289999,0.02921723
0.5299999,0.02961881
0.5309999,0.03002652
0.5319999,0.03120778
0.5329999,0.03160629
0.5339999,0.03203546
0.5349999,0.03246463
0.5359999,0.03286314
0.5369999,0.03329231
0.5379999,0.03372148
0.5389999,0.03415065
0.5399999,0.03457981
0.5409999,0.03500898
0.5419999,0.03543815
0.5429999,0.03586731
0.5439999,0.03629648
0.5449999,0.03672565
0.5459999,0.03718547
0.5469999,0.03761464
0.5479999,0.03804381
0.5489999,0.03850363
0.5499999,0.0389328
0.5509999,0.03939262
0.5519999,0.03982178
0.5529999,0.04028161
0.5539999,0.04071078
0.5549999,0.04113995
0.5559999,0.04159977
0.5569999,0.04205959
0.5579999,0.04251941
0.5589999,0.04297924
0.5599999,0.0434084
0.5609999,0.04386823
0.5619999,0.04432805
0.5629999,0.04475721
0.5639999,0.04521704
0.5649999,0.04567686
0.5659999,0.04613668
0.5669999,0.0465965
0.5679999,0.04705633
0.5689999,0.04748549
0.5699999,0.04797597
0.5709999,0.04843579
0.5719999,0.04886496
0.5729999,0.04935544
0.5739999,0.0497846
0.5749999,0.05021377
0.5759999,0.05070425
0.5769999,0.05116407
0.5779999,0.05162389
0.5789999,0.05208372
0.5799999,0.05254354
0.5809999,0.05300336
0.5819999,0.05349384
0.5829999,0.05398431
0.5839999,0.05441349
0.5849999,0.05487331
0.5859999,0.05536379
0.5869999,0.05582361
0.5879999,0.05628343
0.5889999,0.05677391
0.5899999,0.05720307
0.5909999,0.05769355
0.5919999,0.05815337
0.5929999,0.05861319
0.5939999,0.05910368
0.5949999,0.0595635
0.5959999,0.06002332
0.5969999,0.06051379
0.5979999,0.06097361
0.5989999,0.0614641
0.5999999,0.06192392
0.6009999,0.06238374
0.6019999,0.06290487
0.6029999,0.06333404
0.6039999,0.06382452
0.6049999,0.06434565
0.6059999,0.06477482
0.6069999,0.06529595
0.6079999,0.06572511
0.6089999,0.06618494
0.6099999,0.06667542
0.6109999,0.0671659
0.6119999,0.06765637
0.6129999,0.06808554
0.6139999,0.06860667
0.6149999,0.06909715
0.6159999,0.06955697
0.6169999,0.0700781
0.6179999,0.07050727
0.6189999,0.07099774
0.6199999,0.07148822
0.6209999,0.07194804
0.6219999,0.07243852
0.6229999,0.072929
0.6239999,0.07338882
0.6249999,0.07390995
0.6259999,0.07433912
0.6269999,0.0748296
0.6279999,0.07535073
0.6289999,0.0757799
0.6299999,0.07630103
0.6309999,0.07676085
0.6319999,0.07725133
0.6329999,0.07774181
0.6339999,0.07820163
0.6349999,0.07875342
0.6359999,0.07921324
0.6369999,0.07967306
0.6379999,0.0801942
0.6389999,0.08062336
0.6399999,0.08117515
0.6409999,0.08163497
0.6419999,0.0820948
0.6429999,0.08261593
0.6439999,0.08307575
0.6449999,0.08353557
0.6459999,0.08402605
0.6469999,0.08451653
0.6479999,0.085007
0.6489999,0.08549748
0.6499999,0.08598796
0.6509999,0.08650909
0.6519999,0.08693825
0.6529999,0.08745939
0.6539999,0.08798052
0.6549999,0.08840968
0.6559999,0.08890016
0.6569999,0.08942129
0.6579999,0.08988111
0.6589999,0.0903716
0.6599999,0.09089272
0.6609999,0.09135254
0.6619999,0.09187368
0.6629999,0.0923335
0.6639999,0.09282398
0.6649999,0.09331446
0.6659999,0.09380494
0.6669999,0.09432607
0.6679999,0.09481654
0.6689999,0.09530702
0.6699999,0.09582815
0.6709999,0.09628798
0.6719999,0.09677845
0.6729999,0.09726893
0.6739999,0.09772875
0.6749999,0.09821923
0.6759999,0.09874036
0.6769999,0.09920018
0.6779999,0.09972132
0.6789999,0.1002118
0.6799999,0.1007023
0.6809999,0.1011927
0.6819999,0.1017139
0.6829999,0.1022043
0.6839999,0.1026948
0.6849999,0.103216
0.6859999,0.1037064
0.6869999,0.1041969
0.6879999,0.1046874
0.6889999,0.1051472
0.6899999,0.1056683
0.6909999,0.1061282
0.6919999,0.1066493
0.6929999,0.1071704
0.6939999,0.1076303
0.6949999,0.108182
0.6959999,0.1086725
0.6969999,0.1091017
0.6979999,0.1096535
0.6989999,0.110144
0.6999999,0.1102666
0.6990002,0.1097761
0.6980002,0.109255
0.6970002,0.1087951
0.6960002,0.108274
0.6950002,0.1077835
0.6940002,0.1073544
0.6930002,0.1068026
0.6920002,0.1063428
0.6910002,0.1058829
0.6900002,0.1053311
0.6890002,0.1048713
0.6880002,0.1043808
0.6870002,0.1038904
0.6860002,0.1033999
0.6850002,0.1028788
0.6840002,0.1024496
0.6830002,0.1019285
0.6820002,0.101438
0.6810002,0.1010088
0.6800002,0.1004264
0.6790002,0.09996656
0.6780002,0.09950673
0.6770002,0.0989856
0.6760002,0.09852578
0.6750002,0.09800465
0.6740002,0.09751417
0.6730002,0.09705435
0.6720002,0.09656387
0.6710002,0.09610405
0.6700002,0.09561357
0.6690002,0.09509244
0.6680002,0.09463262
0.6670002,0.09414214
0.6660002,0.09362101
0.6650002,0.09319184
0.6640002,0.09267071
0.6630002,0.09214958
0.6620002,0.09172041
0.6610002,0.09122993
0.6600002,0.0907088
0.6590002,0.09027963
0.6580002,0.08981981
0.6570002,0.08926802
0.6560002,0.0888082
0.6550002,0.08834838
0.6540002,0.08779659
0.6530002,0.08736742
0.6520002,0.0869076
0.6510002,0.08638646
0.6500002,0.08592664
0.6490002,0.08543617
0.6480002,0.08491503
0.6470002,0.08445521
0.6460002,0.08393408
0.6450002,0.08347426
0.6440002,0.08298378
0.6430002,0.08249331
0.6420002,0.08206414
0.6410002,0.08154301
0.6400002,0.08111384
0.6390002,0.08062336
0.6380002,0.08013289
0.6370002,0.07967306
0.6360002,0.07918259
0.6350002,0.07869211
0.6340002,0.07820163
0.6330002,0.07771116
0.6320002,0.07725133
0.6310002,0.07676085
0.6300002,0.07630103
0.6290002,0.07581055
0.6280002,0.07532008
0.6270002,0.07486025
0.6260002,0.07436978
0.6250002,0.07387929
0.6240002,0.07341947
0.6230002,0.072929
0.6220002,0.07243852
0.6210002,0.0719787
0.6200002,0.07148822
0.6190002,0.0710284
0.6180002,0.07056858
0.6170002,0.0700781
0.6160002,0.06961828
0.6150002,0.06915846
0.6140002,0.06866798
0.6130002,0.06820816
0.6120002,0.06771768
0.6110002,0.06725786
0.6100002,0.06676738
0.6090002,0.06630756
0.6080002,0.06584774
0.6070002,0.06535726
0.6060002,0.06489744
0.6050002,0.06443761
0.6040002,0.06394713
0.6030002,0.06351797
0.6020002,0.06302749
0.6010002,0.06256767
0.6000002,0.06210784
0.5990002,0.06161737
0.5980002,0.06115754
0.5970002,0.06069772
0.5960002,0.06020725
0.5950002,0.05974742
0.5940002,0.0592876
0.5930002,0.05879712
0.5920002,0.05836796
0.5910002,0.05787748
0.5900002,0.05741766
0.5890002,0.05695784
0.5880002,0.05649801
0.5870002,0.05600753
0.5860002,0.05557837
0.5850002,0.05511854
0.5840002,0.05465872
0.5830002,0.0541989
0.5820002,0.05370842
0.5810002,0.0532486
0.5800002,0.05278878
0.5790002,0.05232896
0.5780002,0.05189979
0.5770002,0.05140931
0.5760002,0.05098015
0.5750002,0.05048966
0.5740002,0.0500605
0.5730002,0.04960068
0.5720002,0.04914085
0.5710002,0.04868103
0.5700002,0.04825186
0.5690002,0.04779204
0.5680002,0.04733222
0.5670002,0.04690305
0.5660002,0.04644323
0.5650002,0.04595275
0.5640002,0.04552358
0.5630002,0.04506376
0.5620002,0.04460394
0.5610002,0.04417477
0.5600002,0.04371495
0.5590002,0.04328578
0.5580002,0.04282596
0.5570002,0.04236614
0.5560002,0.04193697
0.5550002,0.04147715
0.5540002,0.04104798
0.5530002,0.04061881
0.5520002,0.04015899
0.5510002,0.03972982
0.5500002,0.03927
0.5490002,0.03884083
0.5480002,0.03838101
0.5470002,0.03795184
0.5460002,0.03752267
0.5450002,0.03706285
0.5440002,0.03663369
0.5430002,0.03620452
0.5420002,0.03577535
0.5410002,0.03534618
0.5400002,0.03488636
0.5390002,0.03445719
0.5380002,0.03402802
0.5370002,0.03362951
0.5360002,0.03320035
0.5350002,0.03274052
0.5340002,0.03231135
0.5330002,0.03191284
0.5320002,0.03148368
0.5310002,0.03105451
0.5300002,0.03062534
0.5290002,0.03019617
0.5280002,0.029767
0.5270002,0.02936849
0.5260002,0.02893933
0.5250002,0.02851016
0.5240002,0.02811164
0.5230002,0.02768247
0.5220002,0.02728396
0.5210002,0.0268548
0.5200002,0.02645628
0.5190002,0.02602712
0.5180002,0.0256286
0.5170002,0.02523009
0.5160002,0.02483158
0.5150002,0.02443307
0.5140002,0.02403455
0.5130002,0.02360538
0.5120002,0.02320687
0.5110002,0.02280836
0.5100002,0.02240985
0.5090002,0.02201133
0.5080002,0.02161282
0.5070002,0.02121431
0.5060002,0.0208158
0.5050002,0.02044794
0.5040002,0.02004942
0.5030002,0.01965091
0.5020002,0.01928305
0.5010002,0.0189152
0.5000002,0.01851668
0.4990002,0.01814882
0.4980002,0.01778097
0.4970002,0.01741311
0.4960002,0.01704525
0.4950002,0.01667739
0.4940002,0.01630954
0.4930002,0.01594168
0.4920002,0.01557382
0.4910002,0.01520596
0.4900002,0.0148381
0.4890002,0.01447024
0.4880002,0.01413304
0.4870002,0.01379584
0.4860002,0.01342798
0.4850002,0.01309078
0.4840002,0.01225592
0.4830002,0.01192178
0.4820002,0.01159377
0.4810002,0.01125963
0.4800002,0.01093469
0.4790002,0.01060975
0.4780002,0.01028788
0.4770002,0.009972132
0.4760002,0.009656386
0.4750002,0.009346773
0.4740002,0.009037159
0.4730002,0.008727546
0.4720002,0.008430193
0.4710002,0.008129776
0.4700002,0.00783549
0.4690002,0.007544269
0.4680002,0.007259179
0.4670002,0.006971024
0.4660002,0.006692065
0.4650002,0.006419237
0.4640002,0.006149475
0.4630002,0.005879712
0.4620002,0.00561608
0.4610002,0.005355515
0.4600002,0.005094949
0.4590002,0.00484971
0.4580002,0.004601406
0.4570002,0.004356168
0.4560002,0.004123191
0.4550002,0.003887149
0.4540002,0.003657237
0.4530002,0.003436523
0.4520002,0.003215808
0.4510002,0.003004289
0.4500002,0.002792771
0.4490002,0.002584318
0.4480002,0.002388128
0.4470002,0.002188871
0.4460002,0.002001877
0.4450002,0.001817948
0.4440002,0.001634019
0.4430002,0.001462352
0.4420002,0.001290685
0.4410002,0.001122083
0.4400002,0.0009328381
0.4390002,0.0007743526
0.4380002,0.0006262898
0.4370002,0.0004797597
0.4360002,0.0003359886
0.4350002,0.0002038663
0.4340002,7.021123E-05
0.4330002,-6.112456E-05
0.4320002,-0.0001801266
0.4310002,-0.0003011212
0.4300002,-0.0004113761
0.4290002,-0.0005211204
0.4280002,-0.0006284123
0.4270002,-0.000724975
0.4260002,-0.0008218443
0.4250002,-0.0009147284
0.4240002,-0.001001788
0.4230002,-0.001087622
0.4220002,-0.001167631
0.4210002,-0.001244881
0.4200002,-0.001318759
0.4190002,-0.001384974
0.4180002,-0.001454253
0.4170002,-0.001516483
0.4160002,-0.001575033
0.4150002,-0.001636343
0.4140002,-0.00168723
0.4130002,-0.00173873
0.4120002,-0.001790537
0.4110002,-0.00183376
0.4100002,-0.00188526
0.4090002,-0.001935841
0.4080002,-0.001970174
0.4070002,-0.002008186
0.4060002,-0.002041906
0.4050002,-0.002073787
0.4040002,-0.002105975
0.4030002,-0.002134484
0.4020002,-0.002165445
0.4010002,-0.002190889
0.4000002,-0.002215413
0.3990002,-0.002245454
0.3980002,-0.002264767
0.3970002,-0.002289904
0.3960002,-0.002315041
0.3950002,-0.002330675
0.3940002,-0.002351827
0.3930002,-0.002371752
0.3920002,-0.002387693
0.3910002,-0.002407925
0.3900002,-0.002425705
0.3890002,-0.002443791
0.3880002,-0.002460038
0.3870002,-0.002473526
0.3860002,-0.002493145
0.3850002,-0.002506633
0.3840002,-0.002518282
0.3830002,-0.002537288
0.3820002,-0.002548324
0.3810002,-0.002563958
0.3800002,-0.002582351
0.3790002,-0.002592161
0.3780002,-0.002610247
0.3770002,-0.0026268
0.3760002,-0.002638449
0.3750002,-0.002655922
0.3740002,-0.002669717
0.3730002,-0.002684738
0.3720002,-0.002702211
0.3710002,-0.002718152
0.3700002,-0.002735931
0.3690002,-0.002750952
0.3680002,-0.0027672
0.3670002,-0.002788658
0.3660002,-0.002802453
0.3650002,-0.002822685
0.3640002,-0.002844756
0.3630002,-0.002858858
0.3620002,-0.002881235
0.3610002,-0.00290392
0.3600002,-0.002921393
0.3590002,-0.00294745
0.3580002,-0.002972587
0.3570002,-0.002994352
0.3560002,-0.003018569
0.3550002,-0.003007122
0.3540002,-0.003034711
0.3530002,-0.003059235
0.3520002,-0.003086824
0.3510002,-0.003120545
0.3500002,-0.003145068
0.3490002,-0.003178789
0.3480002,-0.003212509
0.3470002,-0.003243164
0.3460002,-0.003283015
0.3450002,-0.003322866
0.3440002,-0.003356587
0.3430002,-0.003396438
0.3420002,-0.003436289
0.3410002,-0.003479206
0.3400002,-0.003522123
0.3390002,-0.00357117
0.3380002,-0.003617153
0.3370002,-0.0036662
0.3360002,-0.003712183
0.3350002,-0.003767361
0.3340002,-0.003819474
0.3330002,-0.003871588
0.3320002,-0.003932897
0.3310002,-0.003985011
0.3300002,-0.004049386
0.3290002,-0.004113761
0.3280002,-0.00417507
0.3270002,-0.004245576
0.3260002,-0.004316083
0.3250002,-0.004383523
0.3240002,-0.004457095
0.3230002,-0.004530666
0.3220002,-0.004607304
0.3210002,-0.004687006
0.3200002,-0.004766709
0.3190002,-0.004855608
0.3180002,-0.00493531
0.3170002,-0.005027275
0.3160002,-0.005122304
0.3150002,-0.005208138
0.3140002,-0.005309299
0.3130002,-0.00541046
0.3120002,-0.005502424
0.3110002,-0.005612782
0.3100002,-0.005713942
0.3090002,-0.005821235
0.3080002,-0.005934658
0.3070002,-0.006051145
0.3060002,-0.006167634
0.3050002,-0.006284122
0.3040002,-0.006403676
0.3030002,-0.006532426
0.3020002,-0.00665198
0.3010002,-0.006783796
0.3000002,-0.006918678
0.2990002,-0.007047428
0.2980002,-0.00718844
0.2970002,-0.007323321
0.2960002,-0.007464333
0.2950002,-0.007611477
0.2940002,-0.00775862
0.2930002,-0.007911894
0.2920002,-0.008065168
0.2910002,-0.008215376
0.2900002,-0.008380912
0.2890002,-0.008537252
0.2880002,-0.008699723
0.2870002,-0.008874455
0.2860002,-0.009036926
0.2850002,-0.009205527
0.2840002,-0.00938639
0.2830002,-0.009558057
0.2820002,-0.009735856
0.2810002,-0.00992285
0.2800002,-0.01009758
0.2790002,-0.01028764
0.2780002,-0.01048077
0.2770002,-0.01066776
0.2760002,-0.01086089
0.2750002,-0.01105708
0.2740002,-0.0112594
0.2730002,-0.01145866
0.2720002,-0.01166098
0.2710002,-0.01187556
0.2700002,-0.01207482
0.2690002,-0.01228634
0.2680002,-0.01251012
0.2670002,-0.01271857
0.2660002,-0.01293315
0.2650002,-0.01315693
0.2640002,-0.01337152
0.2630002,-0.01360143
0.2620002,-0.01382521
0.2610002,-0.01405512
0.2600002,-0.01428503
0.2590002,-0.01451494
0.2580002,-0.01475099
0.2570002,-0.01499009
0.2560002,-0.01523227
0.2550002,-0.01546831
0.2540002,-0.01571968
0.2530002,-0.01595879
0.2520002,-0.01621016
0.2510002,-0.01645846
0.2500002,-0.01670676
0.2490002,-0.0169612
0.2480002,-0.01721257
0.2470002,-0.0174762
0.2460002,-0.01773983
0.2450002,-0.0179912
0.2440002,-0.01827016
0.2430002,-0.01853073
0.2420002,-0.01879436
0.2410002,-0.01906718
0.2400002,-0.01933082
0.2390002,-0.01960978
0.2380002,-0.01987954
0.2370002,-0.02015543
0.2360002,-0.02044665
0.2350002,-0.02071028
0.2340002,-0.0210015
0.2330002,-0.02129886
0.2320002,-0.02155636
0.2310002,-0.02184758
0.2300002,-0.0221296
0.2290002,-0.0223963
0.2280002,-0.02269672
0.2270002,-0.02298794
0.2260002,-0.02327916
0.2250002,-0.02357344
0.2240002,-0.02387693
0.2230002,-0.02418654
0.2220002,-0.02447776
0.2210002,-0.02479044
0.2200002,-0.02509392
0.2190002,-0.02537901
0.2180002,-0.02569169
0.2170002,-0.02598904
0.2160002,-0.02628026
0.2150002,-0.02658375
0.2140002,-0.02687497
0.2130002,-0.02716925
0.2120002,-0.02746967
0.2110002,-0.02775476
0.2100002,-0.02804905
0.2090002,-0.02832801
0.2080002,-0.0285947
0.2070002,-0.02888592
0.2060002,-0.02915569
0.2050002,-0.02941319
0.2040002,-0.02968295
0.2030002,-0.02993432
0.2020002,-0.03017649
0.2010002,-0.03050039
0.2000002,-0.03074562
0.1990002,-0.03096021
0.1980002,-0.03114414
0.1970002,-0.03138937
0.1960002,-0.03157331
0.1950002,-0.03172658
0.1940002,-0.03194116
0.1930002,-0.03206378
0.1920002,-0.03221706
0.1910002,-0.03237033
0.1900002,-0.03249295
0.1890002,-0.03258491
0.1880002,-0.03267688
0.1870002,-0.03273819
0.1860002,-0.03283015
0.1850002,-0.03286081
0.1840002,-0.03286081
0.1830002,-0.03289146
0.1820002,-0.03283015
0.1810002,-0.03276884
0.1800002,-0.03270753
0.1790002,-0.03255426
0.1780002,-0.03237033
0.1770002,-0.03212509
0.1760002,-0.03181854
0.1750002,-0.03145069
0.1740002,-0.03102152
0.1730002,-0.03046973
0.1720002,-0.02982598
0.1710002,-0.02912092
0.1700002,-0.02829324
0.1690002,-0.02740425
0.1680002,-0.02645395
0.1670002,-0.02541168
0.1660002,-0.02433877
0.1650002,-0.02320454
0.1640002,-0.02203965
0.1630002,-0.02087477
0.1620002,-0.01974054
0.1610002,-0.01863697
0.1600002,-0.01753339
0.1590002,-0.01655244
0.1580002,-0.01557148
0.1570002,-0.01478471
0.1560002,-0.01402753
0.1550002,-0.01324583
0.1540002,-0.01259289
0.1530002,-0.01200125
0.1520002,-0.01144333
0.1510002,-0.01091913
0.1500002,-0.01045011
0.1490002,-0.01003321
0.1480002,-0.009653088
0.1470002,-0.009303623
0.1460002,-0.009043057
0.1450002,-0.008730377
0.1440002,-0.008472877
0.1430002,-0.008313472
0.1420002,-0.00804984
0.1410002,-0.007911894
0.1400002,-0.007746358
0.1390002,-0.007565494
0.1380002,-0.00744594
0.1370002,-0.007289601
0.1360002,-0.007170047
0.1350002,-0.007053559
0.1340002,-0.006906416
0.1330002,-0.006832844
0.1320002,-0.006704094
0.1310002,-0.006602933
0.1300002,-0.006547754
0.1290002,-0.006419003
0.1280002,-0.00636689
0.1270002,-0.006271861
0.1260002,-0.006182961
0.1250002,-0.006115521
0.1240002,-0.006026622
0.1230002,-0.005968377
0.1220002,-0.005900937
0.1210002,-0.005818169
0.1200002,-0.005772187
0.1190002,-0.00569555
0.1180002,-0.005637306
0.1170002,-0.005591323
0.1160002,-0.005511621
0.1150002,-0.005474835
0.1140002,-0.00541046
0.1130002,-0.005355281
0.1120002,-0.005309299
0.1110002,-0.005251055
0.1100002,-0.005205072
0.1090002,-0.005149893
0.1080002,-0.005100846
0.1070002,-0.005073257
0.1060002,-0.004999685
0.1050002,-0.004978227
0.1040002,-0.004932245
0.1030002,-0.004874
0.1020002,-0.004849477
0.1010002,-0.004794298
0.1000002,-0.004751381
0.09900019,-0.004717661
0.09800019,-0.004668613
0.09700019,-0.004637958
0.09600019,-0.004595041
0.09500019,-0.00454906
0.09400019,-0.004524535
0.09300019,-0.00448775
0.09200019,-0.004438702
0.09100019,-0.004420309
0.09000019,-0.004371261
0.08900019,-0.00433141
0.08800019,-0.00430382
0.08700019,-0.004267035
0.08600019,-0.004230249
0.08500019,-0.004196529
0.08400019,-0.004168939
0.08300019,-0.004119892
0.08200019,-0.004089237
0.08100019,-0.004064713
0.08000019,-0.004015665
0.07900019,-0.003985011
0.07800019,-0.003954356
0.07700019,-0.003905308
0.07600019,-0.003874653
0.07500019,-0.003837867
0.07400019,-0.00378882
0.07300019,-0.003748968
0.07200019,-0.003678462
0.07100019,-0.003601825
0.07000019,-0.003528254
0.06900019,-0.003445486
0.06800019,-0.003362718
0.06700019,-0.003261557
0.06600019,-0.003172658
0.06500019,-0.003102152
0.06400019,-0.003043907
0.06300019,-0.002991794
0.06200019,-0.002942747
0.06100019,-0.00289983
0.06000019,-0.002856913
0.05900019,-0.002817062
0.05800019,-0.002783341
0.05700019,-0.00274349
0.05600019,-0.00270977
0.05500019,-0.002679115
0.05400019,-0.002645395
0.05300019,-0.002611674
0.05200019,-0.00258102
0.05100019,-0.002547299
0.05000019,-0.002522775
0.04900019,-0.00249212
0.04800019,-0.0024584
0.04700019,-0.002433876
0.04600019,-0.002403222
0.04500019,-0.002369501
0.04400019,-0.002341912
0.04300019,-0.002311257
0.04200019,-0.002280602
0.04100019,-0.002246882
0.04000019,-0.002219293
0.03900019,-0.002185572
0.03800019,-0.002157983
0.03700019,-0.002127328
0.03600019,-0.002093608
0.03500019,-0.002062953
0.03400019,-0.002032298
0.03300019,-0.002001643
0.03200019,-0.001970988
0.03100019,-0.001943399
0.03000019,-0.001909679
0.02900019,-0.00188209
0.02800019,-0.001851435
0.02700019,-0.001823845
0.02600019,-0.001796256
0.02500019,-0.001768667
0.02400019,-0.001741077
0.02300019,-0.001713488
0.02200019,-0.001685899
0.02100019,-0.001649113
0.02000019,-0.001603131
0.01900019,-0.001604769
0.01800019,-0.001576566
0.01700019,-0.001551736
0.01600019,-0.001530584
0.01500019,-0.001510965
0.01400019,-0.001492572
0.01300019,-0.001476325
0.01200019,-0.001460384
0.01100019,-0.00144475
0.01000019,-0.001431262
0.009000191,-0.001416548
0.00800019,-0.001403979
0.007000191,-0.001391411
0.006000191,-0.001378843
0.005000191,-0.001367194
0.004000191,-0.001355545
0.003000191,-0.001343896
0.002000191,-0.001333473
0.001000191,-0.001322438
1.907349E-07,-0.001302512
0.0009998092,-0.001271244
0.001999809,-0.001243042
0.002999809,-0.001217598
0.003999809,-0.001193381
0.004999809,-0.001171003
0.005999809,-0.001150158
0.006999809,-0.001129312
0.007999809,-0.001110613
0.00899981,-0.00109222
0.009999809,-0.00107444
0.01099981,-0.001057887
0.01199981,-0.001041639
0.01299981,-0.001026005
0.01399981,-0.001011291
0.01499981,-0.0009965767
0.01599981,-0.0009830886
0.01699981,-0.000969294
0.01799981,-0.0009561123
0.01899981,-0.0009435439
0.01999981,-0.0009309754
0.02099981,-0.0009193266
0.02199981,-0.0009076777
0.02299981,-0.0008963355
0.02399981,-0.0008852997
0.02499981,-0.0008745705
0.02599981,-0.0008644544
0.02699981,-0.0008540318
0.02799981,-0.0008439157
0.02899981,-0.0008344128
0.02999981,-0.0008249097
0.03099981,-0.0008154067
0.03199981,-0.0008068234
0.03299981,-0.000797627
0.03399981,-0.0007890436
0.03499981,-0.0007807668
0.03599981,-0.0007718769
0.03699981,-0.0007639066
0.03799981,-0.0007559364
0.03899981,-0.0007479661
0.03999981,-0.000740609
0.04099981,-0.0007329452
0.04199981,-0.0007258946
0.04299981,-0.000718231
0.04399981,-0.0007108737
0.04499981,-0.0007038232
0.04599981,-0.0006967725
0.04699981,-0.0006903351
0.04799981,-0.000683591
0.04899981,-0.0006768469
0.04999981,-0.0006704094
0.05099981,-0.0006639719
0.05199981,-0.0006575344
0.05299981,-0.0006514034
0.05399981,-0.0006452725
0.05499981,-0.000639448
0.05599981,-0.0006333171
0.05699981,-0.0006274926
0.05799981,-0.0006219748
0.05899981,-0.0006161503
0.05999981,-0.0006106325
0.06099981,-0.0006054211
0.06199981,-0.0005999033
0.06299981,-0.0005943854
0.06399981,-0.0005891741
0.06499981,-0.0005839628
0.06599981,-0.0005787515
0.06699981,-0.0005738467
0.06799981,-0.0005689419
0.06899981,-0.0005640372
0.06999981,-0.0005591324
0.07099981,-0.0005542276
0.07199981,-0.0005493228
0.07299981,-0.0005444181
0.07399981,-0.0005398199
0.07499981,-0.0005352216
0.07599981,-0.0005306234
0.07699981,-0.0005263317
0.07799981,-0.0005217335
0.07899981,-0.0005177484
0.07999981,-0.0005131501
0.08099981,-0.0005088585
0.08199981,-0.0005045668
0.08299981,-0.0005002751
0.08399981,-0.0004959835
0.08499981,-0.0004919983
0.08599981,-0.0004880132
0.08699981,-0.0004840281
0.08799981,-0.0004800429
0.08899981,-0.0004760578
0.08999981,-0.0004720727
0.09099981,-0.0004683941
0.09199981,-0.0004644089
0.09299981,-0.0004607304
0.09399981,-0.0004570518
0.09499981,-0.0004533732
0.09599981,-0.0004493881
0.09699981,-0.0004460161
0.09799981,-0.0004423375
0.09899981,-0.0004386589
0.09999981,-0.0004352869
0.1009998,-0.0004319148
0.1019998,-0.0004285428
0.1029998,-0.0004251708
0.1039998,-0.0004217988
0.1049998,-0.0004184267
0.1059998,-0.0004147482
0.1069998,-0.0004116826
0.1079998,-0.0004083106
0.1089998,-0.0004049386
0.1099998,-0.0004018731
0.1109998,-0.0003988076
0.1119998,-0.0003954356
0.1129998,-0.0003926767
0.1139998,-0.0003893046
0.1149998,-0.0003862391
0.1159998,-0.0003831737
0.1169998,-0.0003801082
0.1179998,-0.0003770427
0.1189998,-0.0003742838
0.1199998,-0.0003712183
0.1209998,-0.0003681528
0.1219998,-0.0003653939
0.1229998,-0.0003623284
0.1239998,-0.0003595694
0.1249998,-0.0003568105
0.1259998,-0.000353745
0.1269998,-0.0003509861
0.1279998,-0.0003482272
0.1289998,-0.0003454682
0.1299998,-0.0003430158
0.1309998,-0.0003402569
0.1319998,-0.000337498
0.1329998,-0.000334739
0.1339998,-0.0003319801
0.1349998,-0.0003295277
0.1359998,-0.0003267688
0.1369998,-0.0003240099
0.1379998,-0.0003212509
0.1389998,-0.0003187985
0.1399998,-0.0003163462
0.1409998,-0.0003138937
0.1419998,-0.0003111348
0.1429998,-0.0003086824
0.1439998,-0.00030623
0.1449998,-0.0003037777
0.1459998,-0.0003013253
0.1469998,-0.0002985664
0.1479998,-0.000296114
0.1489998,-0.0002936616
0.1499998,-0.0002915157
0.1509998,-0.0002890633
0.1519998,-0.0002863044
0.1529998,-0.0002841586
0.1539998,-0.0002817062
0.1549998,-0.0002795603
0.1559998,-0.0002768014
0.1569998,-0.0002746556
0.1579998,-0.0002722032
0.1589998,-0.0002700574
0.1599998,-0.0002676049
0.1609998,-0.0002651526
0.1619998,-0.0002630067
0.1629998,-0.0002608609
0.1639998,-0.0002584085
0.1649998,-0.0002559561
0.1659998,-0.0002538103
0.1669998,-0.0002513579
0.1679998,-0.0002492121
0.1689998,-0.0002467597
0.1699998,-0.0002446139
0.1709998,-0.0002421615
0.1719998,-0.0002400156
0.1729998,-0.0002375632
0.1739998,-0.0002354174
0.1749998,-0.000232965
0.1759998,-0.0002308192
0.1769998,-0.0002286733
0.1779998,-0.0002262209
0.1789998,-0.0002240751
0.1799998,-0.0002219293
0.1809998,-0.0002194769
0.1819998,-0.000217331
0.1829998,-0.0002148787
0.1839998,-0.0002127328
0.1849998,-0.0002102804
0.1859998,-0.0002081346
0.1869998,-0.0002059888
0.1879998,-0.0002035364
0.1889998,-0.000201084
0.1899998,-0.0001989382
0.1909998,-0.0001964858
0.1919998,-0.0001940334
0.1929998,-0.0001918875
0.1939998,-0.0001894352
0.1949998,-0.0001872893
0.1959998,-0.0001848369
0.1969998,-0.0001823845
0.1979998,-0.0001799322
0.1989998,-0.0001774798
0.1999998,-0.0001750274
0.2009998,-0.000172575
0.2019998,-0.0001701226
0.2029998,-0.0001676702
0.2039998,-0.0001649113
0.2049998,-0.0001621524
0.2059998,-0.0001597
0.2069998,-0.0001602009
0.2079998,-0.0001577486
0.2089998,-0.0001550816
0.2099998,-0.0001523533
0.2109998,-0.000149717
0.2119998,-0.0001468968
0.2129998,-0.0001440765
0.2139998,-0.0001412256
0.2149998,-0.0001382521
0.2159998,-0.0001353705
0.2169998,-0.000132397
0.2179998,-0.0001294542
0.2189998,-0.0001264806
0.2199998,-0.0001232926
0.2209998,-0.0001202271
0.2219998,-0.0001170696
0.2229998,-0.0001136056
0.2239998,-0.0001103256
0.2249998,-0.0001070148
0.2259998,-0.0001035508
0.2269998,-0.0001000868
0.2279998,-9.650022E-05
0.2289998,-9.291361E-05
0.2299998,-8.908175E-05
0.2309998,-8.521925E-05
0.2319998,-8.138739E-05
0.2329998,-7.746358E-05
0.2339998,-7.347845E-05
0.2349998,-6.943201E-05
0.2359998,-6.504837E-05
0.2369998,-6.063408E-05
0.2379998,-5.628109E-05
0.2389998,-5.168287E-05
0.2399998,-4.708464E-05
0.2409998,-4.233315E-05
0.2419998,-3.748968E-05
0.2429998,-3.237033E-05
0.2439998,-2.70977E-05
0.2449998,-2.179441E-05
0.2459998,-1.642982E-05
0.2469998,-1.085064E-05
0.2479998,-5.275579E-06
0.2489998,5.304452E-07
0.2499998,6.514267E-06
0.2509998,1.262377E-05
0.2519998,1.925441E-05
0.2529998,2.576243E-05
0.2539998,3.264856E-05
0.2549998,3.969917E-05
0.2559998,4.696436E-05
0.2569998,5.416824E-05
0.2579998,6.186261E-05
0.2589998,6.958762E-05
0.2599998,7.783377E-05
0.2609998,8.617188E-05
0.2619998,9.500048E-05
0.2629998,0.0001042276
0.2639998,0.0001133627
0.2649998,0.0001232029
0.2659998,0.0001331657
0.2669998,0.0001435577
0.2679998,0.0001547774
0.2689998,0.0001661197
0.2699998,0.0001780137
0.2709998,0.0001906742
0.2719998,0.0002047448
0.2729998,0.0002192138
0.2739998,0.0002323954
0.2749998,0.0002494701
0.2759998,0.0002647976
0.2769998,0.000282516
0.2779998,0.0002996214
0.2789998,0.0003240332
0.2799998,0.0003436523
0.2809998,0.00036695
0.2819998,0.0003902476
0.2829998,0.0004172239
0.2839998,0.0004454263
0.2849998,0.0004773073
0.2859998,0.0005107211
0.2869998,0.0005493462
0.2879998,0.0005916498
0.2889998,0.0006394714
0.2899998,0.0006921976
0.2909998,0.0007519746
0.2919998,0.0008203348
0.2929998,0.0008972785
0.2939998,0.0009870972
0.2949998,0.001088565
0.2959998,0.001205973
0.2969998,0.001342387
0.2979998,0.001495967
0.2989998,0.001674072
0.2999998,0.001873635
0.3009998,0.002099561
0.3019998,0.002350317
0.3029998,0.002625291
0.3039998,0.002923869
0.3049998,0.003274052
0.3059998,0.00360819
0.3069998,0.003966851
0.3079998,0.004334709
0.3089998,0.004714829
0.3099998,0.005098014
0.3109998,0.005490396
0.3119998,0.005888909
0.3129998,0.006287422
0.3139998,0.00669513
0.3149998,0.007093643
0.3159998,0.007501352
0.3169998,0.00790293
0.3179998,0.008298378
0.3189998,0.008699956
0.3199998,0.009095403
0.3209998,0.009484719
0.3219998,0.009874037
0.3229998,0.01025415
0.3239998,0.01063428
0.3249998,0.01100213
0.3259998,0.01136999
0.3269998,0.01174091
0.3279998,0.01209344
0.3289998,0.01245824
0.3299998,0.01281383
0.3309998,0.01315717
0.3319998,0.0135189
0.3329998,0.01385303
0.3339998,0.01419943
0.3349998,0.01455196
0.3359998,0.0148769
0.3369998,0.01522637
0.3379998,0.0155605
0.3389998,0.01589158
0.3399998,0.01623491
0.3409998,0.01655679
0.3419998,0.01689706
0.3429998,0.01723119
0.3439998,0.01755307
0.3449998,0.0178964
0.3459998,0.01822134
0.3469998,0.01855548
0.3479998,0.01889881
0.3489998,0.01921456
0.3499998,0.01955483
0.3509998,0.01988284
0.3519998,0.02021084
0.3529998,0.02055418
0.3539998,0.02087605
0.3549998,0.02121632
0.3559998,0.02155046
0.3569998,0.02187847
0.3579998,0.02222487
0.3589998,0.02255287
0.3599998,0.02289314
0.3609998,0.02323341
0.3619998,0.02355835
0.3629998,0.02390475
0.3639998,0.02422969
0.3649998,0.02456383
0.3659998,0.0249041
0.3669998,0.02522904
0.3679998,0.02556624
0.3689998,0.02589731
0.3699998,0.02622532
0.3709998,0.02657172
0.3719998,0.02689053
0.3729998,0.02722467
0.3739998,0.02755267
0.3749998,0.02786535
0.3759998,0.02819029
0.3769998,0.02850911
0.3779998,0.02882791
0.3789998,0.02913753
0.3799998,0.02945634
0.3809998,0.02976902
0.3819998,0.03006637
0.3829998,0.03114647
0.3839998,0.03142237
0.3849998,0.03172891
0.3859998,0.03203546
0.3869998,0.03231135
0.3879998,0.03258725
0.3889998,0.0328938
0.3899998,0.03320035
0.3909998,0.03347624
0.3919998,0.03378279
0.3929998,0.03405868
0.3939998,0.03433457
0.3949998,0.03461047
0.3959998,0.03488636
0.3969998,0.03516225
0.3979998,0.03540749
0.3989998,0.03568339
0.3999998,0.03592863
0.4009998,0.03617386
0.4019998,0.0364191
0.4029998,0.03666434
0.4039998,0.03687892
0.4049998,0.03712416
0.4059998,0.03730809
0.4069998,0.03752267
0.4079998,0.03773726
0.4089998,0.03792119
0.4099998,0.03813577
0.4109998,0.0383197
0.4119998,0.03847298
0.4129998,0.0386569
0.4139998,0.03881018
0.4149998,0.0389328
0.4159998,0.03905542
0.4169998,0.03914738
0.4179998,0.03923934
0.4189998,0.03930065
0.4199998,0.03939262
0.4209998,0.03942328
0.4219998,0.03945393
0.4229998,0.03945393
0.4239998,0.03942328
0.4249998,0.03936196
0.4259998,0.03927
0.4269998,0.03914738
0.4279998,0.03902476
0.4289998,0.03881018
0.4299998,0.03856494
0.4309998,0.03828905
0.4319998,0.03789053
0.4329998,0.03746137
0.4339998,0.03697089
0.4349998,0.03638845
0.4359998,0.03568339
0.4369998,0.03491702
0.4379998,0.03399737
0.4389998,0.03295511
0.4399998,0.03179022
0.4409998,0.03047206
0.4419998,0.02906194
0.4429998,0.0275292
0.4439998,0.02599646
0.4449998,0.02440241
0.4459998,0.02283901
0.4469998,0.02136758
0.4479998,0.01995746
0.4489998,0.01870061
0.4499998,0.01756638
0.4509998,0.01655477
0.4519998,0.01563513
0.4529998,0.0148381
0.4539998,0.01413304
0.4549998,0.01351995
0.4559998,0.01299881
0.4569998,0.01209651
0.4579998,0.01175011
0.4589998,0.01144663
0.4599998,0.01123818
0.4609998,0.01106957
0.4619998,0.01094082
0.4629998,0.01086112
0.4639998,0.01080594
0.4649998,0.01079981
0.4659998,0.01081207
0.4669998,0.01085499
0.4679998,0.01094082
0.4689998,0.01101133
0.4699998,0.01112475
0.4709998,0.01125657
0.4719998,0.01137306
0.4729998,0.01154166
0.4739998,0.01171332
0.4749998,0.01187886
0.4759998,0.01208118
0.4769998,0.01227431
0.4779998,0.01248276
0.4789998,0.01270961
0.4799998,0.01293032
0.4809998,0.01317556
0.4819998,0.01341773
0.4829998,0.01366297
0.4839998,0.01393273
0.4849998,0.01419637
0.4859998,0.01446306
0.4869998,0.01474509
0.4879998,0.01503018
0.4889998,0.0153214
0.4899998,0.01562488
0.4909998,0.0159161
0.4919998,0.01622878
0.4929998,0.01653533
0.4939998,0.01685107
0.4949998,0.01717602
0.4959998,0.01748256
0.4969998,0.01782283
0.4979998,0.0181539
0.4989998,0.01849111
0.4999998,0.0188467
0.5009998,0.01917471
0.5019998,0.01953031
0.5029998,0.01988284
0.5039998,0.02022617
0.5049998,0.02059709
0.5059998,0.02094349
0.5069998,0.02130829
0.5079998,0.02167921
0.5089998,0.02203481
0.5099998,0.02241492
0.5109998,0.02278278
0.5119998,0.02316597
0.5129998,0.02355529
0.5139998,0.02392621
0.5149998,0.02431553
0.5159998,0.02469564
0.5169998,0.02507883
0.5179998,0.02546201
0.5189998,0.0258544
0.5199998,0.02625597
0.5209998,0.02664223
0.5219998,0.02704687
0.5229998,0.02745458
0.5239998,0.02784083
0.5249998,0.02825467
0.5259998,0.02866238
0.5269998,0.02904863
0.5279998,0.02946247
0.5289998,0.02987938
0.5299998,0.03102385
0.5309998,0.03145302
0.5319998,0.03185153
0.5329998,0.0322807
0.5339998,0.03270987
0.5349998,0.03310838
0.5359998,0.03353755
0.5369998,0.03396672
0.5379998,0.03439588
0.5389998,0.0347944
0.5399998,0.03525422
0.5409998,0.03565273
0.5419998,0.03611255
0.5429998,0.03654172
0.5439998,0.03697089
0.5449998,0.03740006
0.5459998,0.03785988
0.5469998,0.03828905
0.5479998,0.03871821
0.5489998,0.03917804
0.5499998,0.0396072
0.5509998,0.04006703
0.5519998,0.04049619
0.5529998,0.04092536
0.5539998,0.04138518
0.5549998,0.04181435
0.5559998,0.04224352
0.5569998,0.04270334
0.5579998,0.04316316
0.5589998,0.04359233
0.5599998,0.04405215
0.5609998,0.04448132
0.5619998,0.0449718
0.5629998,0.04540097
0.5639998,0.04586079
0.5649998,0.04632061
0.5659998,0.04674978
0.5669998,0.04724025
0.5679998,0.04766942
0.5689998,0.04812925
0.5699998,0.04858907
0.5709998,0.04901823
0.5719998,0.04947806
0.5729998,0.04993788
0.5739998,0.05036705
0.5749998,0.05085753
0.5759998,0.05128669
0.5769998,0.05177717
0.5779998,0.05223699
0.5789998,0.05269681
0.5799998,0.05315664
0.5809998,0.05364711
0.5819998,0.05410693
0.5829998,0.05456676
0.5839998,0.05502658
0.5849998,0.05548641
0.5859998,0.05594623
0.5869998,0.05640605
0.5879998,0.05689653
0.5889998,0.05735635
0.5899998,0.05778552
0.5909998,0.05827599
0.5919998,0.05873581
0.5929998,0.05919564
0.5939998,0.05968611
0.5949998,0.06014594
0.5959998,0.06060576
0.5969998,0.06109623
0.5979998,0.06155606
0.5989998,0.06204654
0.5999998,0.06247571
0.6009998,0.06296618
0.6019998,0.063426
0.6029998,0.06385517
0.6039998,0.0643763
0.6049998,0.06483613
0.6059998,0.06529595
0.6069998,0.06581708
0.6079998,0.06624625
0.6089998,0.06676738
0.6099998,0.06722721
0.6109998,0.06768703
0.6119998,0.06817751
0.6129998,0.06860667
0.6139998,0.0691278
0.6149998,0.06958763
0.6159998,0.0700781
0.6169998,0.07056858
0.6179998,0.07099774
0.6189998,0.07148822
0.6199998,0.0719787
0.6209998,0.07243852
0.6219998,0.072929
0.6229998,0.07341947
0.6239998,0.07387929
0.6249998,0.07436978
0.6259998,0.07486025
0.6269998,0.07535073
0.6279998,0.07581055
0.6289998,0.07630103
0.6299998,0.07679151
0.6309998,0.07725133
0.6319998,0.07774181
0.6329998,0.07823228
0.6339998,0.07872277
0.6349998,0.07921324
0.6359998,0.07970371
0.6369998,0.08016354
0.6379998,0.08065402
0.6389998,0.0811445
0.6399998,0.08160432
0.6409998,0.0820948
0.6419998,0.08255462
0.6429998,0.08304509
0.6439998,0.08353557
0.6449998,0.08399539
0.6459998,0.08448587
0.6469998,0.085007
0.6479998,0.08546682
0.6489998,0.0859573
0.6499998,0.08644778
0.6509998,0.0869076
0.6519998,0.08739807
0.6529998,0.08788855
0.6539998,0.08837903
0.6549998,0.0888695
0.6559998,0.08932933
0.6569998,0.08985046
0.6579998,0.09031029
0.6589998,0.09080076
0.6599998,0.09129124
0.6609998,0.09175106
0.6619998,0.09227219
0.6629998,0.09276267
0.6639998,0.09325315
0.6649998,0.09377428
0.6659998,0.0942341
0.6669998,0.09475523
0.6679998,0.09521506
0.6689998,0.09570553
0.6699998,0.09622667
0.6709998,0.09665584
0.6719998,0.09714631
0.6729998,0.09763679
0.6739998,0.09809661
0.6749998,0.0986484
0.6759998,0.09910822
0.6769998,0.0995987
0.6779998,0.1001198
0.6789998,0.1005796
0.6799998,0.1011008
0.6809998,0.1015913
0.6819998,0.1020511
0.6829998,0.1025416
0.6839998,0.103032
0.6849998,0.1035225
0.6859998,0.104013
0.6869998,0.1045341
0.6879998,0.1050246
0.6889998,0.1054844
0.6899998,0.1060055
0.6909998,0.1064347
0.6919998,0.1068945
0.6929998,0.107477
0.6939998,0.1079981
0.6949998,0.1084273
0.6959998,0.1089484
0.6969998,0.1094082
0.6979998,0.1099294
0.6989998,0.1104198
0.6999998,0.1105118
0.6990003,0.1100826
0.6980003,0.1095309
0.6970003,0.1091323
0.6960003,0.1086725
0.6950003,0.1081514
0.6940003,0.1076609
0.6930003,0.1071398
0.6920003,0.1066493
0.6910003,0.1061588
0.6900003,0.1056683
0.6890003,0.1052392
0.6880003,0.1046874
0.6870003,0.1042276
0.6860003,0.1037678
0.6850003,0.1032466
0.6840003,0.1027868
0.6830003,0.1022963
0.6820003,0.1017752
0.6810003,0.1013154
0.6800003,0.1008249
0.6790003,0.1003344
0.6780003,0.09984394
0.6770003,0.09935346
0.6760003,0.09889363
0.6750003,0.09834184
0.6740003,0.09791268
0.6730003,0.09739155
0.6720003,0.09693173
0.6710003,0.09641059
0.6700003,0.09592012
0.6690003,0.0954603
0.6680003,0.09496982
0.6670003,0.09447934
0.6660003,0.09405018
0.6650003,0.09349839
0.6640003,0.09303857
0.6630003,0.09257875
0.6620003,0.09205761
0.6610003,0.09162845
0.6600003,0.09110731
0.6590003,0.09061684
0.6580003,0.09012636
0.6570003,0.08966654
0.6560003,0.08917606
0.6550003,0.08868558
0.6540003,0.08822576
0.6530003,0.08776593
0.6520003,0.0872448
0.6510003,0.08678498
0.6500003,0.0862945
0.6490003,0.08580403
0.6480003,0.0853442
0.6470003,0.08482307
0.6460003,0.08436324
0.6450003,0.08387277
0.6440003,0.0833823
0.6430003,0.08295313
0.6420003,0.08243199
0.6410003,0.08197217
0.6400003,0.08151235
0.6390003,0.08102188
0.6380003,0.08056205
0.6370003,0.08007158
0.6360003,0.0795811
0.6350003,0.07912128
0.6340003,0.0786308
0.6330003,0.07817098
0.6320003,0.0776805
0.6310003,0.07722067
0.6300003,0.07676085
0.6290003,0.07623972
0.6280003,0.07581055
0.6270003,0.07532008
0.6260003,0.07479894
0.6250003,0.07436978
0.6240003,0.07387929
0.6230003,0.07338882
0.6220003,0.072929
0.6210003,0.07243852
0.6200003,0.0719787
0.6190003,0.07151888
0.6180003,0.0710284
0.6170003,0.07056858
0.6160003,0.0700781
0.6150003,0.06961828
0.6140003,0.06909715
0.6130003,0.06863733
0.6120003,0.06817751
0.6110003,0.06768703
0.6100003,0.06722721
0.6090003,0.06676738
0.6080003,0.06630756
0.6070003,0.06581708
0.6060003,0.06535726
0.6050003,0.06489744
0.6040003,0.06443761
0.6030003,0.06397779
0.6020003,0.06348731
0.6010003,0.06302749
0.6000003,0.06256767
0.5990003,0.06210784
0.5980003,0.06161737
0.5970003,0.06115754
0.5960003,0.06069772
0.5950003,0.0602379
0.5940003,0.05974742
0.5930003,0.05931826
0.5920003,0.05882778
0.5910003,0.05839861
0.5900003,0.05790814
0.5890003,0.05747896
0.5880003,0.05701914
0.5870003,0.05652867
0.5860003,0.05606885
0.5850003,0.05560903
0.5840003,0.0551492
0.5830003,0.05468938
0.5820003,0.05422956
0.5810003,0.05376973
0.5800003,0.05330991
0.5790003,0.05285009
0.5780003,0.05239027
0.5770003,0.05193045
0.5760003,0.05147062
0.5750003,0.0510108
0.5740003,0.05058163
0.5730003,0.05009115
0.5720003,0.04966199
0.5710003,0.04920216
0.5700003,0.04874234
0.5690003,0.04831317
0.5680003,0.04785335
0.5670003,0.04742418
0.5660003,0.04693371
0.5650003,0.04650454
0.5640003,0.04604472
0.5630003,0.04558489
0.5620003,0.04515573
0.5610003,0.04469591
0.5600003,0.04423608
0.5590003,0.04380691
0.5580003,0.04334709
0.5570003,0.04291793
0.5560003,0.0424581
0.5550003,0.04202893
0.5540003,0.04156911
0.5530003,0.04113995
0.5520003,0.04068012
0.5510003,0.04025095
0.5500003,0.03982178
0.5490003,0.03936196
0.5480003,0.0389328
0.5470003,0.03847298
0.5460003,0.03804381
0.5450003,0.03761464
0.5440003,0.03718547
0.5430003,0.03672565
0.5420003,0.03629648
0.5410003,0.03586731
0.5400003,0.03543815
0.5390003,0.03500898
0.5380003,0.03457981
0.5370003,0.03415065
0.5360003,0.03372148
0.5350003,0.03329231
0.5340003,0.03286314
0.5330003,0.03243398
0.5320003,0.03200481
0.5310003,0.03160629
0.5300003,0.03117712
0.5290003,0.03074796
0.5280003,0.03031879
0.5270003,0.02988962
0.5260003,0.02946045
0.5250003,0.02906194
0.5240003,0.02863277
0.5230003,0.02823426
0.5220003,0.02783575
0.5210003,0.02740658
0.5200003,0.02697741
0.5190003,0.0265789
0.5180003,0.02614973
0.5170003,0.02575122
0.5160003,0.02535271
0.5150003,0.02492354
0.5140003,0.02455568
0.5130003,0.02412652
0.5120003,0.023728
0.5110003,0.02332949
0.5100003,0.02293098
0.5090003,0.02253246
0.5080003,0.02213395
0.5070003,0.02173544
0.5060003,0.02133693
0.5050003,0.02096907
0.5040003,0.02057056
0.5030003,0.0202027
0.5020003,0.01980419
0.5010003,0.01940567
0.5000003,0.01903781
0.4990003,0.01866996
0.4980003,0.0183021
0.4970003,0.01790359
0.4960003,0.01753573
0.4950003,0.01716787
0.4940003,0.01680001
0.4930003,0.01643215
0.4920003,0.0160643
0.4910003,0.01572709
0.4900003,0.01535923
0.4890003,0.01499138
0.4880003,0.01462352
0.4870003,0.01425566
0.4860003,0.01391846
0.4850003,0.01358126
0.4840003,0.0132134
0.4830003,0.01239386
0.4820003,0.01205972
0.4810003,0.01172865
0.4800003,0.01139758
0.4790003,0.01106957
0.4780003,0.01074463
0.4770003,0.01042582
0.4760003,0.01010088
0.4750003,0.009788202
0.4740003,0.009475523
0.4730003,0.009162844
0.4720003,0.008862427
0.4710003,0.008552813
0.4700003,0.008255461
0.4690003,0.007961174
0.4680003,0.007666889
0.4670003,0.007381798
0.4660003,0.007096709
0.4650003,0.006811619
0.4640003,0.006541857
0.4630003,0.006262898
0.4620003,0.005993135
0.4610003,0.005726438
0.4600003,0.005459741
0.4590003,0.005205306
0.4580003,0.004953937
0.4570003,0.004705633
0.4560003,0.004463459
0.4550003,0.004218221
0.4540003,0.003985244
0.4530003,0.003755333
0.4520003,0.003525421
0.4510003,0.003310838
0.4500003,0.003090123
0.4490003,0.002878605
0.4480003,0.002673218
0.4470003,0.002464765
0.4460003,0.002271639
0.4450003,0.002075448
0.4440003,0.001885388
0.4430003,0.001707591
0.4420003,0.001526727
0.4410003,0.001351995
0.4400003,0.001189524
0.4390003,0.0009913888
0.4380003,0.0008347426
0.4370003,0.0006808554
0.4360003,0.0005309533
0.4350003,0.0003920869
0.4340003,0.0002498485
0.4330003,0.0001161935
0.4320003,-1.071752E-05
0.4310003,-0.0001439232
0.4300003,-0.000260105
0.4290003,-0.0003764296
0.4280003,-0.0004889328
0.4270003,-0.0005922396
0.4260003,-0.0006958529
0.4250003,-0.0007954811
0.4240003,-0.0008877521
0.4230003,-0.0009809429
0.4220003,-0.00106647
0.4210003,-0.001148625
0.4200003,-0.00122894
0.4190003,-0.00130006
0.4180003,-0.001374244
0.4170003,-0.001441685
0.4160003,-0.001504221
0.4150003,-0.001571355
0.4140003,-0.001627147
0.4130003,-0.001681712
0.4120003,-0.001737198
0.4110003,-0.001784712
0.4100003,-0.001839585
0.4090003,-0.001890778
0.4080003,-0.00192971
0.4070003,-0.001971094
0.4060003,-0.00200604
0.4050003,-0.002041906
0.4040003,-0.002077773
0.4030003,-0.002108121
0.4020003,-0.002140615
0.4010003,-0.002168511
0.4000003,-0.002194261
0.3990003,-0.002223996
0.3980003,-0.002246374
0.3970003,-0.002271818
0.3960003,-0.00230002
0.3950003,-0.002317493
0.3940003,-0.002338952
0.3930003,-0.002360103
0.3920003,-0.00237727
0.3910003,-0.002398422
0.3900003,-0.002415895
0.3890003,-0.002433368
0.3880003,-0.002452375
0.3870003,-0.00246525
0.3860003,-0.002483949
0.3850003,-0.002500809
0.3840003,-0.002512151
0.3830003,-0.002531157
0.3820003,-0.002545259
0.3810003,-0.002559053
0.3800003,-0.002575607
0.3790003,-0.002589095
0.3780003,-0.002605342
0.3770003,-0.002622509
0.3760003,-0.002635384
0.3750003,-0.002652244
0.3740003,-0.002666652
0.3730003,-0.002681673
0.3720003,-0.002700372
0.3710003,-0.002715393
0.3700003,-0.00273256
0.3690003,-0.002750033
0.3680003,-0.002763828
0.3670003,-0.002785592
0.3660003,-0.002802759
0.3650003,-0.002820539
0.3640003,-0.00284353
0.3630003,-0.002858551
0.3620003,-0.002880929
0.3610003,-0.002900854
0.3600003,-0.002920474
0.3590003,-0.002948676
0.3580003,-0.002969828
0.3570003,-0.002993739
0.3560003,-0.003022248
0.3550003,-0.003007122
0.3540003,-0.003034711
0.3530003,-0.003065366
0.3520003,-0.003089889
0.3510003,-0.003120545
0.3500003,-0.003148134
0.3490003,-0.003181854
0.3480003,-0.003215575
0.3470003,-0.003246229
0.3460003,-0.003289146
0.3450003,-0.003325932
0.3440003,-0.003359652
0.3430003,-0.003405634
0.3420003,-0.00344242
0.3410003,-0.003482271
0.3400003,-0.003531319
0.3390003,-0.003574236
0.3380003,-0.003623284
0.3370003,-0.003675397
0.3360003,-0.003721379
0.3350003,-0.003776558
0.3340003,-0.003828671
0.3330003,-0.00388385
0.3320003,-0.003942094
0.3310003,-0.003997272
0.3300003,-0.004064713
0.3290003,-0.004126023
0.3280003,-0.004190398
0.3270003,-0.004260904
0.3260003,-0.00433141
0.3250003,-0.004401916
0.3240003,-0.004475488
0.3230003,-0.00454906
0.3220003,-0.004628762
0.3210003,-0.004708464
0.3200003,-0.004791233
0.3190003,-0.004880131
0.3180003,-0.004965965
0.3170003,-0.005054864
0.3160003,-0.005146828
0.3150003,-0.005238793
0.3140003,-0.005336888
0.3130003,-0.005438049
0.3120003,-0.005536145
0.3110003,-0.005643437
0.3100003,-0.005750729
0.3090003,-0.005858021
0.3080003,-0.005971443
0.3070003,-0.006090997
0.3060003,-0.006207486
0.3050003,-0.00632704
0.3040003,-0.006446593
0.3030003,-0.006572278
0.3020003,-0.006697963
0.3010003,-0.006826713
0.3000003,-0.006964659
0.2990003,-0.007096475
0.2980003,-0.007234422
0.2970003,-0.007372369
0.2960003,-0.007516447
0.2950003,-0.007660524
0.2940003,-0.007810732
0.2930003,-0.007967073
0.2920003,-0.008120347
0.2910003,-0.008270555
0.2900003,-0.008439157
0.2890003,-0.008598561
0.2880003,-0.008757967
0.2870003,-0.008932699
0.2860003,-0.009101301
0.2850003,-0.009266837
0.2840003,-0.009444634
0.2830003,-0.009622433
0.2820003,-0.009800231
0.2810003,-0.009981094
0.2800003,-0.01016809
0.2790003,-0.01035508
0.2780003,-0.01054514
0.2770003,-0.0107352
0.2760003,-0.01093139
0.2750003,-0.01112758
0.2740003,-0.01132378
0.2730003,-0.01153223
0.2720003,-0.01172842
0.2710003,-0.01193687
0.2700003,-0.01214839
0.2690003,-0.01235991
0.2680003,-0.01257143
0.2670003,-0.01278601
0.2660003,-0.01300979
0.2650003,-0.01322437
0.2640003,-0.01344202
0.2630003,-0.01367807
0.2620003,-0.01389878
0.2610003,-0.01412256
0.2600003,-0.01436167
0.2590003,-0.01458852
0.2580003,-0.01481843
0.2570003,-0.01506366
0.2560003,-0.01529971
0.2550003,-0.01554188
0.2540003,-0.01578405
0.2530003,-0.01602929
0.2520003,-0.0162776
0.2510003,-0.01652284
0.2500003,-0.0167834
0.2490003,-0.01703171
0.2480003,-0.01728307
0.2470003,-0.01754671
0.2460003,-0.01780114
0.2450003,-0.01806171
0.2440003,-0.01833147
0.2430003,-0.01858897
0.2420003,-0.01885873
0.2410003,-0.0191285
0.2400003,-0.01939213
0.2390003,-0.01967109
0.2380003,-0.01994391
0.2370003,-0.02021674
0.2360003,-0.02049263
0.2350003,-0.02077159
0.2340003,-0.02105055
0.2330003,-0.02133258
0.2320003,-0.02162073
0.2310003,-0.02189662
0.2300003,-0.02217558
0.2290003,-0.02245454
0.2280003,-0.02273657
0.2270003,-0.02301246
0.2260003,-0.02330981
0.2250003,-0.02360103
0.2240003,-0.02388612
0.2230003,-0.02419574
0.2220003,-0.02449002
0.2210003,-0.02477818
0.2200003,-0.02509086
0.2190003,-0.02538514
0.2180003,-0.0256733
0.2170003,-0.02597678
0.2160003,-0.02627107
0.2150003,-0.02655922
0.2140003,-0.02685964
0.2130003,-0.0271478
0.2120003,-0.02742982
0.2110003,-0.02772411
0.2100003,-0.02799693
0.2090003,-0.02827589
0.2080003,-0.02855792
0.2070003,-0.02881235
0.2060003,-0.02906985
0.2050003,-0.02934268
0.2040003,-0.02958485
0.2030003,-0.02982703
0.2020003,-0.03006307
0.2010003,-0.03029298
0.2000003,-0.030623
0.1990003,-0.03080693
0.1980003,-0.03099086
0.1970003,-0.03120545
0.1960003,-0.03138937
0.1950003,-0.03154265
0.1940003,-0.03169592
0.1930003,-0.0318492
0.1920003,-0.03197182
0.1910003,-0.03209443
0.1900003,-0.03221706
0.1890003,-0.03227837
0.1880003,-0.03233967
0.1870003,-0.03243164
0.1860003,-0.03243164
0.1850003,-0.03249295
0.1840003,-0.0324623
0.1830003,-0.03243164
0.1820003,-0.03237033
0.1810003,-0.03224771
0.1800003,-0.03212509
0.1790003,-0.03194116
0.1780003,-0.03169592
0.1770003,-0.03142003
0.1760003,-0.03102152
0.1750003,-0.03056169
0.1740003,-0.03004056
0.1730003,-0.02936616
0.1720003,-0.0286611
0.1710003,-0.02783342
0.1700003,-0.02694443
0.1690003,-0.02596347
0.1680003,-0.02492121
0.1670003,-0.02384829
0.1660003,-0.02271406
0.1650003,-0.02157983
0.1640003,-0.02047626
0.1630003,-0.01931137
0.1620003,-0.01823845
0.1610003,-0.01722685
0.1600003,-0.01618458
0.1590003,-0.01529559
0.1580003,-0.01457625
0.1570003,-0.0137547
0.1560003,-0.0130711
0.1550003,-0.012458
0.1540003,-0.01184491
0.1530003,-0.01136363
0.1520003,-0.01084863
0.1510003,-0.01044705
0.1500003,-0.01002401
0.1490003,-0.009643891
0.1480003,-0.00938639
0.1470003,-0.009058384
0.1460003,-0.008831538
0.1450003,-0.008638413
0.1440003,-0.008387043
0.1430003,-0.008224573
0.1420003,-0.008025317
0.1410003,-0.007856715
0.1400003,-0.00773103
0.1390003,-0.007565494
0.1380003,-0.007458202
0.1370003,-0.007323321
0.1360003,-0.007194571
0.1350003,-0.007117934
0.1340003,-0.006989183
0.1330003,-0.006894153
0.1320003,-0.006820582
0.1310003,-0.006701028
0.1300003,-0.006655046
0.1290003,-0.006553885
0.1280003,-0.006483379
0.1270003,-0.006409807
0.1260003,-0.006314777
0.1250003,-0.006259599
0.1240003,-0.006189092
0.1230003,-0.00610939
0.1220003,-0.00607567
0.1210003,-0.00598064
0.1200003,-0.005937723
0.1190003,-0.005897872
0.1180003,-0.005815104
0.1170003,-0.005787514
0.1160003,-0.005720073
0.1150003,-0.005667961
0.1140003,-0.005615847
0.1130003,-0.005554538
0.1120003,-0.005523883
0.1110003,-0.005465638
0.1100003,-0.00541046
0.1090003,-0.005392067
0.1080003,-0.005330757
0.1070003,-0.005284776
0.1060003,-0.005257186
0.1050003,-0.005202007
0.1040003,-0.005165222
0.1030003,-0.005137632
0.1020003,-0.005085519
0.1010003,-0.005048733
0.1000003,-0.005021143
0.09900028,-0.004984358
0.09800029,-0.004941441
0.09700029,-0.004907721
0.09600028,-0.004870935
0.09500029,-0.00484028
0.09400029,-0.004800429
0.09300029,-0.00477284
0.09200028,-0.004742185
0.09100029,-0.004702333
0.09000029,-0.004680875
0.08900028,-0.004647155
0.08800028,-0.004610369
0.08700029,-0.004585845
0.08600029,-0.00455519
0.08500028,-0.004518405
0.08400029,-0.004490815
0.08300029,-0.004466291
0.08200029,-0.004429505
0.08100028,-0.004408047
0.08000029,-0.004377393
0.07900029,-0.004346738
0.07800028,-0.004325279
0.07700028,-0.004294624
0.07600029,-0.004267035
0.07500029,-0.004239446
0.07400028,-0.004208791
0.07300029,-0.004187332
0.07200029,-0.004153612
0.07100029,-0.004129088
0.07000028,-0.004104564
0.06900029,-0.00408004
0.06800029,-0.004049386
0.06700028,-0.004024862
0.06600028,-0.003997272
0.06500029,-0.003969683
0.06400029,-0.00395129
0.06300028,-0.00391757
0.06200029,-0.003899177
0.06100029,-0.003871588
0.06000029,-0.003847064
0.05900029,-0.003828671
0.05800029,-0.003794951
0.05700029,-0.003782689
0.05600028,-0.003748968
0.05500029,-0.003721379
0.05400028,-0.003706052
0.05300029,-0.003669266
0.05200029,-0.003647808
0.05100029,-0.003626349
0.05000029,-0.003592629
0.04900029,-0.00357117
0.04800029,-0.00353745
0.04700029,-0.003512926
0.04600029,-0.003488402
0.04500028,-0.00344242
0.04400029,-0.003411765
0.04300028,-0.003359652
0.04200029,-0.003295277
0.04100028,-0.003224771
0.04000029,-0.003129741
0.03900029,-0.003034711
0.03800029,-0.002961139
0.03700029,-0.002902895
0.03600029,-0.002850782
0.03500029,-0.0028048
0.03400028,-0.002761883
0.03300029,-0.002722032
0.03200028,-0.002685246
0.03100029,-0.00264846
0.03000029,-0.002617805
0.02900029,-0.002587151
0.02800029,-0.002556496
0.02700029,-0.002531972
0.02600029,-0.002501317
0.02500029,-0.002470662
0.02400029,-0.002446138
0.02300029,-0.002418549
0.02200029,-0.002397091
0.02100029,-0.002369501
0.02000029,-0.002348043
0.01900029,-0.002323519
0.01800029,-0.002298995
0.01700029,-0.002274471
0.01600029,-0.002249948
0.01500029,-0.002225423
0.01400029,-0.002203965
0.01300029,-0.002179441
0.01200029,-0.002154917
0.01100029,-0.002133459
0.01000029,-0.002108935
0.009000286,-0.002087477
0.008000286,-0.002062953
0.007000286,-0.002038429
0.006000286,-0.002013905
0.005000286,-0.001992447
0.004000286,-0.001964858
0.003000286,-0.001940334
0.002000286,-0.001918875
0.001000286,-0.001891286
2.861023E-07,-0.0018545
0.0009997139,-0.001802387
0.001999714,-0.001753339
0.002999714,-0.001704292
0.003999714,-0.001658309
0.004999714,-0.001612327
0.005999714,-0.00156941
0.006999714,-0.001567063
0.007999714,-0.001529051
0.008999714,-0.001490426
0.009999714,-0.001450881
0.01099971,-0.001395703
0.01199971,-0.00134175
0.01299971,-0.001300366
0.01399971,-0.001264807
0.01499971,-0.001234152
0.01599971,-0.001207482
0.01699971,-0.001182652
0.01799971,-0.001159354
0.01899971,-0.001137282
0.01999971,-0.001117357
0.02099971,-0.001098351
0.02199971,-0.001079651
0.02299971,-0.001063098
0.02399971,-0.001046238
0.02499971,-0.001030297
0.02599971,-0.001015276
0.02699971,-0.001000562
0.02799971,-0.0009861541
0.02899971,-0.0009729725
0.02999971,-0.0009594844
0.03099971,-0.0009466094
0.03199971,-0.0009340409
0.03299971,-0.000921779
0.03399972,-0.0009107432
0.03499971,-0.0008987879
0.03599972,-0.0008877521
0.03699971,-0.0008773295
0.03799972,-0.0008659872
0.03899971,-0.0008561776
0.03999971,-0.0008460616
0.04099971,-0.0008359455
0.04199971,-0.0008264424
0.04299971,-0.0008169395
0.04399971,-0.0008080496
0.04499971,-0.0007985466
0.04599971,-0.0007899632
0.04699972,-0.0007813799
0.04799971,-0.0007727966
0.04899972,-0.0007648263
0.04999971,-0.0007565495
0.05099971,-0.0007485792
0.05199971,-0.000740609
0.05299971,-0.0007332518
0.05399971,-0.0007255881
0.05499971,-0.000718231
0.05599971,-0.0007108737
0.05699971,-0.0007035166
0.05799972,-0.0006967725
0.05899971,-0.0006897219
0.05999972,-0.0006829779
0.06099971,-0.0006762338
0.06199971,-0.0006697963
0.06299971,-0.0006633588
0.06399971,-0.0006569213
0.06499971,-0.0006507903
0.06599972,-0.0006443528
0.06699971,-0.0006382219
0.06799971,-0.0006320909
0.06899972,-0.0006262665
0.06999972,-0.0006207486
0.07099971,-0.0006149242
0.07199971,-0.0006090997
0.07299972,-0.0006038884
0.07399971,-0.000598064
0.07499971,-0.0005928527
0.07599971,-0.0005873349
0.07699972,-0.0005818169
0.07799971,-0.0005769122
0.07899971,-0.0005717009
0.07999972,-0.0005664895
0.08099972,-0.0005612782
0.08199971,-0.0005563734
0.08299971,-0.0005514687
0.08399972,-0.0005465639
0.08499971,-0.0005419657
0.08599971,-0.0005373674
0.08699971,-0.0005324627
0.08799972,-0.000528171
0.08899971,-0.0005235728
0.08999971,-0.000518668
0.09099972,-0.0005146828
0.09199972,-0.0005100847
0.09299971,-0.0005054864
0.09399971,-0.0005015013
0.09499972,-0.0004969031
0.09599971,-0.000492918
0.09699971,-0.0004889328
0.09799971,-0.0004846411
0.09899972,-0.000480656
0.09999971,-0.0004763643
0.1009997,-0.0004723792
0.1019997,-0.0004683941
0.1029997,-0.0004641024
0.1039997,-0.0004604238
0.1049997,-0.0004567453
0.1059997,-0.0004527601
0.1069997,-0.000448775
0.1079997,-0.0004450964
0.1089997,-0.0004414178
0.1099997,-0.0004380458
0.1109997,-0.0004343672
0.1119997,-0.0004306886
0.1129997,-0.0004273166
0.1139997,-0.000423638
0.1149997,-0.0004199595
0.1159997,-0.0004165874
0.1169997,-0.0004132154
0.1179997,-0.0004098434
0.1189997,-0.0004067779
0.1199997,-0.0004030993
0.1209997,-0.0003997273
0.1219997,-0.0003963552
0.1229997,-0.0003932898
0.1239997,-0.0003899177
0.1249997,-0.0003868522
0.1259997,-0.0003834802
0.1269997,-0.0003804147
0.1279997,-0.0003773492
0.1289997,-0.0003739772
0.1299997,-0.0003709117
0.1309997,-0.0003678463
0.1319997,-0.0003647808
0.1329997,-0.0003617153
0.1339997,-0.0003589563
0.1349997,-0.0003555843
0.1359997,-0.0003528254
0.1369997,-0.0003500664
0.1379997,-0.000347001
0.1389997,-0.000344242
0.1399997,-0.0003411766
0.1409997,-0.0003384176
0.1419997,-0.0003356587
0.1429997,-0.0003328998
0.1439997,-0.0003301408
0.1449997,-0.0003270753
0.1459997,-0.0003246229
0.1469997,-0.000321864
0.1479997,-0.0003187985
0.1489997,-0.0003163462
0.1499997,-0.0003135872
0.1509997,-0.0003108283
0.1519997,-0.0003083759
0.1529997,-0.000305617
0.1539997,-0.000302858
0.1549997,-0.0003004056
0.1559997,-0.0002976467
0.1569997,-0.0002951943
0.1579997,-0.0002924354
0.1589997,-0.0002896764
0.1599997,-0.0002872241
0.1609997,-0.0002847717
0.1619997,-0.0002823193
0.1629997,-0.0002798669
0.1639997,-0.000277108
0.1649997,-0.0002746556
0.1659997,-0.0002722032
0.1669997,-0.0002694443
0.1679997,-0.0002672984
0.1689997,-0.0002648461
0.1699997,-0.0002623936
0.1709997,-0.0002599413
0.1719997,-0.0002571823
0.1729997,-0.0002547299
0.1739997,-0.0002522776
0.1749997,-0.0002498252
0.1759997,-0.0002473728
0.1769997,-0.0002449204
0.1779997,-0.000242468
0.1789997,-0.0002400156
0.1799997,-0.0002375632
0.1809997,-0.0002351108
0.1819997,-0.0002326585
0.1829997,-0.0002302061
0.1839997,-0.0002277537
0.1849997,-0.0002253013
0.1859997,-0.0002228489
0.1869997,-0.0002203965
0.1879997,-0.0002176376
0.1889997,-0.0002154918
0.1899997,-0.0002130394
0.1909997,-0.0002102804
0.1919997,-0.0002078281
0.1929997,-0.0002053757
0.1939997,-0.0002029233
0.1949997,-0.0002004709
0.1959997,-0.000197712
0.1969997,-0.0001952596
0.1979997,-0.0001925007
0.1989997,-0.0001897417
0.1999997,-0.0001872893
0.2009997,-0.0001848369
0.2019997,-0.000182078
0.2029997,-0.0001796256
0.2039997,-0.0001765601
0.2049997,-0.0001738012
0.2059997,-0.0001710423
0.2069997,-0.0001682833
0.2079997,-0.0001655244
0.2089997,-0.0001627655
0.2099997,-0.0001600065
0.2109997,-0.0001602623
0.2119997,-0.0001573501
0.2129997,-0.0001545298
0.2139997,-0.0001517096
0.2149997,-0.0001485521
0.2159997,-0.0001454253
0.2169997,-0.0001423598
0.2179997,-0.0001391411
0.2189997,-0.0001360756
0.2199997,-0.0001327955
0.2209997,-0.0001294542
0.2219997,-0.0001260821
0.2229997,-0.0001226794
0.2239997,-0.0001193687
0.2249997,-0.0001158128
0.2259997,-0.0001122262
0.2269997,-0.0001085782
0.2279997,-0.0001046851
0.2289997,-0.0001010984
0.2299997,-9.73279E-05
0.2309997,-9.315884E-05
0.2319997,-8.920438E-05
0.2329997,-8.506597E-05
0.2339997,-8.092757E-05
0.2349997,-7.669721E-05
0.2359997,-7.209898E-05
0.2369997,-6.762338E-05
0.2379997,-6.308646E-05
0.2389997,-5.842693E-05
0.2399997,-5.358347E-05
0.2409997,-4.849477E-05
0.2419997,-4.355934E-05
0.2429997,-3.847064E-05
0.2439997,-3.310604E-05
0.2449997,-2.755752E-05
0.2459997,-2.207031E-05
0.2469997,-1.621523E-05
0.2479997,-1.048278E-05
0.2489997,-4.567452E-06
0.2499997,1.655477E-06
0.2509997,7.976502E-06
0.2519997,1.462247E-05
0.2529997,2.124698E-05
0.2539997,2.820361E-05
0.2549997,3.534618E-05
0.2559997,4.267268E-05
0.2569997,5.027508E-05
0.2579997,5.803075E-05
0.2589997,6.584774E-05
0.2599997,7.415519E-05
0.2609997,8.258527E-05
0.2619997,9.132189E-05
0.2629997,0.0001007636
0.2639997,0.00010996
0.2649997,0.0001198002
0.2659997,0.0001300389
0.2669997,0.0001403389
0.2679997,0.0001515586
0.2689997,0.0001631461
0.2699997,0.0001750709
0.2709997,0.0001878846
0.2719997,0.0002006676
0.2729997,0.0002145543
0.2739997,0.000229238
0.2749997,0.0002445041
0.2759997,0.000261119
0.2769997,0.0002780711
0.2779997,0.000296372
0.2789997,0.000319435
0.2799997,0.0003399737
0.2809997,0.0003626583
0.2819997,0.0003868756
0.2829997,0.0004129322
0.2839997,0.0004420543
0.2849997,0.0004730157
0.2859997,0.0005076557
0.2869997,0.0005459742
0.2879997,0.0005876647
0.2889997,0.0006354863
0.2899997,0.0006885191
0.2909997,0.000748296
0.2919997,0.0008172694
0.2929997,0.0008948261
0.2939997,0.0009843382
0.2949997,0.001086725
0.2959997,0.00120352
0.2969997,0.001338401
0.2979997,0.001492289
0.2989997,0.001667634
0.2999997,0.001866891
0.3009997,0.002090058
0.3019997,0.002337749
0.3029997,0.002609964
0.3039997,0.002905783
0.3049997,0.003252594
0.3059997,0.003583666
0.3069997,0.003939262
0.3079997,0.004310185
0.3089997,0.004687239
0.3099997,0.005070425
0.3109997,0.005465872
0.3119997,0.005861319
0.3129997,0.006262898
0.3139997,0.006667541
0.3149997,0.007072185
0.3159997,0.007473763
0.3169997,0.007878407
0.3179997,0.00827692
0.3189997,0.008672367
0.3199997,0.009067814
0.3209997,0.009450999
0.3219997,0.009834184
0.3229997,0.0102143
0.3239997,0.01058523
0.3249997,0.01095615
0.3259997,0.01132401
0.3269997,0.01168267
0.3279997,0.01204133
0.3289997,0.01239999
0.3299997,0.01274639
0.3309997,0.01309586
0.3319997,0.01344532
0.3329997,0.01378253
0.3339997,0.01412586
0.3349997,0.01446613
0.3359997,0.01480027
0.3369997,0.01514053
0.3379997,0.01547161
0.3389997,0.01580881
0.3399997,0.01614295
0.3409997,0.01647095
0.3419997,0.01681122
0.3429997,0.01713616
0.3439997,0.01746417
0.3449997,0.01779831
0.3459997,0.01813245
0.3469997,0.01846045
0.3479997,0.01879459
0.3489997,0.01912566
0.3499997,0.01945367
0.3509997,0.01978781
0.3519997,0.02012501
0.3529997,0.02044689
0.3539997,0.02078716
0.3549997,0.02112436
0.3559997,0.0214493
0.3569997,0.02179263
0.3579997,0.02212984
0.3589997,0.02245784
0.3599997,0.02280118
0.3609997,0.02312918
0.3619997,0.02346639
0.3629997,0.02380972
0.3639997,0.0241316
0.3649997,0.02448106
0.3659997,0.02481213
0.3669997,0.02514014
0.3679997,0.02546815
0.3689997,0.02579309
0.3699997,0.02613029
0.3709997,0.0264491
0.3719997,0.02678324
0.3729997,0.02710818
0.3739997,0.02741779
0.3749997,0.02775193
0.3759997,0.02805848
0.3769997,0.02837422
0.3779997,0.02869916
0.3789997,0.02899345
0.3799997,0.0293092
0.3809997,0.02961574
0.3819997,0.02990697
0.3829997,0.0309932
0.3839997,0.03123844
0.3849997,0.03154498
0.3859997,0.03185153
0.3869997,0.03212743
0.3879997,0.03243398
0.3889997,0.03270987
0.3899997,0.03301642
0.3909997,0.03332296
0.3919997,0.03359886
0.3929997,0.03387475
0.3939997,0.03415065
0.3949997,0.03442654
0.3959997,0.03470243
0.3969997,0.03494767
0.3979997,0.03522356
0.3989997,0.03549946
0.3999997,0.03571404
0.4009997,0.03595928
0.4019997,0.03620452
0.4029997,0.0364191
0.4039997,0.03666434
0.4049997,0.03687892
0.4059997,0.03709351
0.4069997,0.03730809
0.4079997,0.03752267
0.4089997,0.03770661
0.4099997,0.03792119
0.4109997,0.03807446
0.4119997,0.03825839
0.4129997,0.03841167
0.4139997,0.03853428
0.4149997,0.03868756
0.4159997,0.03877952
0.4169997,0.03890214
0.4179997,0.03902476
0.4189997,0.03908607
0.4199997,0.03917804
0.4209997,0.03920869
0.4219997,0.03920869
0.4229997,0.03923934
0.4239997,0.03917804
0.4249997,0.03914738
0.4259997,0.03908607
0.4269997,0.03896345
0.4279997,0.03884083
0.4289997,0.03862625
0.4299997,0.03841167
0.4309997,0.03813577
0.4319997,0.03776791
0.4329997,0.03740006
0.4339997,0.03690958
0.4349997,0.03635779
0.4359997,0.03571404
0.4369997,0.03497833
0.4379997,0.03408933
0.4389997,0.03313904
0.4399997,0.03200481
0.4409997,0.03074796
0.4419997,0.02939915
0.4429997,0.02792772
0.4439997,0.02636432
0.4449997,0.02477027
0.4459997,0.02323752
0.4469997,0.02170478
0.4479997,0.02029466
0.4489997,0.01903781
0.4499997,0.01784228
0.4509997,0.01676936
0.4519997,0.01584971
0.4529997,0.01502203
0.4539997,0.01428632
0.4549997,0.01367322
0.4559997,0.01315209
0.4569997,0.01224365
0.4579997,0.01188499
0.4589997,0.01159377
0.4599997,0.01139145
0.4609997,0.01121059
0.4619997,0.01110636
0.4629997,0.01102666
0.4639997,0.01097761
0.4649997,0.01098681
0.4659997,0.01099907
0.4669997,0.01105731
0.4679997,0.01113701
0.4689997,0.01122285
0.4699997,0.01134853
0.4709997,0.01147422
0.4719997,0.01161523
0.4729997,0.01179609
0.4739997,0.01195856
0.4749997,0.01214249
0.4759997,0.01234788
0.4769997,0.0125502
0.4779997,0.01276172
0.4789997,0.01298857
0.4799997,0.01322767
0.4809997,0.01346985
0.4819997,0.01371202
0.4829997,0.01398178
0.4839997,0.01423928
0.4849997,0.01450291
0.4859997,0.01480027
0.4869997,0.01506696
0.4879997,0.01536738
0.4889997,0.01567086
0.4899997,0.01595595
0.4909997,0.01626863
0.4919997,0.01657212
0.4929997,0.01688173
0.4939997,0.0172036
0.4949997,0.01751628
0.4959997,0.01784429
0.4969997,0.01818456
0.4979997,0.01850643
0.4989997,0.0188559
0.4999997,0.0192023
0.5009997,0.01952724
0.5019997,0.01989203
0.5029997,0.02024763
0.5039997,0.02058483
0.5049997,0.02095575
0.5059997,0.02131748
0.5069997,0.02167001
0.5079997,0.02204707
0.5089997,0.02240879
0.5099997,0.02278278
0.5109997,0.02315984
0.5119997,0.02353996
0.5129997,0.02392621
0.5139997,0.02430326
0.5149997,0.02468338
0.5159997,0.02507883
0.5169997,0.02545588
0.5179997,0.02585133
0.5189997,0.02624984
0.5199997,0.02662996
0.5209997,0.02703461
0.5219997,0.02743312
0.5229997,0.02782244
0.5239997,0.02823015
0.5249997,0.02863785
0.5259997,0.02903024
0.5269997,0.02944408
0.5279997,0.02984259
0.5289997,0.03102385
0.5299997,0.03142237
0.5309997,0.03182088
0.5319997,0.03225004
0.5329997,0.03264856
0.5339997,0.03307773
0.5349997,0.03350689
0.5359997,0.03390541
0.5369997,0.03436523
0.5379997,0.03476374
0.5389997,0.03519291
0.5399997,0.03565273
0.5409997,0.03605124
0.5419997,0.03648041
0.5429997,0.03690958
0.5439997,0.03733874
0.5449997,0.03779857
0.5459997,0.03822774
0.5469997,0.0386569
0.5479997,0.03911673
0.5489997,0.03954589
0.5499997,0.03997506
0.5509997,0.04043488
0.5519997,0.04086405
0.5529997,0.04129322
0.5539997,0.04175304
0.5549997,0.04218221
0.5559997,0.04264203
0.5569997,0.0430712
0.5579997,0.04353102
0.5589997,0.04399084
0.5599997,0.04442001
0.5609997,0.04487984
0.5619997,0.04533966
0.5629997,0.04576882
0.5639997,0.04622864
0.5649997,0.04668847
0.5659997,0.04714829
0.5669997,0.04760811
0.5679997,0.04803728
0.5689997,0.0484971
0.5699997,0.04895693
0.5709997,0.04941675
0.5719997,0.04987657
0.5729997,0.05030574
0.5739997,0.05076556
0.5749997,0.05122538
0.5759997,0.0516852
0.5769997,0.05214503
0.5779997,0.05260485
0.5789997,0.05306467
0.5799997,0.05352449
0.5809997,0.05398431
0.5819997,0.05444414
0.5829997,0.05490396
0.5839997,0.05539444
0.5849997,0.05582361
0.5859997,0.05631408
0.5869997,0.05677391
0.5879997,0.05723373
0.5889997,0.05766289
0.5899997,0.05815337
0.5909997,0.05861319
0.5919997,0.05907302
0.5929997,0.0595635
0.5939997,0.06005397
0.5949997,0.06048314
0.5959997,0.06097361
0.5969997,0.06143344
0.5979997,0.06189326
0.5989997,0.06238374
0.5999997,0.06284356
0.6009997,0.06330338
0.6019997,0.06376321
0.6029997,0.06425368
0.6039997,0.06474417
0.6049997,0.06517333
0.6059997,0.06569446
0.6069997,0.06615429
0.6079997,0.06658345
0.6089997,0.06707393
0.6099997,0.06756441
0.6109997,0.06802423
0.6119997,0.06848405
0.6129997,0.06897452
0.6139997,0.069465
0.6149997,0.06992482
0.6159997,0.0704153
0.6169997,0.07090578
0.6179997,0.07133495
0.6189997,0.07182543
0.6199997,0.0723159
0.6209997,0.07277572
0.6219997,0.0732662
0.6229997,0.07378733
0.6239997,0.07424716
0.6249997,0.07470698
0.6259997,0.07519746
0.6269997,0.07568794
0.6279997,0.0761171
0.6289997,0.07663824
0.6299997,0.07709806
0.6309997,0.07755788
0.6319997,0.07807901
0.6329997,0.07853883
0.6339997,0.07902931
0.6349997,0.07951979
0.6359997,0.07997961
0.6369997,0.08050074
0.6379997,0.08096056
0.6389997,0.08142038
0.6399997,0.08191086
0.6409997,0.08237069
0.6419997,0.08289181
0.6429997,0.08335164
0.6439997,0.08384212
0.6449997,0.08433259
0.6459997,0.08479242
0.6469997,0.08531355
0.6479997,0.08577337
0.6489997,0.08626385
0.6499997,0.08678498
0.6509997,0.08721415
0.6519997,0.08773528
0.6529997,0.08822576
0.6539997,0.08868558
0.6549997,0.08917606
0.6559997,0.08963588
0.6569997,0.09015701
0.6579997,0.09061684
0.6589997,0.09110731
0.6599997,0.09162845
0.6609997,0.09208827
0.6619997,0.09257875
0.6629997,0.09306922
0.6639997,0.0935597
0.6649997,0.09401952
0.6659997,0.09451
0.6669997,0.09503113
0.6679997,0.09549095
0.6689997,0.09598143
0.6699997,0.09650256
0.6709997,0.09696238
0.6719997,0.09745286
0.6729997,0.09794334
0.6739997,0.09840316
0.6749997,0.09889363
0.6759997,0.09938411
0.6769997,0.09987459
0.6779997,0.1003957
0.6789997,0.1008862
0.6799997,0.1013767
0.6809997,0.1018672
0.6819997,0.1023576
0.6829997,0.1028481
0.6839997,0.1033386
0.6849997,0.1037984
0.6859997,0.1043502
0.6869997,0.1048407
0.6879997,0.1053005
0.6889997,0.1058523
0.6899997,0.1063121
0.6909997,0.1068026
0.6919997,0.1072931
0.6929997,0.1077835
0.6939997,0.108274
0.6949997,0.1087338
0.6959997,0.109255
0.6969997,0.1097454
0.6979997,0.1102359
0.6989997,0.1107571
0.6999997,0.110849
0.6990004,0.1103892
0.6980004,0.1098681
0.6970004,0.1093776
0.6960004,0.1089178
0.6950004,0.1083966
0.6940004,0.1079062
0.6930004,0.1074463
0.6920004,0.1069252
0.6910004,0.106496
0.6900004,0.1059749
0.6890004,0.1054538
0.6880004,0.1050246
0.6870004,0.1045035
0.6860004,0.104013
0.6850004,0.1035532
0.6840004,0.1030627
0.6830004,0.1025722
0.6820004,0.1021124
0.6810004,0.1015913
0.6800004,0.1011314
0.6790004,0.1005796
0.6780004,0.1001198
0.6770004,0.0995987
0.6760004,0.09910822
0.6750004,0.09867906
0.6740004,0.09815792
0.6730004,0.0976981
0.6720004,0.09726893
0.6710004,0.09671714
0.6700004,0.09628798
0.6690004,0.09576684
0.6680004,0.09527637
0.6670004,0.09481654
0.6660004,0.09429541
0.6650004,0.09383559
0.6640004,0.09334511
0.6630004,0.09285464
0.6620004,0.09239481
0.6610004,0.09190433
0.6600004,0.09141386
0.6590004,0.09092338
0.6580004,0.0904329
0.6570004,0.08997308
0.6560004,0.08945195
0.6550004,0.08899213
0.6540004,0.08850165
0.6530004,0.08804183
0.6520004,0.08755135
0.6510004,0.08709153
0.6500004,0.08660105
0.6490004,0.08611058
0.6480004,0.0856201
0.6470004,0.08512962
0.6460004,0.0846698
0.6450004,0.08414867
0.6440004,0.08365819
0.6430004,0.08319836
0.6420004,0.08273854
0.6410004,0.08227872
0.6400004,0.08178824
0.6390004,0.08132842
0.6380004,0.08083794
0.6370004,0.08034747
0.6360004,0.0799183
0.6350004,0.07942782
0.6340004,0.07893734
0.6330004,0.07844687
0.6320004,0.07795639
0.6310004,0.07749657
0.6300004,0.07700609
0.6290004,0.07651561
0.6280004,0.07605579
0.6270004,0.07556532
0.6260004,0.07510549
0.6250004,0.07467633
0.6240004,0.07418585
0.6230004,0.07372602
0.6220004,0.07323555
0.6210004,0.07277572
0.6200004,0.07228525
0.6190004,0.07179477
0.6180004,0.07133495
0.6170004,0.07084447
0.6160004,0.07038464
0.6150004,0.06992482
0.6140004,0.0694037
0.6130004,0.06897452
0.6120004,0.06848405
0.6110004,0.06799357
0.6100004,0.06756441
0.6090004,0.06707393
0.6080004,0.06661411
0.6070004,0.06615429
0.6060004,0.06569446
0.6050004,0.06520399
0.6040004,0.06477482
0.6030004,0.06428434
0.6020004,0.06379386
0.6010004,0.06336469
0.6000004,0.06290487
0.5990004,0.0624144
0.5980004,0.06195457
0.5970004,0.06149475
0.5960004,0.06100427
0.5950004,0.06054445
0.5940004,0.06008463
0.5930004,0.0596248
0.5920004,0.05916498
0.5910004,0.05870516
0.5900004,0.05824534
0.5890004,0.05778552
0.5880004,0.05732569
0.5870004,0.05686587
0.5860004,0.05640605
0.5850004,0.05591557
0.5840004,0.05548641
0.5830004,0.05499592
0.5820004,0.0545361
0.5810004,0.05413759
0.5800004,0.05361646
0.5790004,0.05318729
0.5780004,0.05272747
0.5770004,0.05223699
0.5760004,0.05180782
0.5750004,0.051348
0.5740004,0.05088818
0.5730004,0.05042836
0.5720004,0.04996854
0.5710004,0.04953937
0.5700004,0.04907954
0.5690004,0.04865038
0.5680004,0.04819056
0.5670004,0.04773073
0.5660004,0.04730156
0.5650004,0.04681109
0.5640004,0.04638192
0.5630004,0.0459221
0.5620004,0.04546228
0.5610004,0.04503311
0.5600004,0.04457328
0.5590004,0.04411346
0.5580004,0.0436843
0.5570004,0.04322447
0.5560004,0.0427953
0.5550004,0.04233548
0.5540004,0.04190632
0.5530004,0.04147715
0.5520004,0.04101732
0.5510004,0.0405575
0.5500004,0.04012834
0.5490004,0.03969917
0.5480004,0.03927
0.5470004,0.03881018
0.5460004,0.03838101
0.5450004,0.03795184
0.5440004,0.03749202
0.5430004,0.03706285
0.5420004,0.03663369
0.5410004,0.03620452
0.5400004,0.03577535
0.5390004,0.03534618
0.5380004,0.03488636
0.5370004,0.03448785
0.5360004,0.03405868
0.5350004,0.03359886
0.5340004,0.03320035
0.5330004,0.03277118
0.5320004,0.03234201
0.5310004,0.03191284
0.5300004,0.03145302
0.5290004,0.03105451
0.5280004,0.03068665
0.5270004,0.03022683
0.5260004,0.02982831
0.5250004,0.02939915
0.5240004,0.02896998
0.5230004,0.02854081
0.5220004,0.0281423
0.5210004,0.02774378
0.5200004,0.02731462
0.5190004,0.02688545
0.5180004,0.02648694
0.5170004,0.02608843
0.5160004,0.02565926
0.5150004,0.02526074
0.5140004,0.02486223
0.5130004,0.02446372
0.5120004,0.02406521
0.5110004,0.02363604
0.5100004,0.02323752
0.5090004,0.02286967
0.5080004,0.0224405
0.5070004,0.02207264
0.5060004,0.02164347
0.5050004,0.02127562
0.5040004,0.0208771
0.5030004,0.02047859
0.5020004,0.02011073
0.5010004,0.01971222
0.5000004,0.01934436
0.4990004,0.01897651
0.4980004,0.01857799
0.4970004,0.01824079
0.4960004,0.01784228
0.4950004,0.01747442
0.4940004,0.01710656
0.4930004,0.0167387
0.4920004,0.01637085
0.4910004,0.01600299
0.4900004,0.01563513
0.4890004,0.01526727
0.4880004,0.01493007
0.4870004,0.01456221
0.4860004,0.01419435
0.4850004,0.01385715
0.4840004,0.01351995
0.4830004,0.01315209
0.4820004,0.01234175
0.4810004,0.01200455
0.4800004,0.01167041
0.4790004,0.01133627
0.4780004,0.01101133
0.4770004,0.01069252
0.4760004,0.01036451
0.4750004,0.01005183
0.4740004,0.009736089
0.4730004,0.009420345
0.4720004,0.009116862
0.4710004,0.008807248
0.4700004,0.008503765
0.4690004,0.008209479
0.4680004,0.007912127
0.4670004,0.007620906
0.4660004,0.007332751
0.4650004,0.007044595
0.4640004,0.006768702
0.4630004,0.006486678
0.4620004,0.006216915
0.4610004,0.005944087
0.4600004,0.00567739
0.4590004,0.00541989
0.4580004,0.005159324
0.4570004,0.004911019
0.4560004,0.004665781
0.4550004,0.004417477
0.4540004,0.004178369
0.4530004,0.003945393
0.4520004,0.003712416
0.4510004,0.003488636
0.4500004,0.003267921
0.4490004,0.003050272
0.4480004,0.002838754
0.4470004,0.002630301
0.4460004,0.002431044
0.4450004,0.002231788
0.4440004,0.002038663
0.4430004,0.001854734
0.4420004,0.001670805
0.4410004,0.001493007
0.4400004,0.001324405
0.4390004,0.001149673
0.4380004,0.0009598143
0.4370004,0.0008022485
0.4360004,0.0006471351
0.4350004,0.0005036705
0.4340004,0.0003577535
0.4330004,0.0002204199
0.4320004,8.799104E-05
0.4310004,-4.443782E-05
0.4300004,-0.0001690909
0.4290004,-0.0002903
0.4280004,-0.0004064713
0.4270004,-0.0005128436
0.4260004,-0.0006219748
0.4250004,-0.0007237488
0.4240004,-0.0008181657
0.4230004,-0.0009168742
0.4220004,-0.001006386
0.4210004,-0.001090687
0.4200004,-0.001174375
0.4190004,-0.001249479
0.4180004,-0.001325197
0.4170004,-0.00139509
0.4160004,-0.001463143
0.4150004,-0.001530584
0.4140004,-0.001588215
0.4130004,-0.001648605
0.4120004,-0.001706236
0.4110004,-0.001754364
0.4100004,-0.001812302
0.4090004,-0.001868094
0.4080004,-0.001906412
0.4070004,-0.001949329
0.4060004,-0.001986728
0.4050004,-0.00202382
0.4040004,-0.002059686
0.4030004,-0.0020931
0.4020004,-0.00212682
0.4010004,-0.002155942
0.4000004,-0.002183838
0.3990004,-0.00221388
0.3980004,-0.002237177
0.3970004,-0.002263541
0.3960004,-0.002291437
0.3950004,-0.00230983
0.3940004,-0.002332208
0.3930004,-0.002354586
0.3920004,-0.002372059
0.3910004,-0.002394743
0.3900004,-0.00241283
0.3890004,-0.00243061
0.3880004,-0.002448696
0.3870004,-0.002463717
0.3860004,-0.00248211
0.3850004,-0.002497744
0.3840004,-0.002511845
0.3830004,-0.002529625
0.3820004,-0.002541273
0.3810004,-0.002558134
0.3800004,-0.00257622
0.3790004,-0.002586336
0.3780004,-0.002606262
0.3770004,-0.002622815
0.3760004,-0.002632625
0.3750004,-0.002652244
0.3740004,-0.002665732
0.3730004,-0.00268106
0.3720004,-0.002698839
0.3710004,-0.00271386
0.3700004,-0.00273256
0.3690004,-0.002746967
0.3680004,-0.002762908
0.3670004,-0.002785899
0.3660004,-0.002798468
0.3650004,-0.002820539
0.3640004,-0.002842304
0.3630004,-0.002856099
0.3620004,-0.002879703
0.3610004,-0.002900854
0.3600004,-0.00291986
0.3590004,-0.002945611
0.3580004,-0.002970134
0.3570004,-0.002994352
0.3560004,-0.003019182
0.3550004,-0.003010187
0.3540004,-0.003034711
0.3530004,-0.003059235
0.3520004,-0.003086824
0.3510004,-0.00312361
0.3500004,-0.003148134
0.3490004,-0.003181854
0.3480004,-0.00321864
0.3470004,-0.003249295
0.3460004,-0.003286081
0.3450004,-0.003325932
0.3440004,-0.003365783
0.3430004,-0.003405634
0.3420004,-0.003445486
0.3410004,-0.003488402
0.3400004,-0.003534385
0.3390004,-0.003577302
0.3380004,-0.003629415
0.3370004,-0.003675397
0.3360004,-0.003724444
0.3350004,-0.003785754
0.3340004,-0.003834802
0.3330004,-0.00388998
0.3320004,-0.00395129
0.3310004,-0.004006469
0.3300004,-0.004073909
0.3290004,-0.004135219
0.3280004,-0.00420266
0.3270004,-0.004273166
0.3260004,-0.004340607
0.3250004,-0.004414178
0.3240004,-0.004490815
0.3230004,-0.004564387
0.3220004,-0.004644089
0.3210004,-0.004726857
0.3200004,-0.004809625
0.3190004,-0.004898524
0.3180004,-0.004987423
0.3170004,-0.005076322
0.3160004,-0.005171353
0.3150004,-0.005263316
0.3140004,-0.005361412
0.3130004,-0.005462573
0.3120004,-0.005563734
0.3110004,-0.005671026
0.3100004,-0.005778318
0.3090004,-0.00588561
0.3080004,-0.006002098
0.3070004,-0.006121652
0.3060004,-0.00623814
0.3050004,-0.006363825
0.3040004,-0.006483379
0.3030004,-0.006609064
0.3020004,-0.006737814
0.3010004,-0.006866564
0.3000004,-0.007001445
0.2990004,-0.007136327
0.2980004,-0.007277339
0.2970004,-0.007418351
0.2960004,-0.007562429
0.2950004,-0.007709572
0.2940004,-0.00785978
0.2930004,-0.008009989
0.2920004,-0.008166328
0.2910004,-0.008319603
0.2900004,-0.008479008
0.2890004,-0.008644544
0.2880004,-0.00881008
0.2870004,-0.008978682
0.2860004,-0.009150349
0.2850004,-0.00931895
0.2840004,-0.009499813
0.2830004,-0.009677611
0.2820004,-0.00985541
0.2810004,-0.01003934
0.2800004,-0.0102202
0.2790004,-0.01041333
0.2780004,-0.01060032
0.2770004,-0.01079345
0.2760004,-0.0109927
0.2750004,-0.01118583
0.2740004,-0.01139122
0.2730004,-0.0115966
0.2720004,-0.0117928
0.2710004,-0.01201044
0.2700004,-0.01221277
0.2690004,-0.01242429
0.2680004,-0.01263887
0.2670004,-0.01285345
0.2660004,-0.01307417
0.2650004,-0.01329182
0.2640004,-0.0135156
0.2630004,-0.01374857
0.2620004,-0.01396622
0.2610004,-0.01419613
0.2600004,-0.01442911
0.2590004,-0.01465596
0.2580004,-0.01489506
0.2570004,-0.01513417
0.2560004,-0.01537634
0.2550004,-0.01561545
0.2540004,-0.01585762
0.2530004,-0.01611206
0.2520004,-0.01635423
0.2510004,-0.01659947
0.2500004,-0.01685697
0.2490004,-0.01710221
0.2480004,-0.01735971
0.2470004,-0.01762334
0.2460004,-0.01787165
0.2450004,-0.01813528
0.2440004,-0.01840504
0.2430004,-0.01866561
0.2420004,-0.01893537
0.2410004,-0.01920207
0.2400004,-0.0194657
0.2390004,-0.01974466
0.2380004,-0.02001135
0.2370004,-0.02029031
0.2360004,-0.02056927
0.2350004,-0.02083903
0.2340004,-0.02112719
0.2330004,-0.02140308
0.2320004,-0.02168511
0.2310004,-0.0219702
0.2300004,-0.02225222
0.2290004,-0.02252505
0.2280004,-0.02280401
0.2270004,-0.02309829
0.2260004,-0.02337112
0.2250004,-0.02365928
0.2240004,-0.02396276
0.2230004,-0.02424785
0.2220004,-0.02453601
0.2210004,-0.02484562
0.2200004,-0.02513377
0.2190004,-0.02542499
0.2180004,-0.02573154
0.2170004,-0.02602276
0.2160004,-0.02631398
0.2150004,-0.02661134
0.2140004,-0.0268903
0.2130004,-0.02717845
0.2120004,-0.02746967
0.2110004,-0.02774557
0.2100004,-0.02802452
0.2090004,-0.02829735
0.2080004,-0.02856405
0.2070004,-0.02883075
0.2060004,-0.02908212
0.2050004,-0.02933962
0.2040004,-0.02958792
0.2030004,-0.0298209
0.2020004,-0.03005387
0.2010004,-0.03026846
0.2000004,-0.03059235
0.1990004,-0.03077628
0.1980004,-0.03096021
0.1970004,-0.03114414
0.1960004,-0.03132806
0.1950004,-0.03148134
0.1940004,-0.03163461
0.1930004,-0.03175723
0.1920004,-0.03191051
0.1910004,-0.03200247
0.1900004,-0.03209443
0.1890004,-0.0321864
0.1880004,-0.03221706
0.1870004,-0.03227837
0.1860004,-0.03230902
0.1850004,-0.03227837
0.1840004,-0.03227837
0.1830004,-0.03221706
0.1820004,-0.03212509
0.1810004,-0.03200247
0.1800004,-0.03181854
0.1790004,-0.03160396
0.1780004,-0.03132806
0.1770004,-0.03096021
0.1760004,-0.03056169
0.1750004,-0.03000991
0.1740004,-0.02939681
0.1730004,-0.02872241
0.1720004,-0.02789472
0.1710004,-0.02703639
0.1700004,-0.02608609
0.1690004,-0.02504382
0.1680004,-0.02397091
0.1670004,-0.02283668
0.1660004,-0.0217331
0.1650004,-0.02056822
0.1640004,-0.01946465
0.1630004,-0.01839173
0.1620004,-0.01731881
0.1610004,-0.01636851
0.1600004,-0.01541821
0.1590004,-0.01468355
0.1580004,-0.01388345
0.1570004,-0.01317533
0.1560004,-0.01256223
0.1550004,-0.01195833
0.1540004,-0.01144026
0.1530004,-0.01101723
0.1520004,-0.01053595
0.1510004,-0.01014663
0.1500004,-0.009812493
0.1490004,-0.009484487
0.1480004,-0.009193265
0.1470004,-0.008948027
0.1460004,-0.008751836
0.1450004,-0.008509663
0.1440004,-0.008304276
0.1430004,-0.008175525
0.1420004,-0.007985465
0.1410004,-0.007850585
0.1400004,-0.007740227
0.1390004,-0.007583887
0.1380004,-0.007458202
0.1370004,-0.007341714
0.1360004,-0.007246684
0.1350004,-0.007136327
0.1340004,-0.007022904
0.1330004,-0.006943201
0.1320004,-0.006848171
0.1310004,-0.006753141
0.1300004,-0.006694897
0.1290004,-0.006615194
0.1280004,-0.006526296
0.1270004,-0.006458855
0.1260004,-0.006376087
0.1250004,-0.006323974
0.1240004,-0.006247337
0.1230004,-0.006186027
0.1220004,-0.00614311
0.1210004,-0.006069539
0.1200004,-0.006008229
0.1190004,-0.005968377
0.1180004,-0.005897872
0.1170004,-0.005851889
0.1160004,-0.005802842
0.1150004,-0.005744598
0.1140004,-0.005701681
0.1130004,-0.005652633
0.1120004,-0.00560665
0.1110004,-0.005557603
0.1100004,-0.005511621
0.1090004,-0.0054779
0.1080004,-0.005428853
0.1070004,-0.00538287
0.1060004,-0.005355281
0.1050004,-0.00531543
0.1040004,-0.005263316
0.1030004,-0.005244924
0.1020004,-0.005195876
0.1010004,-0.005159091
0.1000004,-0.005128435
0.09900038,-0.005085519
0.09800038,-0.005051799
0.09700038,-0.005021143
0.09600038,-0.004990489
0.09500038,-0.004959834
0.09400038,-0.004919983
0.09300038,-0.004892393
0.09200038,-0.004864804
0.09100038,-0.004824953
0.09000038,-0.004797364
0.08900038,-0.00477284
0.08800038,-0.004732988
0.08700038,-0.004708464
0.08600038,-0.004690072
0.08500038,-0.004644089
0.08400038,-0.004631828
0.08300038,-0.004598107
0.08200038,-0.004567452
0.08100038,-0.004542928
0.08000038,-0.004509208
0.07900038,-0.004490815
0.07800038,-0.00446016
0.07700038,-0.004429505
0.07600038,-0.004411113
0.07500038,-0.004386589
0.07400038,-0.004355934
0.07300038,-0.004325279
0.07200038,-0.004306886
0.07100038,-0.004279297
0.07000038,-0.004251707
0.06900038,-0.004233315
0.06800038,-0.004205726
0.06700038,-0.004181202
0.06600038,-0.004165874
0.06500039,-0.004132153
0.06400038,-0.004110695
0.06300038,-0.004089237
0.06200038,-0.004064713
0.06100038,-0.00404632
0.06000038,-0.004015665
0.05900038,-0.004003403
0.05800038,-0.003975814
0.05700038,-0.003948225
0.05600038,-0.003932897
0.05500038,-0.003905308
0.05400038,-0.00388385
0.05300038,-0.003871588
0.05200038,-0.003837867
0.05100038,-0.003819474
0.05000038,-0.003798016
0.04900038,-0.003773492
0.04800038,-0.003752034
0.04700038,-0.003730575
0.04600038,-0.003706052
0.04500038,-0.003684593
0.04400038,-0.0036662
0.04300038,-0.003647808
0.04200038,-0.003614087
0.04100038,-0.003601825
0.04000038,-0.003574236
0.03900038,-0.003546647
0.03800038,-0.00353745
0.03700038,-0.00350373
0.03600038,-0.003482271
0.03500038,-0.003466944
0.03400038,-0.003433224
0.03300038,-0.003414831
0.03200038,-0.003387242
0.03100038,-0.003356587
0.03000038,-0.003338194
0.02900038,-0.003301408
0.02800038,-0.003270753
0.02700038,-0.003227836
0.02600038,-0.003172658
0.02500038,-0.003105217
0.02400038,-0.003016318
0.02300038,-0.002936616
0.02200038,-0.00287224
0.02100038,-0.002820127
0.02000038,-0.00277721
0.01900038,-0.002734293
0.01800038,-0.002700574
0.01700038,-0.002663787
0.01600038,-0.002627002
0.01500038,-0.002596347
0.01400038,-0.002559561
0.01300038,-0.002525841
0.01200038,-0.002495186
0.01100038,-0.002461466
0.01000038,-0.002430811
0.009000381,-0.002406287
0.008000381,-0.002378698
0.007000382,-0.002357239
0.006000381,-0.00232965
0.005000381,-0.002302061
0.004000382,-0.002280602
0.003000381,-0.002256078
0.002000381,-0.002228489
0.001000381,-0.002210096
3.814697E-07,-0.002170245
0.0009996186,-0.002121197
0.001999618,-0.002072149
0.002999618,-0.002029233
0.003999618,-0.001986316
0.004999619,-0.001943399
0.005999619,-0.001906613
0.006999618,-0.001866762
0.007999619,-0.001833042
0.008999619,-0.001799321
0.009999619,-0.001762536
0.01099962,-0.001731881
0.01199962,-0.001701226
0.01299962,-0.001667506
0.01399962,-0.001636851
0.01499962,-0.001606196
0.01599962,-0.001612739
0.01699962,-0.00158331
0.01799962,-0.001552962
0.01899962,-0.00152292
0.01999962,-0.001493492
0.02099962,-0.001464369
0.02199962,-0.001436474
0.02299962,-0.001407045
0.02399962,-0.001378536
0.02499962,-0.00135156
0.02599962,-0.001322744
0.02699962,-0.001291783
0.02799962,-0.001247946
0.02899962,-0.001189702
0.02999962,-0.001147092
0.03099962,-0.001113985
0.03199962,-0.001086089
0.03299962,-0.001062178
0.03399962,-0.001041026
0.03499962,-0.001021101
0.03599962,-0.001003321
0.03699962,-0.0009861541
0.03799962,-0.0009702136
0.03899962,-0.0009551927
0.03999962,-0.0009404784
0.04099962,-0.0009266838
0.04199962,-0.0009135022
0.04299962,-0.0009009338
0.04399962,-0.0008886718
0.04499962,-0.0008767164
0.04599962,-0.0008653741
0.04699962,-0.0008540318
0.04799962,-0.0008436092
0.04899962,-0.00083288
0.04999962,-0.0008227639
0.05099962,-0.0008129543
0.05199962,-0.0008031448
0.05299962,-0.0007942549
0.05399962,-0.0007847519
0.05499962,-0.0007752489
0.05599962,-0.0007669721
0.05699962,-0.0007580822
0.05799962,-0.000750112
0.05899962,-0.0007421417
0.05999962,-0.0007338649
0.06099962,-0.0007258946
0.06199962,-0.000718231
0.06299962,-0.0007102606
0.06399962,-0.0007032101
0.06499962,-0.0006955464
0.06599962,-0.0006888023
0.06699962,-0.0006817517
0.06799962,-0.0006747011
0.06899962,-0.0006679571
0.06999962,-0.0006615195
0.07099961,-0.0006544688
0.07199962,-0.0006483379
0.07299962,-0.0006419004
0.07399962,-0.0006357695
0.07499962,-0.0006293319
0.07599962,-0.000623201
0.07699962,-0.0006173765
0.07799962,-0.0006112456
0.07899962,-0.0006054211
0.07999962,-0.0006002099
0.08099962,-0.0005943854
0.08199961,-0.0005888676
0.08299962,-0.0005833497
0.08399962,-0.0005778318
0.08499962,-0.0005726205
0.08599962,-0.0005674092
0.08699962,-0.0005618913
0.08799962,-0.00055668
0.08899962,-0.0005517752
0.08999962,-0.0005468705
0.09099962,-0.0005419657
0.09199962,-0.0005370609
0.09299962,-0.0005321561
0.09399962,-0.0005275579
0.09499962,-0.0005229597
0.09599962,-0.0005180549
0.09699962,-0.0005137632
0.09799962,-0.0005088585
0.09899962,-0.0005045668
0.09999962,-0.0004999685
0.1009996,-0.0004956769
0.1019996,-0.0004913852
0.1029996,-0.0004870935
0.1039996,-0.0004828018
0.1049996,-0.0004785102
0.1059996,-0.0004745251
0.1069996,-0.0004702334
0.1079996,-0.0004659417
0.1089996,-0.0004619566
0.1099996,-0.000458278
0.1109996,-0.0004539863
0.1119996,-0.0004503077
0.1129996,-0.0004466292
0.1139996,-0.000442644
0.1149996,-0.0004389654
0.1159996,-0.0004349803
0.1169996,-0.0004313017
0.1179996,-0.0004279297
0.1189996,-0.0004239446
0.1199996,-0.0004208791
0.1209996,-0.0004172005
0.1219996,-0.0004132154
0.1229996,-0.0004098434
0.1239996,-0.0004061648
0.1249996,-0.0004027928
0.1259996,-0.0003994207
0.1269996,-0.0003960487
0.1279996,-0.0003926767
0.1289996,-0.0003893046
0.1299996,-0.0003859326
0.1309996,-0.0003828671
0.1319996,-0.0003794951
0.1329996,-0.0003761231
0.1339996,-0.0003730576
0.1349996,-0.0003699921
0.1359996,-0.0003666201
0.1369996,-0.0003635546
0.1379996,-0.0003601825
0.1389996,-0.0003574236
0.1399996,-0.0003540516
0.1409996,-0.0003509861
0.1419996,-0.0003482272
0.1429996,-0.0003451617
0.1439996,-0.0003424028
0.1449996,-0.0003393373
0.1459996,-0.0003362718
0.1469996,-0.0003332063
0.1479996,-0.0003301408
0.1489996,-0.0003276884
0.1499996,-0.0003246229
0.1509996,-0.0003215575
0.1519996,-0.0003191051
0.1529996,-0.0003160396
0.1539996,-0.0003132806
0.1549996,-0.0003105217
0.1559996,-0.0003074562
0.1569996,-0.0003050039
0.1579996,-0.0003022449
0.1589996,-0.000299486
0.1599996,-0.0002967271
0.1609996,-0.0002939681
0.1619996,-0.0002915157
0.1629996,-0.0002887568
0.1639996,-0.0002859978
0.1649996,-0.0002835455
0.1659996,-0.0002807866
0.1669996,-0.0002780276
0.1679996,-0.0002755752
0.1689996,-0.0002728163
0.1699996,-0.0002700574
0.1709996,-0.0002676049
0.1719996,-0.0002651526
0.1729996,-0.0002623936
0.1739996,-0.0002599413
0.1749996,-0.0002571823
0.1759996,-0.0002547299
0.1769996,-0.000251971
0.1779996,-0.0002495186
0.1789996,-0.0002470662
0.1799996,-0.0002443073
0.1809996,-0.0002418549
0.1819996,-0.000239096
0.1829996,-0.0002366436
0.1839996,-0.0002341912
0.1849996,-0.0002314323
0.1859996,-0.0002289799
0.1869996,-0.0002265275
0.1879996,-0.0002237686
0.1889996,-0.0002210096
0.1899996,-0.0002185573
0.1909996,-0.0002161049
0.1919996,-0.0002133459
0.1929996,-0.0002108935
0.1939996,-0.0002081346
0.1949996,-0.0002056822
0.1959996,-0.0002029233
0.1969996,-0.0002001643
0.1979996,-0.000197712
0.1989996,-0.0001946465
0.1999996,-0.0001921941
0.2009996,-0.0001894352
0.2019996,-0.0001866762
0.2029996,-0.0001839173
0.2039996,-0.0001811584
0.2049996,-0.0001783994
0.2059996,-0.0001756405
0.2069996,-0.0001728816
0.2079996,-0.0001698161
0.2089996,-0.0001667506
0.2099996,-0.0001639917
0.2109996,-0.0001609262
0.2119996,-0.0001578607
0.2129996,-0.0001581164
0.2139996,-0.0001552349
0.2149996,-0.0001520468
0.2159996,-0.0001490426
0.2169996,-0.0001458545
0.2179996,-0.0001425438
0.2189996,-0.000139417
0.2199996,-0.000136045
0.2209996,-0.0001326729
0.2219996,-0.0001293315
0.2229996,-0.0001257756
0.2239996,-0.0001223422
0.2249996,-0.0001187556
0.2259996,-0.0001151384
0.2269996,-0.0001114904
0.2279996,-0.0001075666
0.2289996,-0.0001037961
0.2299996,-9.996421E-05
0.2309996,-9.573385E-05
0.2319996,-9.165676E-05
0.2329996,-8.745705E-05
0.2339996,-8.313472E-05
0.2349996,-7.887369E-05
0.2359996,-7.433679E-05
0.2369996,-6.986118E-05
0.2379996,-6.517099E-05
0.2389996,-6.032753E-05
0.2399996,-5.551472E-05
0.2409996,-5.05793E-05
0.2419996,-4.539863E-05
0.2429996,-4.024862E-05
0.2439996,-3.479206E-05
0.2449996,-2.942747E-05
0.2459996,-2.381763E-05
0.2469996,-1.79319E-05
0.2479996,-1.21688E-05
0.2489996,-6.037833E-06
0.2499996,2.453554E-07
0.2509996,6.351797E-06
0.2519996,1.311425E-05
0.2529996,1.972343E-05
0.2539996,2.651347E-05
0.2549996,3.408933E-05
0.2559996,4.129322E-05
0.2569996,4.88343E-05
0.2579996,5.668194E-05
0.2589996,6.449892E-05
0.2599996,7.295965E-05
0.2609996,8.142038E-05
0.2619996,9.009569E-05
0.2629996,9.93228E-05
0.2639996,0.0001085192
0.2649996,0.0001182981
0.2659996,0.0001284755
0.2669996,0.0001388369
0.2679996,0.0001499952
0.2689996,0.0001613682
0.2699996,0.0001732622
0.2709996,0.0001858307
0.2719996,0.0001987057
0.2729996,0.0002124085
0.2739996,0.0002270921
0.2749996,0.0002422663
0.2759996,0.0002587585
0.2769996,0.00027568
0.2779996,0.000293797
0.2789996,0.000316676
0.2799996,0.0003369082
0.2809996,0.0003592863
0.2819996,0.000383197
0.2829996,0.0004095602
0.2839996,0.0004383757
0.2849996,0.0004693371
0.2859996,0.0005036705
0.2869996,0.0005416825
0.2879996,0.0005836796
0.2889996,0.000630888
0.2899996,0.0006833078
0.2909996,0.0007430847
0.2919996,0.0008111384
0.2929996,0.0008877754
0.2939996,0.0009763679
0.2949996,0.001078142
0.2959996,0.001194017
0.2969996,0.001327366
0.2979996,0.001480027
0.2989996,0.001652613
0.2999996,0.001849417
0.3009996,0.002068906
0.3019996,0.002312612
0.3029996,0.002582068
0.3039996,0.002872982
0.3049996,0.003187194
0.3059996,0.00354688
0.3069996,0.003899411
0.3079996,0.004264203
0.3089996,0.004641257
0.3099996,0.005024442
0.3109996,0.005416824
0.3119996,0.005812271
0.3129996,0.00621385
0.3139996,0.006618494
0.3149996,0.007023137
0.3159996,0.007427781
0.3169996,0.007829359
0.3179996,0.008221741
0.3189996,0.008620254
0.3199996,0.00900957
0.3209996,0.009395821
0.3219996,0.009779006
0.3229996,0.01014993
0.3239996,0.01053005
0.3249996,0.01089484
0.3259996,0.01125657
0.3269996,0.01161829
0.3279996,0.01196469
0.3289996,0.01232336
0.3299996,0.01267282
0.3309996,0.01301309
0.3319996,0.01336562
0.3329996,0.01370282
0.3339996,0.01404309
0.3349996,0.01438643
0.3359996,0.01471443
0.3369996,0.01505777
0.3379996,0.01538577
0.3389996,0.01572298
0.3399996,0.01605712
0.3409996,0.01638206
0.3419996,0.01671926
0.3429996,0.01704726
0.3439996,0.01737221
0.3449996,0.01771247
0.3459996,0.01804048
0.3469996,0.01837768
0.3479996,0.01870569
0.3489996,0.01903063
0.3499996,0.0193709
0.3509996,0.01969584
0.3519996,0.02002385
0.3529996,0.02037025
0.3539996,0.02069519
0.3549996,0.02102933
0.3559996,0.02137266
0.3569996,0.02169454
0.3579996,0.02203174
0.3589996,0.02237508
0.3599996,0.02270002
0.3609996,0.02303722
0.3619996,0.02337442
0.3629996,0.02369936
0.3639996,0.0240427
0.3649996,0.02437377
0.3659996,0.02470178
0.3669996,0.02503591
0.3679996,0.02536086
0.3689996,0.0256858
0.3699996,0.02601074
0.3709996,0.02634487
0.3719996,0.02666368
0.3729996,0.0269825
0.3739996,0.02731357
0.3749996,0.02761398
0.3759996,0.02793279
0.3769996,0.02825774
0.3779996,0.02854896
0.3789996,0.02887083
0.3799996,0.02918044
0.3809996,0.02947473
0.3819996,0.02977515
0.3829996,0.03006637
0.3839996,0.03111582
0.3849996,0.03139171
0.3859996,0.03169826
0.3869996,0.03200481
0.3879996,0.0322807
0.3889996,0.03258725
0.3899996,0.0328938
0.3909996,0.03316969
0.3919996,0.03344558
0.3929996,0.03372148
0.3939996,0.03399737
0.3949996,0.03424261
0.3959996,0.0345185
0.3969996,0.0347944
0.3979996,0.03503963
0.3989996,0.03528487
0.3999996,0.03556077
0.4009996,0.03577535
0.4019996,0.03602059
0.4029996,0.03626583
0.4039996,0.03648041
0.4049996,0.036695
0.4059996,0.03690958
0.4069996,0.03712416
0.4079996,0.03730809
0.4089996,0.03749202
0.4099996,0.03770661
0.4109996,0.03789053
0.4119996,0.03804381
0.4129996,0.03822774
0.4139996,0.03835035
0.4149996,0.03850363
0.4159996,0.03862625
0.4169996,0.03871821
0.4179996,0.03881018
0.4189996,0.03890214
0.4199996,0.03896345
0.4209996,0.03902476
0.4219996,0.03905542
0.4229996,0.03905542
0.4239996,0.03902476
0.4249996,0.03899411
0.4259996,0.0389328
0.4269996,0.03884083
0.4279996,0.03868756
0.4289996,0.03853428
0.4299996,0.03835035
0.4309996,0.03804381
0.4319996,0.03773726
0.4329996,0.0373694
0.4339996,0.03690958
0.4349996,0.03638845
0.4359996,0.03577535
0.4369996,0.03507029
0.4379996,0.03424261
0.4389996,0.03332296
0.4399996,0.0322807
0.4409996,0.03105451
0.4419996,0.02973635
0.4429996,0.02832623
0.4439996,0.02679349
0.4449996,0.02523009
0.4459996,0.02369735
0.4469996,0.02216461
0.4479996,0.02072383
0.4489996,0.01940567
0.4499996,0.01821013
0.4509996,0.01707591
0.4519996,0.01612561
0.4529996,0.01526727
0.4539996,0.01453156
0.4549996,0.0138878
0.4559996,0.01333602
0.4569996,0.01240612
0.4579996,0.01204133
0.4589996,0.01176544
0.4599996,0.0115294
0.4609996,0.01136999
0.4619996,0.01124737
0.4629996,0.0111738
0.4639996,0.01114621
0.4649996,0.01113701
0.4659996,0.0111646
0.4669996,0.01122285
0.4679996,0.01130255
0.4689996,0.01139145
0.4699996,0.01151407
0.4709996,0.01165202
0.4719996,0.01179303
0.4729996,0.01196469
0.4739996,0.01214862
0.4749996,0.01232949
0.4759996,0.01253181
0.4769996,0.01274639
0.4779996,0.01295791
0.4789996,0.01319395
0.4799996,0.01343
0.4809996,0.01367523
0.4819996,0.01392967
0.4829996,0.01418717
0.4839996,0.01445693
0.4849996,0.01472669
0.4859996,0.01499646
0.4869996,0.01529381
0.4879996,0.0155789
0.4889996,0.01587932
0.4899996,0.01618586
0.4909996,0.01648015
0.4919996,0.01679589
0.4929996,0.01711471
0.4939996,0.01741819
0.4949996,0.01775846
0.4959996,0.0180742
0.4969996,0.01840527
0.4979996,0.01874861
0.4989996,0.01908888
0.4999996,0.01942914
0.5009996,0.01977248
0.5019996,0.02012808
0.5029996,0.02047448
0.5039996,0.02082394
0.5049996,0.02119793
0.5059996,0.02155046
0.5069996,0.02190606
0.5079996,0.02229537
0.5089996,0.0226479
0.5099996,0.02301269
0.5109996,0.02341427
0.5119996,0.023776
0.5129996,0.02415919
0.5139996,0.02456076
0.5149996,0.02491943
0.5159996,0.02532713
0.5169996,0.02571032
0.5179996,0.0260935
0.5189996,0.02649202
0.5199996,0.02687214
0.5209996,0.02727065
0.5219996,0.02766303
0.5229996,0.02805848
0.5239996,0.02847845
0.5249996,0.02887083
0.5259996,0.02927548
0.5269996,0.02968932
0.5279996,0.03008476
0.5289996,0.03126909
0.5299996,0.03163695
0.5309996,0.03206612
0.5319996,0.03246463
0.5329996,0.0328938
0.5339996,0.03332296
0.5349996,0.03372148
0.5359996,0.03415065
0.5369996,0.03457981
0.5379996,0.03500898
0.5389996,0.03543815
0.5399996,0.03586731
0.5409996,0.03629648
0.5419996,0.03672565
0.5429996,0.03715482
0.5439996,0.03758398
0.5449996,0.03804381
0.5459996,0.03847298
0.5469996,0.03890214
0.5479996,0.03936196
0.5489996,0.03976048
0.5499996,0.0402203
0.5509996,0.04064947
0.5519996,0.04107863
0.5529996,0.04153846
0.5539996,0.04196763
0.5549996,0.04242745
0.5559996,0.04288727
0.5569996,0.04331644
0.5579996,0.04377626
0.5589996,0.04423608
0.5599996,0.04466525
0.5609996,0.04512507
0.5619996,0.04555424
0.5629996,0.04601406
0.5639996,0.04647389
0.5649996,0.04690305
0.5659996,0.04736288
0.5669996,0.04779204
0.5679996,0.04828252
0.5689996,0.04874234
0.5699996,0.04917151
0.5709996,0.04966199
0.5719996,0.05009115
0.5729996,0.05052032
0.5739996,0.0510108
0.5749996,0.05143997
0.5759996,0.05189979
0.5769996,0.05235961
0.5779996,0.05281943
0.5789996,0.05327926
0.5799996,0.05373908
0.5809996,0.0541989
0.5819996,0.05468938
0.5829996,0.05511854
0.5839996,0.05557837
0.5849996,0.05606885
0.5859996,0.05649801
0.5869996,0.05698849
0.5879996,0.05744831
0.5889996,0.05790814
0.5899996,0.05839861
0.5909996,0.05882778
0.5919996,0.0592876
0.5929996,0.05977808
0.5939996,0.06020725
0.5949996,0.06069772
0.5959996,0.06115754
0.5969996,0.06164802
0.5979996,0.0621385
0.5989996,0.06256767
0.5999996,0.06305815
0.6009996,0.06351797
0.6019996,0.06397779
0.6029996,0.06446826
0.6039996,0.06489744
0.6049996,0.06541856
0.6059996,0.06584774
0.6069996,0.06633821
0.6079996,0.06682869
0.6089996,0.06728851
0.6099996,0.06774833
0.6109996,0.06823882
0.6119996,0.06866798
0.6129996,0.06915846
0.6139996,0.06964894
0.6149996,0.07010876
0.6159996,0.07059924
0.6169996,0.07108971
0.6179996,0.07154953
0.6189996,0.07200935
0.6199996,0.07249983
0.6209996,0.07295965
0.6219996,0.07345013
0.6229996,0.0739406
0.6239996,0.07440043
0.6249996,0.0748909
0.6259996,0.07535073
0.6269996,0.07584121
0.6279996,0.07630103
0.6289996,0.07682216
0.6299996,0.07728198
0.6309996,0.07774181
0.6319996,0.07826294
0.6329996,0.07872277
0.6339996,0.07918259
0.6349996,0.07967306
0.6359996,0.08016354
0.6369996,0.08065402
0.6379996,0.08111384
0.6389996,0.08163497
0.6399996,0.08206414
0.6409996,0.08252396
0.6419996,0.08304509
0.6429996,0.08347426
0.6439996,0.08396474
0.6449996,0.08448587
0.6459996,0.08494569
0.6469996,0.08540551
0.6479996,0.08592664
0.6489996,0.08638646
0.6499996,0.08687695
0.6509996,0.08736742
0.6519996,0.08782724
0.6529996,0.08831772
0.6539996,0.08883885
0.6549996,0.08926802
0.6559996,0.08978915
0.6569996,0.09024898
0.6579996,0.09073945
0.6589996,0.09126058
0.6599996,0.09172041
0.6609996,0.09221088
0.6619996,0.09273202
0.6629996,0.09316119
0.6639996,0.09371297
0.6649996,0.0941728
0.6659996,0.09466327
0.6669996,0.09515375
0.6679996,0.09561357
0.6689996,0.09613471
0.6699996,0.09659453
0.6709996,0.097085
0.6719996,0.09760614
0.6729996,0.09806596
0.6739996,0.09855644
0.6749996,0.09907757
0.6759996,0.09950673
0.6769996,0.1000279
0.6779996,0.1005183
0.6789996,0.1010088
0.6799996,0.1014993
0.6809996,0.1019591
0.6819996,0.1024802
0.6829996,0.1029401
0.6839996,0.1034305
0.6849996,0.1039517
0.6859996,0.1044115
0.6869996,0.1049326
0.6879996,0.1054231
0.6889996,0.1058829
0.6899996,0.1063734
0.6909996,0.1068639
0.6919996,0.1073544
0.6929996,0.1078448
0.6939996,0.1083353
0.6949996,0.1088565
0.6959996,0.1093469
0.6969996,0.1098068
0.6979996,0.1103279
0.6989996,0.1107877
0.6999996,0.1109103
0.6990005,0.1104812
0.6980005,0.10996
0.6970005,0.1095002
0.6960005,0.1090097
0.6950005,0.1084886
0.6940005,0.1080288
0.6930005,0.1075383
0.6920004,0.1070172
0.6910005,0.1065573
0.6900005,0.1060669
0.6890005,0.1055457
0.6880005,0.1051166
0.6870005,0.1045954
0.6860005,0.104105
0.6850005,0.1036145
0.6840005,0.103124
0.6830005,0.1026642
0.6820005,0.1021737
0.6810005,0.1016526
0.6800005,0.1012234
0.6790005,0.1007023
0.6780005,0.1001811
0.6770005,0.09975197
0.6760005,0.09926149
0.6750005,0.09874036
0.6740005,0.09834184
0.6730005,0.09785137
0.6720005,0.09733024
0.6710005,0.09687041
0.6700005,0.09641059
0.6690005,0.0958588
0.6680005,0.09539898
0.6670005,0.09493916
0.6660005,0.09441803
0.6650005,0.09392755
0.6640005,0.09346773
0.6630005,0.09297726
0.6620005,0.09248678
0.6610005,0.09202696
0.6600005,0.09150583
0.6590005,0.09107666
0.6580005,0.09058618
0.6570005,0.0900957
0.6560005,0.08963588
0.6550004,0.08914541
0.6540005,0.08865493
0.6530005,0.08816445
0.6520005,0.08767397
0.6510005,0.08721415
0.6500005,0.08672367
0.6490005,0.08626385
0.6480005,0.08577337
0.6470005,0.08528289
0.6460005,0.08482307
0.6450005,0.08433259
0.6440005,0.08384212
0.6430005,0.08335164
0.6420005,0.08289181
0.6410004,0.08243199
0.6400005,0.08194152
0.6390005,0.08145104
0.6380005,0.08102188
0.6370005,0.0805314
0.6360005,0.08004092
0.6350005,0.0795811
0.6340005,0.07909062
0.6330005,0.0786308
0.6320005,0.07814032
0.6310005,0.07764985
0.6300005,0.07719002
0.6290005,0.07669955
0.6280005,0.07620906
0.6270005,0.07574924
0.6260005,0.07528942
0.6250005,0.07479894
0.6240005,0.07433912
0.6230005,0.07384864
0.6220005,0.07338882
0.6210005,0.07289835
0.6200005,0.07243852
0.6190005,0.07200935
0.6180004,0.07148822
0.6170005,0.07105906
0.6160005,0.07056858
0.6150005,0.0700781
0.6140005,0.06961828
0.6130005,0.0691278
0.6120005,0.06863733
0.6110005,0.06817751
0.6100005,0.06771768
0.6090005,0.06725786
0.6080005,0.06676738
0.6070005,0.06630756
0.6060005,0.06587839
0.6050005,0.06538791
0.6040004,0.06492809
0.6030005,0.06446826
0.6020005,0.06397779
0.6010005,0.06354862
0.6000005,0.06305815
0.5990005,0.06259833
0.5980005,0.0621385
0.5970005,0.06164802
0.5960005,0.0611882
0.5950005,0.06072838
0.5940005,0.0602379
0.5930005,0.05980873
0.5920005,0.05931826
0.5910005,0.05885844
0.5900005,0.05842927
0.5890005,0.05793879
0.5880005,0.05747896
0.5870005,0.0570498
0.5860005,0.05655932
0.5850005,0.0560995
0.5840005,0.05563968
0.5830005,0.05521051
0.5820005,0.05472003
0.5810004,0.05426021
0.5800005,0.05383104
0.5790005,0.05334057
0.5780005,0.05288074
0.5770005,0.05245158
0.5760005,0.0519611
0.5750005,0.05153193
0.5740005,0.05107211
0.5730005,0.05061228
0.5720005,0.05018312
0.5710005,0.04972329
0.5700005,0.04926347
0.5690005,0.04880365
0.5680005,0.04834383
0.5670004,0.04791466
0.5660005,0.04745484
0.5650005,0.04702567
0.5640005,0.04656585
0.5630005,0.04610603
0.5620005,0.04567686
0.5610005,0.04521704
0.5600005,0.04475721
0.5590005,0.04429739
0.5580005,0.04383757
0.5570005,0.0434084
0.5560005,0.04294858
0.5550005,0.04251941
0.5540005,0.04209024
0.5530005,0.04163042
0.5520005,0.04120126
0.5510005,0.04077209
0.5500005,0.04031226
0.5490005,0.0398831
0.5480005,0.03945393
0.5470005,0.03899411
0.5460005,0.03856494
0.5450005,0.03813577
0.5440005,0.03767595
0.5430005,0.03724678
0.5420005,0.03681761
0.5410005,0.03638845
0.5400005,0.03592863
0.5390005,0.03549946
0.5380005,0.03510094
0.5370005,0.03464112
0.5360005,0.03424261
0.5350005,0.03381344
0.5340005,0.03338427
0.5330005,0.03295511
0.5320005,0.03252594
0.5310005,0.03209677
0.5300004,0.0316676
0.5290005,0.03123844
0.5280005,0.03083992
0.5270005,0.03041076
0.5260005,0.02998159
0.5250005,0.02958308
0.5240005,0.02915391
0.5230005,0.02875539
0.5220005,0.02832623
0.5210005,0.02789706
0.5200005,0.02749855
0.5190005,0.02710003
0.5180005,0.02667087
0.5170005,0.02627235
0.5160004,0.02584319
0.5150005,0.02547533
0.5140005,0.02504616
0.5130005,0.02464765
0.5120005,0.02424913
0.5110005,0.02381997
0.5100005,0.02345211
0.5090005,0.0230536
0.5080005,0.02262443
0.5070005,0.02225657
0.5060005,0.02185806
0.5050005,0.02145955
0.5040005,0.02106103
0.5030005,0.02066252
0.5020005,0.02029466
0.5010005,0.01989615
0.5000005,0.01952829
0.4990005,0.01912978
0.4980005,0.01876192
0.4970005,0.01839406
0.4960005,0.01802621
0.4950005,0.01765835
0.4940005,0.01729049
0.4930005,0.01689198
0.4920005,0.01655477
0.4910005,0.01618692
0.4900005,0.01581906
0.4890005,0.0154512
0.4880005,0.015114
0.4870005,0.01474614
0.4860005,0.01437828
0.4850005,0.01404108
0.4840005,0.01367322
0.4830005,0.01333602
0.4820005,0.01250422
0.4810005,0.01216089
0.4800005,0.01183594
0.4790005,0.01149568
0.4780005,0.0111738
0.4770005,0.01085499
0.4760005,0.01052392
0.4750005,0.01021124
0.4740005,0.009889363
0.4730005,0.009573619
0.4720005,0.00926707
0.4710005,0.008954391
0.4700005,0.008653974
0.4690005,0.008353557
0.4680005,0.008053139
0.4670005,0.007764984
0.4660005,0.007470698
0.4650005,0.007182543
0.4640005,0.006906649
0.4630005,0.006621559
0.4620005,0.006351797
0.4610005,0.006082034
0.4600005,0.005806141
0.4590005,0.005551706
0.4580005,0.005291139
0.4570005,0.005033639
0.4560005,0.004791466
0.4550005,0.004537031
0.4540005,0.004294858
0.4530005,0.004061881
0.4520005,0.003825839
0.4510005,0.003598993
0.4500005,0.003375213
0.4490005,0.003157564
0.4480005,0.002939914
0.4470005,0.002728396
0.4460005,0.00252914
0.4450005,0.002326818
0.4440005,0.002130627
0.4430005,0.001943633
0.4420005,0.001756638
0.4410005,0.001575775
0.4400005,0.001404108
0.4390005,0.001229375
0.4380005,0.001034612
0.4370005,0.0008749004
0.4360005,0.0007151888
0.4350005,0.0005689653
0.4340005,0.0004215155
0.4330005,0.0002795837
0.4320005,0.000145009
0.4310005,1.074086E-05
0.4300005,-0.0001185104
0.4290005,-0.0002415589
0.4280005,-0.000361971
0.4270005,-0.0004708465
0.4260005,-0.0005821235
0.4250005,-0.0006857368
0.4240005,-0.000782606
0.4230005,-0.0008828474
0.4220005,-0.0009751184
0.4210005,-0.001061258
0.4200005,-0.001147705
0.4190005,-0.001225262
0.4180005,-0.001302819
0.4170005,-0.001376084
0.4160005,-0.00144567
0.4150005,-0.00151403
0.4140005,-0.00157442
0.4130005,-0.00163573
0.4120005,-0.001693361
0.4110005,-0.001745168
0.4100005,-0.001804638
0.4090005,-0.001859817
0.4080005,-0.001899668
0.4070005,-0.001945344
0.4060005,-0.001984275
0.4050005,-0.002020448
0.4040005,-0.002060912
0.4030005,-0.002094633
0.4020005,-0.002127127
0.4010005,-0.002159314
0.4000005,-0.002187517
0.3990005,-0.002217558
0.3980005,-0.002242082
0.3970005,-0.002269978
0.3960005,-0.002297567
0.3950005,-0.002315654
0.3940005,-0.002339565
0.3930005,-0.002362249
0.3920005,-0.002377883
0.3910005,-0.002402714
0.3900005,-0.002422639
0.3890005,-0.00243766
0.3880005,-0.002457586
0.3870005,-0.002473526
0.3860005,-0.00249008
0.3850005,-0.00250602
0.3840005,-0.002519509
0.3830005,-0.002538515
0.3820005,-0.002549244
0.3810005,-0.002566104
0.3800005,-0.002586029
0.3790005,-0.002595226
0.3780005,-0.002613925
0.3770005,-0.002631705
0.3760005,-0.002642741
0.3750005,-0.002660214
0.3740005,-0.002674315
0.3730005,-0.002689336
0.3720005,-0.00270589
0.3710005,-0.002722137
0.3700005,-0.00274145
0.3690005,-0.002755244
0.3680005,-0.002770265
0.3670005,-0.002793563
0.3660005,-0.002807357
0.3650005,-0.002826057
0.3640005,-0.002849968
0.3630005,-0.002863456
0.3620005,-0.00288614
0.3610005,-0.002909438
0.3600005,-0.002927831
0.3590005,-0.002954194
0.3580005,-0.002977798
0.3570005,-0.003000176
0.3560005,-0.003027153
0.3550005,-0.003013253
0.3540005,-0.003043907
0.3530005,-0.003068431
0.3520005,-0.003096021
0.3510005,-0.003129741
0.3500005,-0.00315733
0.3490005,-0.003191051
0.3480005,-0.003224771
0.3470005,-0.003255426
0.3460005,-0.003298342
0.3450005,-0.003335128
0.3440005,-0.003368848
0.3430005,-0.003411765
0.3420005,-0.003451617
0.3410005,-0.003497599
0.3400005,-0.003540515
0.3390005,-0.003586498
0.3380005,-0.003638611
0.3370005,-0.003687659
0.3360005,-0.003736707
0.3350005,-0.003794951
0.3340005,-0.003843998
0.3330005,-0.003902242
0.3320005,-0.003963552
0.3310005,-0.004021796
0.3300005,-0.004086172
0.3290005,-0.004150547
0.3280005,-0.004217987
0.3270005,-0.004285428
0.3260005,-0.004358999
0.3250005,-0.004432571
0.3240005,-0.004506143
0.3230005,-0.004582779
0.3220005,-0.004665548
0.3210005,-0.00474525
0.3200005,-0.004834149
0.3190005,-0.004919983
0.3180005,-0.005005816
0.3170005,-0.005097781
0.3160005,-0.005192811
0.3150005,-0.005287841
0.3140005,-0.005389001
0.3130005,-0.005490162
0.3120005,-0.005594389
0.3110005,-0.005698615
0.3100005,-0.005808973
0.3090005,-0.00591933
0.3080005,-0.006032753
0.3070005,-0.006155372
0.3060005,-0.006274926
0.3050005,-0.006391414
0.3040005,-0.006517099
0.3030005,-0.006645849
0.3020005,-0.006771534
0.3010005,-0.006906416
0.3000005,-0.007041297
0.2990005,-0.007176178
0.2980005,-0.00731719
0.2970005,-0.007458202
0.2960005,-0.00760228
0.2950005,-0.007752489
0.2940005,-0.007902697
0.2930005,-0.008059037
0.2920005,-0.008215376
0.2910005,-0.00836865
0.2900005,-0.008531122
0.2890005,-0.008693592
0.2880005,-0.008862193
0.2870005,-0.009030795
0.2860005,-0.009202462
0.2850005,-0.009374129
0.2840005,-0.009551927
0.2830005,-0.009735856
0.2820005,-0.009913653
0.2810005,-0.01009145
0.2800005,-0.01028458
0.2790005,-0.01046851
0.2780005,-0.0106647
0.2770005,-0.01086089
0.2760005,-0.01105095
0.2750005,-0.01125327
0.2740005,-0.01145253
0.2730005,-0.01165485
0.2720005,-0.01186024
0.2710005,-0.01206562
0.2700005,-0.01227714
0.2690005,-0.01248866
0.2680005,-0.01270631
0.2670005,-0.01292396
0.2660005,-0.01313854
0.2650005,-0.01336539
0.2640005,-0.01358304
0.2630005,-0.01380988
0.2620005,-0.01403979
0.2610005,-0.01426357
0.2600005,-0.01449962
0.2590005,-0.01472953
0.2580005,-0.01496557
0.2570005,-0.01520774
0.2560005,-0.01544685
0.2550005,-0.01568902
0.2540005,-0.01593733
0.2530005,-0.0161795
0.2520005,-0.01642474
0.2510005,-0.01667918
0.2500005,-0.01692748
0.2490005,-0.01717578
0.2480005,-0.01743635
0.2470005,-0.01769385
0.2460005,-0.01795135
0.2450005,-0.01821191
0.2440005,-0.01848168
0.2430005,-0.01874531
0.2420005,-0.01900588
0.2410005,-0.01928177
0.2400005,-0.0195454
0.2390005,-0.01981823
0.2380005,-0.02009719
0.2370005,-0.02036695
0.2360005,-0.02065204
0.2350005,-0.02092487
0.2340005,-0.0211977
0.2330005,-0.02148278
0.2320005,-0.02175868
0.2310005,-0.02204377
0.2300005,-0.02232886
0.2290005,-0.02260782
0.2280005,-0.02289291
0.2270005,-0.02317187
0.2260005,-0.02344776
0.2250005,-0.02373898
0.2240005,-0.02402407
0.2230005,-0.02430609
0.2220005,-0.02460651
0.2210005,-0.0249008
0.2200005,-0.02518589
0.2190005,-0.02549244
0.2180005,-0.02578365
0.2170005,-0.02607181
0.2160005,-0.02637836
0.2150005,-0.02665425
0.2140005,-0.02694854
0.2130005,-0.02723669
0.2120005,-0.02751565
0.2110005,-0.02779461
0.2100005,-0.02806131
0.2090005,-0.02833414
0.2080005,-0.0285947
0.2070005,-0.0288614
0.2060005,-0.02912197
0.2050005,-0.02936414
0.2040005,-0.02961551
0.2030005,-0.02984542
0.2020005,-0.03006
0.2010005,-0.03028685
0.2000005,-0.03059235
0.1990005,-0.03077628
0.1980005,-0.03096021
0.1970005,-0.03111348
0.1960005,-0.03129741
0.1950005,-0.03145069
0.1940005,-0.03160396
0.1930005,-0.03172658
0.1920005,-0.0318492
0.1910005,-0.03194116
0.1900005,-0.03203313
0.1890005,-0.03209443
0.1880005,-0.03212509
0.1870005,-0.03215575
0.1860005,-0.03215575
0.1850005,-0.03215575
0.1840005,-0.03209443
0.1830005,-0.03203313
0.1820005,-0.03191051
0.1810005,-0.03175723
0.1800005,-0.03157331
0.1790005,-0.03129741
0.1780005,-0.03096021
0.1770005,-0.03053104
0.1760005,-0.03004056
0.1750005,-0.02945812
0.1740005,-0.02878371
0.1730005,-0.02801734
0.1720005,-0.02715901
0.1710005,-0.02620871
0.1700005,-0.02522776
0.1690005,-0.02415484
0.1680005,-0.02308192
0.1670005,-0.02194769
0.1660005,-0.0207828
0.1650005,-0.01970989
0.1640005,-0.01857566
0.1630005,-0.01753339
0.1620005,-0.01658309
0.1610005,-0.01560214
0.1600005,-0.01486747
0.1590005,-0.01407351
0.1580005,-0.01331327
0.1570005,-0.0127339
0.1560005,-0.01209628
0.1550005,-0.01157515
0.1540005,-0.01114904
0.1530005,-0.01063711
0.1520005,-0.01028764
0.1510005,-0.009938178
0.1500005,-0.009594844
0.1490005,-0.009328146
0.1480005,-0.00906758
0.1470005,-0.008822342
0.1460005,-0.008595496
0.1450005,-0.008445288
0.1440005,-0.008261358
0.1430005,-0.008083561
0.1420005,-0.007964007
0.1410005,-0.007810732
0.1400005,-0.007672786
0.1390005,-0.007571625
0.1380005,-0.007439809
0.1370005,-0.007338648
0.1360005,-0.007231356
0.1350005,-0.007114868
0.1340005,-0.007053559
0.1330005,-0.006930939
0.1320005,-0.006845106
0.1310005,-0.006805255
0.1300005,-0.006697963
0.1290005,-0.00661826
0.1280005,-0.006566147
0.1270005,-0.006471117
0.1260005,-0.006409807
0.1250005,-0.006354629
0.1240005,-0.006284122
0.1230005,-0.006219747
0.1220005,-0.00617683
0.1210005,-0.00610939
0.1200005,-0.006060342
0.1190005,-0.005989837
0.1180005,-0.00595305
0.1170005,-0.005897872
0.1160005,-0.005836562
0.1150005,-0.005805907
0.1140005,-0.005744598
0.1130005,-0.005698615
0.1120005,-0.005664895
0.1110005,-0.005625044
0.1100005,-0.00557293
0.1090005,-0.005517752
0.1080005,-0.005496293
0.1070005,-0.005453377
0.1060005,-0.005401264
0.1050005,-0.00538287
0.1040005,-0.005330757
0.1030005,-0.005290906
0.1020005,-0.005278645
0.1010005,-0.005214269
0.1000005,-0.005205072
0.09900048,-0.005156024
0.09800047,-0.005122304
0.09700048,-0.005097781
0.09600048,-0.005048733
0.09500048,-0.005024209
0.09400047,-0.00499662
0.09300048,-0.004956769
0.09200048,-0.004938376
0.09100047,-0.004904655
0.09000048,-0.004874
0.08900048,-0.004846411
0.08800048,-0.004809625
0.08700047,-0.004785101
0.08600048,-0.004754446
0.08500048,-0.004723792
0.08400048,-0.004702333
0.08300047,-0.004671679
0.08200048,-0.00465022
0.08100048,-0.004619565
0.08000048,-0.00458891
0.07900048,-0.004573583
0.07800048,-0.004536797
0.07700048,-0.004515339
0.07600047,-0.004496946
0.07500048,-0.00446016
0.07400048,-0.004441767
0.07300048,-0.004423374
0.07200047,-0.004389654
0.07100048,-0.004368196
0.07000048,-0.004349803
0.06900048,-0.004316083
0.06800048,-0.00429769
0.06700048,-0.004279297
0.06600048,-0.004248642
0.06500047,-0.00423638
0.06400048,-0.004205726
0.06300048,-0.004187332
0.06200048,-0.004165874
0.06100048,-0.004138284
0.06000048,-0.004126023
0.05900048,-0.004095368
0.05800048,-0.004076975
0.05700048,-0.004064713
0.05600048,-0.004030993
0.05500048,-0.004018731
0.05400048,-0.003994207
0.05300048,-0.003975814
0.05200048,-0.003954356
0.05100048,-0.003929832
0.05000048,-0.003911439
0.04900048,-0.003886915
0.04800048,-0.003862391
0.04700048,-0.003850129
0.04600048,-0.003819474
0.04500048,-0.003801082
0.04400048,-0.00378882
0.04300048,-0.003758165
0.04200048,-0.003742838
0.04100048,-0.003721379
0.04000048,-0.003702986
0.03900048,-0.003684593
0.03800048,-0.003660069
0.03700048,-0.003644742
0.03600048,-0.003617153
0.03500048,-0.003595694
0.03400048,-0.003583432
0.03300048,-0.003552777
0.03200048,-0.00353745
0.03100048,-0.003519057
0.03000048,-0.003494533
0.02900048,-0.003479206
0.02800048,-0.003454682
0.02700048,-0.003436289
0.02600048,-0.003414831
0.02500048,-0.003390307
0.02400048,-0.003368848
0.02300048,-0.003344325
0.02200048,-0.003322866
0.02100048,-0.003298342
0.02000048,-0.003261557
0.01900048,-0.003227836
0.01800048,-0.003187985
0.01700048,-0.003145068
0.01600048,-0.003111348
0.01500048,-0.003068431
0.01400048,-0.003013253
0.01300048,-0.002945812
0.01200048,-0.002884502
0.01100048,-0.002835455
0.01000048,-0.002786407
0.009000476,-0.00274349
0.008000477,-0.00270977
0.007000477,-0.002669919
0.006000477,-0.002636198
0.005000477,-0.002602478
0.004000477,-0.002565692
0.003000477,-0.002531972
0.002000477,-0.002498251
0.001000477,-0.002464531
