EXPID. 0397
[电化学]: CV : 0 >> 0.7 >> 0 >> 0(V) @ 0.01(V/s) X 10(Seg)
起始电位 (V),0
上限电位 (V),0.7
下限电位 (V),0
终止电位 (V),0
扫速 (V/s),0.01
电解液 信息:
KOH,1
0.001,9.218023E-06
0.002,9.457131E-06
0.003,9.524571E-06
0.004,9.680911E-06
0.005,9.766744E-06
0.006,9.797399E-06
0.007,9.877102E-06
0.008,1.004877E-05
0.009,1.025416E-05
0.01,1.030627E-05
0.011,1.040743E-05
0.012,1.049939E-05
0.013,1.053311E-05
0.014,1.053618E-05
0.015,1.074157E-05
0.016,1.089178E-05
0.017,1.094695E-05
0.018,1.108797E-05
0.019,1.109103E-05
0.02,1.114621E-05
0.021,1.128109E-05
0.022,1.146196E-05
0.023,1.154779E-05
0.024,1.159684E-05
0.025,1.170413E-05
0.026,1.170413E-05
0.027,1.176237E-05
0.028,1.182368E-05
0.029,1.199535E-05
0.03,1.215169E-05
0.031,1.225898E-05
0.032,1.232336E-05
0.033,1.23816E-05
0.034,1.241532E-05
0.035,1.245517E-05
0.036,1.253794E-05
0.037,1.261764E-05
0.038,1.273106E-05
0.039,1.28874E-05
0.04,1.300696E-05
0.041,1.312345E-05
0.042,1.317249E-05
0.043,1.322767E-05
0.044,1.333496E-05
0.045,1.346678E-05
0.046,1.34116E-05
0.047,1.35005E-05
0.048,1.351583E-05
0.049,1.356794E-05
0.05,1.367217E-05
0.051,1.374881E-05
0.052,1.384077E-05
0.053,1.391128E-05
0.054,1.400324E-05
0.055,1.420863E-05
0.056,1.42822E-05
0.057,1.436497E-05
0.058,1.448452E-05
0.059,1.446919E-05
0.06,1.461021E-05
0.061,1.465312E-05
0.062,1.469604E-05
0.063,1.486771E-05
0.064,1.493821E-05
0.065,1.490449E-05
0.066,1.499339E-05
0.067,1.504857E-05
0.068,1.510375E-05
0.069,1.522943E-05
0.07,1.527542E-05
0.071,1.543175E-05
0.072,1.552985E-05
0.073,1.56586E-05
0.074,1.577509E-05
0.075,1.58272E-05
0.076,1.59161E-05
0.077,1.597435E-05
0.078,1.597435E-05
0.079,1.60847E-05
0.08,1.60847E-05
0.081,1.615827E-05
0.082,1.629009E-05
0.083,1.642804E-05
0.084,1.65997E-05
0.085,1.669473E-05
0.086,1.671619E-05
0.087,1.682042E-05
0.088,1.688173E-05
0.089,1.693078E-05
0.09,1.692465E-05
0.091,1.702887E-05
0.092,1.716375E-05
0.093,1.728944E-05
0.094,1.741512E-05
0.095,1.754387E-05
0.096,1.765423E-05
0.097,1.771247E-05
0.098,1.783509E-05
0.099,1.786575E-05
0.1,1.796384E-05
0.101,1.797304E-05
0.102,1.802209E-05
0.103,1.812325E-05
0.104,1.820602E-05
0.105,1.836236E-05
0.106,1.852176E-05
0.107,1.863212E-05
0.108,1.873021E-05
0.109,1.883751E-05
0.11,1.888042E-05
0.111,1.897239E-05
0.112,1.900304E-05
0.113,1.906435E-05
0.114,1.915938E-05
0.115,1.934638E-05
0.116,1.95487E-05
0.117,1.968051E-05
0.118,1.974489E-05
0.119,1.994108E-05
0.12,1.995947E-05
0.121,2.003918E-05
0.122,2.013114E-05
0.123,2.018326E-05
0.124,2.032427E-05
0.125,2.043769E-05
0.126,2.050513E-05
0.127,2.068293E-05
0.128,2.086073E-05
0.129,2.103239E-05
0.13,2.120406E-05
0.131,2.125004E-05
0.132,2.142171E-05
0.133,2.152594E-05
0.134,2.167614E-05
0.135,2.172826E-05
0.136,2.181103E-05
0.137,2.193671E-05
0.138,2.211451E-05
0.139,2.226778E-05
0.14,2.256207E-05
0.141,2.270002E-05
0.142,2.283796E-05
0.143,2.29851E-05
0.144,2.299737E-05
0.145,2.316597E-05
0.146,2.330392E-05
0.147,2.352157E-05
0.148,2.374228E-05
0.149,2.392621E-05
0.15,2.401204E-05
0.151,2.41929E-05
0.152,2.430633E-05
0.153,2.441668E-05
0.154,2.46374E-05
0.155,2.486118E-05
0.156,2.513094E-05
0.157,2.525356E-05
0.158,2.543443E-05
0.159,2.605777E-05
0.16,2.618039E-05
0.161,2.633366E-05
0.162,2.645628E-05
0.163,2.670152E-05
0.164,2.69161E-05
0.165,2.7192E-05
0.166,2.740658E-05
0.167,2.765182E-05
0.168,2.78051E-05
0.169,2.805033E-05
0.17,2.820361E-05
0.171,2.835688E-05
0.172,2.863277E-05
0.173,2.887801E-05
0.174,2.912325E-05
0.175,2.946045E-05
0.176,2.970569E-05
0.177,2.985897E-05
0.178,3.013486E-05
0.179,3.028813E-05
0.18,3.056403E-05
0.181,3.074796E-05
0.182,3.10545E-05
0.183,3.13304E-05
0.184,3.163695E-05
0.185,3.203546E-05
0.186,3.231135E-05
0.187,3.258725E-05
0.188,3.289379E-05
0.189,3.310838E-05
0.19,3.338427E-05
0.191,3.369082E-05
0.192,3.396671E-05
0.193,3.424261E-05
0.194,3.467178E-05
0.195,3.507029E-05
0.196,3.54688E-05
0.197,3.577535E-05
0.198,3.602059E-05
0.199,3.644975E-05
0.2,3.669499E-05
0.201,3.700154E-05
0.202,3.740006E-05
0.203,3.779857E-05
0.204,3.825839E-05
0.205,3.868755E-05
0.206,3.905542E-05
0.207,3.948458E-05
0.208,3.982179E-05
0.209,4.025095E-05
0.21,4.05575E-05
0.211,4.101732E-05
0.212,4.15078E-05
0.213,4.196762E-05
0.214,4.248875E-05
0.215,4.294858E-05
0.216,4.34084E-05
0.217,4.380691E-05
0.218,4.43587E-05
0.219,4.472656E-05
0.22,4.521704E-05
0.221,4.56462E-05
0.222,4.619799E-05
0.223,4.668847E-05
0.224,4.736287E-05
0.225,4.7884E-05
0.226,4.840514E-05
0.227,4.892627E-05
0.228,4.950871E-05
0.229,4.999919E-05
0.23,5.052032E-05
0.231,5.110276E-05
0.232,5.162389E-05
0.233,5.226765E-05
0.234,5.29727E-05
0.235,5.35858E-05
0.236,5.422956E-05
0.237,5.48733E-05
0.238,5.545575E-05
0.239,5.60995E-05
0.24,5.67739E-05
0.241,5.732569E-05
0.242,5.80001E-05
0.243,5.86745E-05
0.244,5.941022E-05
0.245,6.014594E-05
0.246,6.085099E-05
0.247,6.164802E-05
0.248,6.241439E-05
0.249,6.315011E-05
0.25,6.385517E-05
0.251,6.456023E-05
0.252,6.538791E-05
0.253,6.606232E-05
0.254,6.676737E-05
0.255,6.762571E-05
0.256,6.84534E-05
0.257,6.937304E-05
0.258,7.023137E-05
0.259,7.099774E-05
0.26,7.188674E-05
0.261,7.268375E-05
0.262,7.345013E-05
0.263,7.440043E-05
0.264,7.525877E-05
0.265,7.61171E-05
0.266,7.715936E-05
0.267,7.807901E-05
0.268,7.909062E-05
0.269,7.997961E-05
0.27,8.086859E-05
0.271,8.191086E-05
0.272,8.286116E-05
0.273,8.375015E-05
0.274,8.476176E-05
0.275,8.571206E-05
0.276,8.681563E-05
0.277,8.794986E-05
0.278,8.896147E-05
0.279,9.012635E-05
0.28,9.107665E-05
0.281,9.211891E-05
0.282,9.319183E-05
0.283,9.42341E-05
0.284,9.542964E-05
0.285,9.659452E-05
0.286,9.77594E-05
0.287,9.89856E-05
0.288,0.0001001198
0.289,0.000101254
0.29,0.0001024189
0.291,0.0001036145
0.292,0.0001049326
0.293,0.0001062508
0.294,0.000107477
0.295,0.0001088258
0.296,0.00010996
0.297,0.0001112169
0.298,0.0001125657
0.299,0.0001138225
0.3,0.0001153246
0.301,0.0001167654
0.302,0.0001180529
0.303,0.000119463
0.304,0.0001208731
0.305,0.000122222
0.306,0.0001236321
0.307,0.0001252568
0.308,0.0001267589
0.309,0.0001282303
0.31,0.000129763
0.311,0.0001314491
0.312,0.0001329205
0.313,0.0001345758
0.314,0.0001362312
0.315,0.0001378253
0.316,0.0001396339
0.317,0.0001411666
0.318,0.0001428526
0.319,0.0001446919
0.32,0.0001463473
0.321,0.0001482479
0.322,0.0001501178
0.323,0.0001519571
0.324,0.0001540723
0.325,0.0001559423
0.326,0.0001579961
0.327,0.0001602339
0.328,0.0001623491
0.329,0.0001644643
0.33,0.0001668554
0.331,0.0001690932
0.332,0.0001716375
0.333,0.0001741206
0.334,0.0001768795
0.335,0.0001798837
0.336,0.0001831024
0.337,0.0001866891
0.338,0.0001906129
0.339,0.0001951191
0.34,0.0002004224
0.341,0.0002060322
0.342,0.0002128683
0.343,0.0002208385
0.344,0.0002295139
0.345,0.0002400898
0.346,0.000252413
0.347,0.0002663916
0.348,0.0002837729
0.349,0.0003044955
0.35,0.0003341493
0.351,0.0003687892
0.352,0.0004153846
0.353,0.0004800663
0.354,0.0005698849
0.355,0.0006915845
0.356,0.0008503766
0.357,0.001045341
0.358,0.001274946
0.359,0.001531833
0.36,0.001805581
0.361,0.002093123
0.362,0.002386184
0.363,0.002681083
0.364,0.002977515
0.365,0.003301642
0.366,0.003586731
0.367,0.003871821
0.368,0.004147714
0.369,0.004426674
0.37,0.004696436
0.371,0.004963133
0.372,0.00522983
0.373,0.005490396
0.374,0.005754027
0.375,0.006017659
0.376,0.006278225
0.377,0.006544922
0.378,0.006808553
0.379,0.007072185
0.38,0.007341947
0.381,0.007605579
0.382,0.007872276
0.383,0.008142038
0.384,0.00840567
0.385,0.008675433
0.386,0.008945195
0.387,0.009211891
0.388,0.009481654
0.389,0.009748352
0.39,0.01001198
0.391,0.01027868
0.392,0.01054538
0.393,0.01080594
0.394,0.01106651
0.395,0.01133014
0.396,0.01158458
0.397,0.01184208
0.398,0.01210264
0.399,0.01235094
0.4,0.01259925
0.401,0.01285062
0.402,0.01308973
0.403,0.01333803
0.404,0.0135802
0.405,0.01380705
0.406,0.01404616
0.407,0.01427607
0.408,0.01449065
0.409,0.01472363
0.41,0.01495354
0.411,0.01515586
0.412,0.01537964
0.413,0.01558196
0.414,0.01577815
0.415,0.01598661
0.416,0.01617667
0.417,0.0163606
0.418,0.01655679
0.419,0.01673459
0.42,0.01690932
0.421,0.01708711
0.422,0.01725572
0.423,0.01741819
0.424,0.01758066
0.425,0.01773393
0.426,0.01788414
0.427,0.01803742
0.428,0.01817843
0.429,0.01831944
0.43,0.01846658
0.431,0.01859227
0.432,0.01872408
0.433,0.0188651
0.434,0.01898465
0.435,0.0191134
0.436,0.01924828
0.437,0.0193617
0.438,0.01949352
0.439,0.0196284
0.44,0.01973876
0.441,0.01987671
0.442,0.02000852
0.443,0.02012194
0.444,0.02026602
0.445,0.02039477
0.446,0.02052046
0.447,0.02066453
0.448,0.02079635
0.449,0.02092816
0.45,0.02107838
0.451,0.02121019
0.452,0.02134814
0.453,0.02149528
0.454,0.02163016
0.455,0.02176811
0.456,0.02192138
0.457,0.02205933
0.458,0.02219421
0.459,0.02235055
0.46,0.02248543
0.461,0.02262338
0.462,0.02278585
0.463,0.02292073
0.464,0.02305868
0.465,0.02321808
0.466,0.0233499
0.467,0.02349398
0.468,0.02365338
0.469,0.02378213
0.47,0.02392621
0.471,0.02408561
0.472,0.0242113
0.473,0.02436764
0.474,0.02452398
0.475,0.02465273
0.476,0.0248152
0.477,0.02496541
0.478,0.02510029
0.479,0.02526276
0.48,0.0254191
0.481,0.02555704
0.482,0.02572565
0.483,0.02588199
0.484,0.02602606
0.485,0.02619773
0.486,0.0263602
0.487,0.02650428
0.488,0.02668208
0.489,0.02685374
0.49,0.02700702
0.491,0.02719708
0.492,0.02737181
0.493,0.02753428
0.494,0.02773354
0.495,0.02791134
0.496,0.02808913
0.497,0.02829759
0.498,0.02847845
0.499,0.02867158
0.5,0.02889536
0.501,0.02908235
0.502,0.0292908
0.503,0.02952685
0.504,0.0297261
0.505,0.02994988
0.506,0.03096254
0.507,0.03117712
0.508,0.03142237
0.509,0.03169826
0.51,0.03191284
0.511,0.03218874
0.512,0.03246463
0.513,0.03270987
0.514,0.03301642
0.515,0.03329231
0.516,0.0335682
0.517,0.03387475
0.518,0.0341813
0.519,0.03448785
0.52,0.0347944
0.521,0.0351316
0.522,0.03543815
0.523,0.03577535
0.524,0.03611255
0.525,0.03644976
0.526,0.03681761
0.527,0.03715482
0.528,0.03749202
0.529,0.03789053
0.53,0.03825839
0.531,0.03859559
0.532,0.03902476
0.533,0.03939262
0.534,0.03976048
0.535,0.04015899
0.536,0.0405575
0.537,0.04095602
0.538,0.04135453
0.539,0.04175304
0.54,0.04215155
0.541,0.04258072
0.542,0.04294858
0.543,0.04337775
0.544,0.04380691
0.545,0.04420543
0.546,0.0446346
0.547,0.04509442
0.548,0.04549293
0.549,0.0459221
0.55,0.04638192
0.551,0.04678043
0.552,0.04724025
0.553,0.04766942
0.554,0.04806793
0.555,0.04852776
0.556,0.04898758
0.557,0.0493861
0.558,0.04984592
0.559,0.05027508
0.56,0.05070425
0.561,0.05119473
0.562,0.05162389
0.563,0.05205306
0.564,0.05251288
0.565,0.05294205
0.566,0.05340188
0.567,0.05389235
0.568,0.05432152
0.569,0.05475069
0.57,0.05524116
0.571,0.05567033
0.572,0.05613015
0.573,0.05658998
0.574,0.05701914
0.575,0.05747896
0.576,0.05796945
0.577,0.05839861
0.578,0.05888909
0.579,0.05934891
0.58,0.05977808
0.581,0.0602379
0.582,0.06072838
0.583,0.06115754
0.584,0.06164802
0.585,0.0621385
0.586,0.06256767
0.587,0.06305815
0.588,0.06354862
0.589,0.06397779
0.59,0.06446826
0.591,0.06489744
0.592,0.0653266
0.593,0.06581708
0.594,0.06624625
0.595,0.06667542
0.596,0.06719655
0.597,0.06762572
0.598,0.06808554
0.599,0.06860667
0.6,0.06906649
0.601,0.06955697
0.602,0.0700781
0.603,0.07053792
0.604,0.0710284
0.605,0.07151888
0.606,0.0719787
0.607,0.07246917
0.608,0.07299031
0.609,0.07341947
0.61,0.07390995
0.611,0.07443108
0.612,0.07486025
0.613,0.07538139
0.614,0.07587186
0.615,0.07633169
0.616,0.07682216
0.617,0.07731264
0.618,0.07777246
0.619,0.07829359
0.62,0.07878407
0.621,0.07921324
0.622,0.07976502
0.623,0.08022485
0.624,0.08068467
0.625,0.08120581
0.626,0.08166563
0.627,0.08212545
0.628,0.08267724
0.629,0.08313706
0.63,0.08359688
0.631,0.08414867
0.632,0.08460849
0.633,0.08509897
0.634,0.08565076
0.635,0.08611058
0.636,0.08660105
0.637,0.08712219
0.638,0.08758201
0.639,0.08807249
0.64,0.08859362
0.641,0.08905344
0.642,0.08957457
0.643,0.09006505
0.644,0.09052487
0.645,0.09107666
0.646,0.09156714
0.647,0.09202696
0.648,0.09254809
0.649,0.09306922
0.65,0.09349839
0.651,0.09405018
0.652,0.09454065
0.653,0.09500048
0.654,0.09552161
0.655,0.09601208
0.656,0.09647191
0.657,0.09699304
0.658,0.09745286
0.659,0.09791268
0.66,0.09846447
0.661,0.09892429
0.662,0.09938411
0.663,0.09990525
0.664,0.1003651
0.665,0.1008555
0.666,0.1013767
0.667,0.1018365
0.668,0.102327
0.669,0.1028481
0.67,0.1033079
0.671,0.1037984
0.672,0.1043195
0.673,0.1047794
0.674,0.1052698
0.675,0.105791
0.676,0.1062508
0.677,0.1067413
0.678,0.1072931
0.679,0.1077222
0.68,0.1082433
0.681,0.1087951
0.682,0.1092243
0.683,0.1097454
0.684,0.1102666
0.685,0.1106957
0.686,0.1112475
0.687,0.1117687
0.688,0.1121978
0.689,0.1127496
0.69,0.1132401
0.691,0.1136693
0.692,0.1142211
0.693,0.1147115
0.694,0.1151713
0.695,0.1157231
0.696,0.1162136
0.697,0.1166734
0.698,0.1172559
0.699,0.1177464
0.7,0.1178383
0.6990001,0.1174091
0.6980001,0.1168574
0.6970001,0.1163362
0.6960001,0.1159071
0.6950001,0.1153553
0.6940001,0.1148648
0.6930001,0.114405
0.6920001,0.1138838
0.6910001,0.1133627
0.6900001,0.1129029
0.6890001,0.1123818
0.6880001,0.1118913
0.6870001,0.1114315
0.6860001,0.1109103
0.6850001,0.1104198
0.6840001,0.10996
0.6830001,0.1094082
0.6820001,0.1089484
0.6810001,0.1084886
0.6800001,0.1079368
0.6790001,0.107477
0.6780001,0.1069865
0.6770001,0.1064347
0.6760001,0.1059749
0.6750001,0.1054844
0.6740001,0.1049633
0.6730001,0.1045035
0.6720001,0.104013
0.6710001,0.1034612
0.6700001,0.103032
0.6690001,0.1025109
0.6680001,0.1019898
0.6670001,0.1015606
0.6660001,0.1010395
0.6650001,0.1004877
0.6640001,0.1000585
0.6630001,0.09953739
0.6620001,0.09904691
0.6610001,0.09858709
0.6600001,0.09806596
0.6590001,0.09757548
0.6580001,0.09711566
0.6570001,0.09659453
0.6560001,0.09610405
0.6550001,0.09561357
0.6540001,0.09509244
0.6530001,0.09463262
0.6520001,0.09414214
0.6510001,0.09362101
0.6500001,0.09316119
0.6490001,0.09264006
0.6480001,0.09211892
0.6470001,0.0916591
0.6460001,0.09116862
0.6450001,0.09064749
0.6440001,0.09021832
0.6430001,0.08969719
0.6420001,0.08917606
0.6410001,0.08874689
0.6400001,0.08822576
0.6390001,0.08770462
0.6380001,0.08727546
0.6370001,0.08675433
0.6360001,0.08623319
0.6350001,0.08580403
0.6340001,0.08528289
0.6330001,0.08476176
0.6320001,0.08433259
0.6310001,0.08381146
0.6300001,0.08332099
0.6290001,0.08286116
0.6280001,0.08234003
0.6270001,0.08184955
0.6260001,0.08138973
0.6250001,0.08086859
0.6240001,0.08040877
0.6230001,0.07994895
0.6220001,0.07939716
0.6210001,0.078968
0.6200001,0.07847752
0.6190001,0.07795639
0.6180001,0.07749657
0.6170001,0.07700609
0.6160001,0.07648496
0.6150001,0.07602514
0.6140001,0.07553466
0.6130001,0.07501353
0.6120001,0.07455371
0.6110001,0.07409389
0.6100001,0.07357275
0.6090001,0.07311293
0.6080001,0.07262245
0.6070001,0.07210132
0.6060001,0.07167216
0.6050001,0.07115102
0.6040001,0.07066055
0.6030001,0.07023137
0.6020001,0.06971025
0.6010001,0.06921976
0.6000001,0.06875994
0.5990001,0.06823882
0.5980001,0.06777899
0.5970001,0.06731917
0.5960001,0.06679803
0.5950001,0.06633821
0.5940001,0.06587839
0.5930001,0.06535726
0.5920001,0.06489744
0.5910001,0.06443761
0.5900001,0.06391648
0.5890001,0.06348731
0.5880001,0.06299683
0.5870001,0.06247571
0.5860001,0.06204654
0.5850001,0.06155606
0.5840001,0.06103493
0.5830001,0.06060576
0.5820001,0.06011529
0.5810001,0.0596248
0.5800001,0.05919564
0.5790001,0.05870516
0.5780001,0.05821468
0.5770001,0.05775486
0.5760001,0.05726438
0.5750001,0.05677391
0.5740001,0.05634474
0.5730001,0.05585426
0.5720001,0.05536379
0.5710001,0.05493462
0.5700001,0.05441349
0.5690001,0.05395366
0.5680001,0.05349384
0.5670001,0.05300336
0.5660001,0.05254354
0.5650001,0.05208372
0.5640001,0.05159324
0.5630001,0.05113342
0.5620001,0.05067359
0.5610001,0.05018312
0.5600001,0.04975395
0.5590001,0.04929413
0.5580001,0.04880365
0.5570001,0.04837449
0.5560001,0.04791466
0.5550001,0.04742418
0.5540001,0.04696436
0.5530001,0.04650454
0.5520001,0.04601406
0.5510001,0.04558489
0.5500001,0.04509442
0.5490001,0.0446346
0.5480001,0.04420543
0.5470001,0.04371495
0.5460001,0.04325513
0.5450001,0.04282596
0.5440001,0.04233548
0.5430001,0.04187566
0.5420001,0.04147715
0.5410001,0.04098667
0.5400001,0.04052685
0.5390001,0.04009768
0.5380001,0.0396072
0.5370001,0.03917804
0.5360001,0.03874887
0.5350001,0.03825839
0.5340001,0.03779857
0.5330001,0.0373694
0.5320001,0.03690958
0.5310001,0.03644976
0.5300001,0.03602059
0.5290001,0.03556077
0.5280001,0.0351316
0.5270001,0.03470243
0.5260001,0.03424261
0.5250001,0.03381344
0.5240001,0.03338427
0.5230001,0.03292445
0.5220001,0.03249529
0.5210001,0.03206612
0.5200001,0.03160629
0.5190001,0.03117712
0.5180001,0.03074796
0.5170001,0.03028814
0.5160001,0.02985897
0.5150001,0.0294298
0.5140001,0.02896998
0.5130001,0.02857147
0.5120001,0.0281423
0.5110001,0.02768247
0.5100001,0.02728396
0.5090001,0.0268548
0.5080001,0.02642563
0.5070001,0.02599646
0.5060001,0.02556729
0.5050001,0.02513812
0.5040001,0.02473961
0.5030001,0.02431045
0.5020001,0.02391193
0.5010001,0.02348276
0.5000001,0.02308425
0.4990001,0.02265508
0.4980001,0.02225657
0.4970001,0.02182741
0.4960001,0.02142889
0.4950001,0.02103038
0.4940001,0.02063187
0.4930001,0.02023335
0.4920001,0.01983484
0.4910001,0.01943633
0.4900001,0.01900716
0.4890001,0.0186393
0.4880001,0.01824079
0.4870001,0.01787293
0.4860001,0.01747442
0.4850001,0.01707591
0.4840001,0.01670805
0.4830001,0.01634019
0.4820001,0.01594168
0.4810001,0.01557382
0.4800001,0.01520596
0.4790001,0.01480745
0.4780001,0.01443959
0.4770001,0.01407173
0.4760001,0.01370388
0.4750001,0.01336667
0.4740001,0.01248889
0.4730001,0.0121333
0.4720001,0.01179609
0.4710001,0.01143743
0.4700001,0.01110023
0.4690001,0.01076609
0.4680001,0.01041969
0.4670001,0.01008862
0.4660001,0.009763679
0.4650001,0.009429541
0.4640001,0.009110731
0.4630001,0.008791921
0.4620001,0.008470045
0.4610001,0.008157366
0.4600001,0.007850817
0.4590001,0.007541204
0.4580001,0.007243852
0.4570001,0.0069465
0.4560001,0.006652214
0.4550001,0.006364059
0.4540001,0.006078968
0.4530001,0.005796944
0.4520001,0.005521051
0.4510001,0.005251288
0.4500001,0.004981526
0.4490001,0.004724025
0.4480001,0.004463459
0.4470001,0.004205959
0.4460001,0.003966851
0.4450001,0.003721613
0.4440001,0.00347944
0.4430001,0.003252594
0.4420001,0.003019617
0.4410001,0.002795837
0.4400001,0.002581253
0.4390001,0.002366669
0.4380001,0.002158216
0.4370001,0.00195896
0.4360001,0.001756638
0.4350001,0.001569644
0.4340001,0.001382649
0.4330001,0.00119872
0.4320001,0.0009929215
0.4310001,0.0008169628
0.4300001,0.0006520398
0.4290001,0.0004895693
0.4280001,0.0003286314
0.4270001,0.000179649
0.4260001,2.882721E-05
0.4250001,-0.0001197979
0.4240001,-0.0002557827
0.4230001,-0.000394516
0.4220001,-0.0005263317
0.4210001,-0.0006520165
0.4200001,-0.0007780078
0.4190001,-0.000896642
0.4180001,-0.001015889
0.4170001,-0.001129619
0.4160001,-0.001241202
0.4150001,-0.001352479
0.4140001,-0.001456093
0.4130001,-0.001560626
0.4120001,-0.001664852
0.4110001,-0.001762028
0.4100001,-0.001867787
0.4090001,-0.001972013
0.4080001,-0.002061832
0.4070001,-0.002158395
0.4060001,-0.002250666
0.4050001,-0.002342937
0.4040001,-0.00243766
0.4030001,-0.002530851
0.4020001,-0.002625268
0.4010001,-0.002718152
0.4000001,-0.002813795
0.3990001,-0.00291097
0.3980001,-0.003005081
0.3970001,-0.003071497
0.3960001,-0.003169592
0.3950001,-0.003267688
0.3940001,-0.003378045
0.3930001,-0.003482271
0.3920001,-0.003586498
0.3910001,-0.003706052
0.3900001,-0.003816409
0.3890001,-0.003935963
0.3880001,-0.004061648
0.3870001,-0.004181202
0.3860001,-0.004309952
0.3850001,-0.004441767
0.3840001,-0.004570518
0.3830001,-0.004714595
0.3820001,-0.004855608
0.3810001,-0.00499662
0.3800001,-0.005149893
0.3790001,-0.005300103
0.3780001,-0.005453377
0.3770001,-0.005615847
0.3760001,-0.005775252
0.3750001,-0.005937723
0.3740001,-0.006106324
0.3730001,-0.006271861
0.3720001,-0.006443528
0.3710001,-0.006621325
0.3700001,-0.006792993
0.3690001,-0.006964659
0.3680001,-0.007145523
0.3670001,-0.007326386
0.3660001,-0.007501119
0.3650001,-0.007685048
0.3640001,-0.007862846
0.3630001,-0.008037578
0.3620001,-0.008224573
0.3610001,-0.008399305
0.3600001,-0.008577104
0.3590001,-0.008761032
0.3580001,-0.008932699
0.3570001,-0.009110497
0.3560001,-0.009288295
0.3550001,-0.009450765
0.3540001,-0.009628564
0.3530001,-0.009797165
0.3520001,-0.00995657
0.3510001,-0.01013437
0.3500001,-0.01029377
0.3490001,-0.01045318
0.3480001,-0.01062791
0.3470001,-0.01077812
0.3460001,-0.01094059
0.3450001,-0.01111226
0.3440001,-0.01126553
0.3430001,-0.011428
0.3420001,-0.0115966
0.3410001,-0.01174988
0.3400001,-0.01191235
0.3390001,-0.01208095
0.3380001,-0.01223729
0.3370001,-0.01239976
0.3360001,-0.0125653
0.3350001,-0.01271857
0.3340001,-0.01288104
0.3330001,-0.01304045
0.3320001,-0.01318759
0.3310001,-0.01334393
0.3300001,-0.0134972
0.3290001,-0.01362902
0.3280001,-0.01377616
0.3270001,-0.01391104
0.3260001,-0.01402753
0.3250001,-0.01415628
0.3240001,-0.01426664
0.3230001,-0.01436167
0.3220001,-0.0144659
0.3210001,-0.01454253
0.3200001,-0.01460997
0.3190001,-0.01468355
0.3180001,-0.0147234
0.3170001,-0.01475712
0.3160001,-0.01479084
0.3150001,-0.01478777
0.3140001,-0.01479084
0.3130001,-0.01478471
0.3120001,-0.01474485
0.3110001,-0.01471727
0.3100001,-0.01467128
0.3090001,-0.01460078
0.3080001,-0.01454253
0.3070001,-0.01447203
0.3060001,-0.01437393
0.3050001,-0.0142881
0.3040001,-0.01418081
0.3030001,-0.01406432
0.3020001,-0.01395703
0.3010001,-0.01382828
0.3000001,-0.01369339
0.2990001,-0.01356771
0.2980001,-0.01342057
0.2970001,-0.01327036
0.2960001,-0.01313548
0.2950001,-0.01297607
0.2940001,-0.0128228
0.2930001,-0.01267872
0.2920001,-0.01251012
0.2910001,-0.01235071
0.2900001,-0.01220357
0.2890001,-0.0120319
0.2880001,-0.0118725
0.2870001,-0.01172229
0.2860001,-0.01154449
0.2850001,-0.01138815
0.2840001,-0.01122875
0.2830001,-0.01104788
0.2820001,-0.01088848
0.2810001,-0.01071988
0.2800001,-0.01053901
0.2790001,-0.01037348
0.2780001,-0.01018955
0.2770001,-0.009999488
0.2760001,-0.00982169
0.2750001,-0.009619367
0.2740001,-0.009410915
0.2730001,-0.009205527
0.2720001,-0.008978682
0.2710001,-0.008739574
0.2700001,-0.008500466
0.2690001,-0.00823377
0.2680001,-0.007964007
0.2670001,-0.007688113
0.2660001,-0.007403024
0.2650001,-0.007124064
0.2640001,-0.006854302
0.2630001,-0.006587605
0.2620001,-0.006342367
0.2610001,-0.00610939
0.2600001,-0.00588561
0.2590001,-0.005683288
0.2580001,-0.005490162
0.2570001,-0.005306234
0.2560001,-0.005143763
0.2550001,-0.004987423
0.2540001,-0.004834149
0.2530001,-0.004699268
0.2520001,-0.004567452
0.2510001,-0.004441767
0.2500001,-0.00433141
0.2490001,-0.004217987
0.2480001,-0.004110695
0.2470001,-0.004015665
0.2460001,-0.003914505
0.2450001,-0.003825605
0.2440001,-0.003739772
0.2430001,-0.003653938
0.2420001,-0.003577302
0.2410001,-0.003500664
0.2400001,-0.003427093
0.2390001,-0.003356587
0.2380001,-0.003292212
0.2370001,-0.003224771
0.2360001,-0.003163461
0.2350001,-0.003102152
0.2340001,-0.003043907
0.2330001,-0.002991794
0.2320001,-0.002939681
0.2310001,-0.002887568
0.2300001,-0.00283852
0.2290001,-0.002792538
0.2280001,-0.002746556
0.2270001,-0.002700574
0.2260001,-0.002660722
0.2250001,-0.002617805
0.2240001,-0.00258102
0.2230001,-0.002541168
0.2220001,-0.002504382
0.2210001,-0.002467597
0.2200001,-0.002433876
0.2190001,-0.002400156
0.2180001,-0.002369501
0.2170001,-0.002335781
0.2160001,-0.002305126
0.2150001,-0.002277537
0.2140001,-0.002246882
0.2130001,-0.002219293
0.2120001,-0.002191703
0.2110001,-0.002164114
0.2100001,-0.00213959
0.2090001,-0.002115066
0.2080001,-0.002087477
0.2070001,-0.002062953
0.2060001,-0.002041495
0.2050001,-0.002016971
0.2040001,-0.001995512
0.2030001,-0.001974054
0.2020001,-0.001952596
0.2010001,-0.001931137
0.2000001,-0.001909679
0.1990001,-0.001891286
0.1980001,-0.001872893
0.1970001,-0.001851435
0.1960001,-0.001833042
0.1950001,-0.001814649
0.1940001,-0.001796256
0.1930001,-0.001780929
0.1920001,-0.001762536
0.1910001,-0.001747208
0.1900001,-0.001728815
0.1890001,-0.001713488
0.1880001,-0.001698161
0.1870001,-0.001679768
0.1860001,-0.00166444
0.1850001,-0.001649113
0.1840001,-0.001636851
0.1830001,-0.001621523
0.1820001,-0.001643394
0.1810001,-0.001629599
0.1800001,-0.001616417
0.1790001,-0.00160201
0.1780001,-0.001588828
0.1770001,-0.001575953
0.1760001,-0.001562772
0.1750001,-0.001550816
0.1740001,-0.001538248
0.1730001,-0.001525986
0.1720001,-0.001514337
0.1710001,-0.001502382
0.1700001,-0.001490733
0.1690001,-0.00147939
0.1680001,-0.001468048
0.1670001,-0.001457012
0.1660001,-0.001446283
0.1650001,-0.001435247
0.1640001,-0.001424825
0.1630001,-0.001414709
0.1620001,-0.001404286
0.1610001,-0.001393863
0.1600001,-0.00138436
0.1590001,-0.001374551
0.1580001,-0.001364435
0.1570001,-0.001355238
0.1560001,-0.001345735
0.1550001,-0.001336232
0.1540001,-0.001327342
0.1530001,-0.001318453
0.1520001,-0.001309563
0.1510001,-0.001300979
0.1500001,-0.001292089
0.1490001,-0.001283813
0.1480001,-0.001275536
0.1470001,-0.001266646
0.1460001,-0.001258676
0.1450001,-0.001250705
0.1440001,-0.001242429
0.1430001,-0.001234765
0.1420001,-0.001227101
0.1410001,-0.001219131
0.1400001,-0.00121208
0.1390001,-0.001204417
0.1380001,-0.001196753
0.1370001,-0.001189702
0.1360001,-0.001182038
0.1350001,-0.001174988
0.1340001,-0.001168244
0.1330001,-0.001161193
0.1320001,-0.001154143
0.1310001,-0.001147398
0.1300001,-0.001140655
0.1290001,-0.00113391
0.1280001,-0.001127473
0.1270001,-0.001121035
0.1260001,-0.001114598
0.1250001,-0.001108467
0.1240001,-0.001102029
0.1230001,-0.001095898
0.1220001,-0.001089768
0.1210001,-0.001083637
0.1200001,-0.001077506
0.1190001,-0.001071988
0.1180001,-0.001066163
0.1170001,-0.001060339
0.1160001,-0.001054821
0.1150001,-0.001048997
0.1140001,-0.001043479
0.1130001,-0.001037961
0.1120001,-0.001032443
0.1110001,-0.001026925
0.1100001,-0.001021714
0.1090001,-0.001016196
0.1080001,-0.001010985
0.1070001,-0.001005773
0.1060001,-0.001000562
0.1050001,-0.0009956572
0.1040001,-0.0009904457
0.1030001,-0.000985541
0.1020001,-0.0009806362
0.1010001,-0.0009757315
0.1000001,-0.0009711333
0.0990001,-0.0009662285
0.09800009,-0.0009616303
0.09700009,-0.0009567254
0.0960001,-0.0009521273
0.0950001,-0.000947529
0.09400009,-0.0009429308
0.0930001,-0.0009383326
0.0920001,-0.0009337344
0.0910001,-0.0009291361
0.09000009,-0.0009248445
0.0890001,-0.0009208593
0.0880001,-0.0009162611
0.08700009,-0.000912276
0.08600009,-0.0009079843
0.0850001,-0.0009036926
0.0840001,-0.000899401
0.08300009,-0.0008957224
0.08200009,-0.0008914307
0.0810001,-0.0008874455
0.0800001,-0.0008834605
0.07900009,-0.0008794753
0.0780001,-0.0008754902
0.0770001,-0.0008715051
0.07600009,-0.0008675199
0.07500009,-0.0008635348
0.0740001,-0.0008601628
0.0730001,-0.0008561776
0.07200009,-0.000852499
0.07100009,-0.0008488205
0.0700001,-0.0008451419
0.0690001,-0.0008414634
0.06800009,-0.0008380913
0.0670001,-0.0008344128
0.0660001,-0.0008307341
0.06500009,-0.0008273621
0.06400009,-0.0008236835
0.0630001,-0.0008203115
0.0620001,-0.0008169395
0.06100009,-0.0008135674
0.0600001,-0.0008101954
0.0590001,-0.00080713
0.0580001,-0.0008037579
0.0570001,-0.0008003859
0.05600009,-0.0007970139
0.0550001,-0.0007939483
0.05400009,-0.0007905763
0.0530001,-0.0007875108
0.05200009,-0.0007841389
0.0510001,-0.0007810733
0.05000009,-0.0007783144
0.0490001,-0.0007749424
0.04800009,-0.0007718769
0.0470001,-0.0007691179
0.0460001,-0.0007660525
0.04500009,-0.000762987
0.0440001,-0.0007602281
0.04300009,-0.0007571626
0.0420001,-0.0007540971
0.04100009,-0.0007513381
0.0400001,-0.0007482726
0.03900009,-0.0007455137
0.0380001,-0.0007427548
0.03700009,-0.0007396893
0.0360001,-0.0007369304
0.0350001,-0.0007344779
0.03400009,-0.0007314125
0.0330001,-0.0007289601
0.03200009,-0.0007262012
0.03100009,-0.0007234422
0.0300001,-0.0007206833
0.0290001,-0.000718231
0.0280001,-0.000715472
0.0270001,-0.0007127131
0.0260001,-0.0007102606
0.0250001,-0.0007075017
0.0240001,-0.0007047429
0.0230001,-0.000702597
0.02200009,-0.000699838
0.02100009,-0.0006973856
0.02000009,-0.0006949333
0.0190001,-0.0006921744
0.0180001,-0.0006897219
0.0170001,-0.0006872696
0.0160001,-0.0006848171
0.0150001,-0.0006823648
0.0140001,-0.000680219
0.0130001,-0.0006777665
0.0120001,-0.0006753142
0.01100009,-0.0006728618
0.0100001,-0.0006704094
0.009000096,-0.0006682636
0.008000095,-0.0006658112
0.007000095,-0.0006633588
0.006000096,-0.0006609064
0.005000095,-0.0006587606
0.004000095,-0.0006563082
0.003000095,-0.0006541623
0.002000095,-0.0006520165
0.001000095,-0.0006495641
9.536743E-08,-0.0006419004
0.0009999046,-0.0006281057
0.001999905,-0.0006158438
0.002999905,-0.000604195
0.003999905,-0.0005934658
0.004999904,-0.0005830431
0.005999905,-0.0005732336
0.006999905,-0.0005637306
0.007999904,-0.0005545341
0.008999905,-0.0005459508
0.009999905,-0.000537674
0.0109999,-0.0005293972
0.0119999,-0.000521427
0.0129999,-0.0005140697
0.0139999,-0.0005067126
0.0149999,-0.000499662
0.0159999,-0.0004926114
0.0169999,-0.0004858673
0.0179999,-0.0004794298
0.0189999,-0.0004732989
0.0199999,-0.0004668614
0.0209999,-0.0004607304
0.0219999,-0.0004552125
0.02299991,-0.0004490816
0.02399991,-0.0004435637
0.02499991,-0.0004383524
0.02599991,-0.0004328345
0.0269999,-0.0004276232
0.0279999,-0.0004224119
0.0289999,-0.0004175071
0.0299999,-0.0004122957
0.0309999,-0.0004076975
0.0319999,-0.0004024862
0.0329999,-0.000397888
0.0339999,-0.0003932898
0.0349999,-0.0003886915
0.03599991,-0.0003840933
0.0369999,-0.0003798016
0.03799991,-0.00037551
0.0389999,-0.0003715248
0.03999991,-0.0003672332
0.0409999,-0.0003629415
0.04199991,-0.0003592629
0.0429999,-0.0003552778
0.0439999,-0.0003512927
0.0449999,-0.0003476141
0.0459999,-0.0003439355
0.04699991,-0.0003402569
0.0479999,-0.0003365783
0.04899991,-0.0003328998
0.0499999,-0.0003292212
0.05099991,-0.0003258491
0.0519999,-0.0003221706
0.05299991,-0.0003187985
0.0539999,-0.0003154265
0.0549999,-0.0003120545
0.0559999,-0.000308989
0.0569999,-0.000305617
0.05799991,-0.0003025515
0.0589999,-0.0002991795
0.05999991,-0.000296114
0.0609999,-0.0002930485
0.06199991,-0.0002902895
0.0629999,-0.0002872241
0.06399991,-0.0002844651
0.06499991,-0.0002813996
0.0659999,-0.0002786407
0.0669999,-0.0002758818
0.06799991,-0.0002728163
0.0689999,-0.0002703639
0.0699999,-0.0002676049
0.07099991,-0.0002648461
0.07199991,-0.0002623936
0.0729999,-0.0002596347
0.0739999,-0.0002568758
0.07499991,-0.0002544234
0.07599991,-0.0002516645
0.0769999,-0.0002492121
0.0779999,-0.0002467597
0.07899991,-0.0002443073
0.0799999,-0.0002418549
0.0809999,-0.0002394025
0.08199991,-0.0002369501
0.08299991,-0.0002348043
0.0839999,-0.0002323519
0.0849999,-0.0002298995
0.08599991,-0.0002277537
0.08699991,-0.0002256079
0.0879999,-0.000223462
0.0889999,-0.0002213162
0.08999991,-0.0002188638
0.0909999,-0.0002167179
0.0919999,-0.0002148787
0.09299991,-0.0002127328
0.09399991,-0.000210587
0.0949999,-0.0002084412
0.0959999,-0.0002062953
0.09699991,-0.000204456
0.09799991,-0.0002023102
0.0989999,-0.0002001643
0.0999999,-0.0001983251
0.1009999,-0.0001961792
0.1019999,-0.0001943399
0.1029999,-0.0001925007
0.1039999,-0.0001906613
0.1049999,-0.0001888221
0.1059999,-0.0001869828
0.1069999,-0.0001851435
0.1079999,-0.0001833042
0.1089999,-0.0001814649
0.1099999,-0.0001796256
0.1109999,-0.0001777863
0.1119999,-0.0001762536
0.1129999,-0.0001744143
0.1139999,-0.0001728816
0.1149999,-0.0001710423
0.1159999,-0.0001695095
0.1169999,-0.0001676702
0.1179999,-0.0001661375
0.1189999,-0.0001642982
0.1199999,-0.0001627655
0.1209999,-0.0001612327
0.1219999,-0.0001629292
0.1229999,-0.0001614271
0.1239999,-0.0001598944
0.1249999,-0.0001583923
0.1259999,-0.0001568289
0.1269999,-0.0001553881
0.1279999,-0.0001538861
0.1289999,-0.0001523533
0.1299999,-0.0001508512
0.1309999,-0.0001493491
0.1319999,-0.0001477858
0.1329999,-0.0001464063
0.1339999,-0.0001449962
0.1349999,-0.0001434941
0.1359999,-0.0001421453
0.1369999,-0.0001407658
0.1379999,-0.0001393863
0.1389999,-0.0001380988
0.1399999,-0.0001367194
0.1409999,-0.0001353705
0.1419999,-0.000134083
0.1429999,-0.0001327955
0.1439999,-0.0001314774
0.1449999,-0.0001302205
0.1459999,-0.0001288717
0.1469999,-0.0001276455
0.1479999,-0.0001263274
0.1489999,-0.0001251318
0.1499999,-0.000123875
0.1509999,-0.0001226181
0.1519999,-0.0001213613
0.1529999,-0.0001201044
0.1539999,-0.0001188783
0.1549999,-0.0001176827
0.1559999,-0.0001164259
0.1569999,-0.000115261
0.1579999,-0.0001140654
0.1589999,-0.0001129312
0.1599999,-0.0001117663
0.1609999,-0.0001106321
0.1619999,-0.0001094366
0.1629999,-0.0001083637
0.1639999,-0.0001072294
0.1649999,-0.0001061565
0.1659999,-0.0001050223
0.1669999,-0.0001039494
0.1679999,-0.0001028764
0.1689999,-0.0001017729
0.1699999,-0.0001007612
0.1709999,-9.971898E-05
0.1719999,-9.858475E-05
0.1729999,-9.757314E-05
0.1739999,-9.656153E-05
0.1749999,-9.548861E-05
0.1759999,-9.450765E-05
0.1769999,-9.358802E-05
0.1779999,-9.25764E-05
0.1789999,-9.159545E-05
0.1799999,-9.064515E-05
0.1809999,-8.963354E-05
0.1819999,-8.865258E-05
0.1829999,-8.757967E-05
0.1839999,-8.659872E-05
0.1849999,-8.561776E-05
0.1859999,-8.460615E-05
0.1869999,-8.368651E-05
0.1879999,-8.27362E-05
0.1889999,-8.17859E-05
0.1899999,-8.089692E-05
0.1909999,-8.000793E-05
0.1919999,-7.911894E-05
0.1929999,-7.819929E-05
0.1939999,-7.727965E-05
0.1949999,-7.639066E-05
0.1959999,-7.540971E-05
0.1969999,-7.44594E-05
0.1979999,-7.357041E-05
0.1989999,-7.258946E-05
0.1999999,-7.179243E-05
0.2009999,-7.087279E-05
0.2019999,-6.99838E-05
0.2029999,-6.915612E-05
0.2039999,-6.829778E-05
0.2049999,-6.737814E-05
0.2059999,-6.658111E-05
0.2069999,-6.569213E-05
0.2079999,-6.48951E-05
0.2089999,-6.409807E-05
0.2099999,-6.320909E-05
0.2109999,-6.235075E-05
0.2119999,-6.149241E-05
0.2129999,-6.066473E-05
0.2139999,-5.977574E-05
0.2149999,-5.888675E-05
0.2159999,-5.802842E-05
0.2169999,-5.723139E-05
0.2179999,-5.637306E-05
0.2189999,-5.557603E-05
0.2199999,-5.474835E-05
0.2209999,-5.392067E-05
0.2219999,-5.31543E-05
0.2229999,-5.229596E-05
0.2239999,-5.156024E-05
0.2249999,-5.073257E-05
0.2259999,-4.99662E-05
0.2269999,-4.910786E-05
0.2279999,-4.824953E-05
0.2289999,-4.742185E-05
0.2299999,-4.656351E-05
0.2309999,-4.570518E-05
0.2319999,-4.496946E-05
0.2329999,-4.411113E-05
0.2339999,-4.334476E-05
0.2349999,-4.263969E-05
0.2359999,-4.178136E-05
0.2369999,-4.10763E-05
0.2379999,-4.021796E-05
0.2389999,-3.939028E-05
0.2399999,-3.85626E-05
0.2409999,-3.767361E-05
0.2419999,-3.681528E-05
0.2429999,-3.601825E-05
0.2439999,-3.515992E-05
0.2449999,-3.436289E-05
0.2459999,-3.359652E-05
0.2469999,-3.273819E-05
0.2479999,-3.200247E-05
0.2489999,-3.120544E-05
0.2499999,-3.034711E-05
0.2509999,-2.951943E-05
0.2519999,-2.859978E-05
0.2529999,-2.774145E-05
0.2539999,-2.694442E-05
0.2549999,-2.605543E-05
0.2559999,-2.522776E-05
0.2569999,-2.440007E-05
0.2579999,-2.351108E-05
0.2589999,-2.277537E-05
0.2599999,-2.188638E-05
0.2609999,-2.10587E-05
0.2619999,-2.020036E-05
0.2629999,-1.925006E-05
0.2639999,-1.833042E-05
0.2649999,-1.741077E-05
0.2659999,-1.652178E-05
0.2669999,-1.563279E-05
0.2679999,-1.477446E-05
0.2689999,-1.385481E-05
0.2699999,-1.296582E-05
0.2709999,-1.239976E-05
0.2719999,-1.149238E-05
0.2729999,-1.050223E-05
0.2739999,-9.536599E-06
0.2749999,-8.537252E-06
0.2759999,-7.556298E-06
0.2769999,-6.645849E-06
0.2779999,-5.60052E-06
0.2789999,-4.65022E-06
0.2799999,-3.748969E-06
0.2809999,-2.798669E-06
0.2819999,-1.783994E-06
0.2829999,-8.336945E-07
0.2839999,3.097305E-07
0.2849999,1.425566E-06
0.2859999,2.449437E-06
0.2869999,3.531553E-06
0.2879999,4.573817E-06
0.2889999,5.631408E-06
0.2899999,6.692065E-06
0.2909999,7.752722E-06
0.2919999,8.862427E-06
0.2929999,9.99359E-06
0.2939999,1.119219E-05
0.2949999,1.23816E-05
0.2959999,1.360779E-05
0.2969999,1.482172E-05
0.2979999,1.6005E-05
0.2989999,1.718828E-05
0.2999999,1.843899E-05
0.3009999,1.964373E-05
0.3019999,2.081781E-05
0.3029999,2.21421E-05
0.3039999,2.346639E-05
0.3049999,2.483972E-05
0.3059999,2.62805E-05
0.3069999,2.808099E-05
0.3079999,2.952177E-05
0.3089999,3.080927E-05
0.3099999,3.221939E-05
0.3109999,3.372148E-05
0.3119999,3.51929E-05
0.3129999,3.663368E-05
0.3139999,3.825839E-05
0.3149999,3.976047E-05
0.3159999,4.15078E-05
0.3169999,4.319382E-05
0.3179999,4.487983E-05
0.3189999,4.665781E-05
0.3199999,4.837448E-05
0.3209999,5.018312E-05
0.3219999,5.202241E-05
0.3229999,5.389235E-05
0.3239999,5.588491E-05
0.3249999,5.790814E-05
0.3259999,5.9962E-05
0.3269999,6.229177E-05
0.3279999,6.462153E-05
0.3289999,6.698196E-05
0.3299999,6.955697E-05
0.3309999,7.213197E-05
0.3319999,7.492156E-05
0.3329999,7.77418E-05
0.3339999,8.086859E-05
0.3349999,8.405669E-05
0.3359999,8.755135E-05
0.3369999,9.132189E-05
0.3379999,9.533767E-05
0.3389999,9.969066E-05
0.3399999,0.0001046874
0.3409999,0.0001098681
0.3419999,0.0001159071
0.3429999,0.0001227124
0.3439999,0.0001303761
0.3449999,0.0001394193
0.3459999,0.0001500872
0.3469999,0.0001627783
0.3479999,0.0001787495
0.3489999,0.0001983992
0.3499999,0.000223107
0.3509999,0.0002548041
0.3519999,0.0002951458
0.3529999,0.0003503964
0.3539999,0.0004169173
0.3549999,0.0005021378
0.3559999,0.0006115754
0.3569999,0.0007489091
0.3579999,0.0009181238
0.3589999,0.001119219
0.3599999,0.001347904
0.3609999,0.001601113
0.3619999,0.001869956
0.3629999,0.002149222
0.3639999,0.002433699
0.3649999,0.002717256
0.3659999,0.00299836
0.3669999,0.003301642
0.3679999,0.003565273
0.3689999,0.00383197
0.3699999,0.004086405
0.3709999,0.004337775
0.3719999,0.004589144
0.3729999,0.004837448
0.3739999,0.005085752
0.3749999,0.005334056
0.3759999,0.005579295
0.3769999,0.00583373
0.3779999,0.006078968
0.3789999,0.006324207
0.3799999,0.006572511
0.3809999,0.006811619
0.3819999,0.007050727
0.3829999,0.0072929
0.3839999,0.007522811
0.3849999,0.007752722
0.3859999,0.007982633
0.3869999,0.008200282
0.3879999,0.008417931
0.3889999,0.008632516
0.3899999,0.008837903
0.3909999,0.00904329
0.3919999,0.009239481
0.3929999,0.009429541
0.3939999,0.009619601
0.3949999,0.009797399
0.3959999,0.009969066
0.3969999,0.01014073
0.3979999,0.0103032
0.3989999,0.01045341
0.3999999,0.01060362
0.4009999,0.01074463
0.4019999,0.01087338
0.4029999,0.01100826
0.4039999,0.01112782
0.4049999,0.01123511
0.4059999,0.01134853
0.4069999,0.01144663
0.4079999,0.01153246
0.4089999,0.01163669
0.4099999,0.01172559
0.4109999,0.01179609
0.4119999,0.01187886
0.4129999,0.01193711
0.4139999,0.01199841
0.4149999,0.01206279
0.4159999,0.01210877
0.4169999,0.01216395
0.4179999,0.01221606
0.4189999,0.01225285
0.4199999,0.0123019
0.4209999,0.01234788
0.4219999,0.0123816
0.4229999,0.01243065
0.4239999,0.01247357
0.4249999,0.01251035
0.4259999,0.01256246
0.4269999,0.01260538
0.4279999,0.01265136
0.4289999,0.01270961
0.4299999,0.01275865
0.4309999,0.01281077
0.4319999,0.01287514
0.4329999,0.01293339
0.4339999,0.01299163
0.4349999,0.0130652
0.4359999,0.01313264
0.4369999,0.01319702
0.4379999,0.01328285
0.4389999,0.01335336
0.4399999,0.01342693
0.4409999,0.01352196
0.4419999,0.01360166
0.4429999,0.0136875
0.4439999,0.01378866
0.4449999,0.01387142
0.4459999,0.01396952
0.4469999,0.01407681
0.4479999,0.01416878
0.4489999,0.01427913
0.4499999,0.01439256
0.4509999,0.01449065
0.4519999,0.01461327
0.4529999,0.01472976
0.4539999,0.01484318
0.4549999,0.01497806
0.4559999,0.01510068
0.4569999,0.0152233
0.4579999,0.01536738
0.4589999,0.0154992
0.4599999,0.01563408
0.4609999,0.01579042
0.4619999,0.01593143
0.4629999,0.01607551
0.4639999,0.01624104
0.4649999,0.01639432
0.4659999,0.01655066
0.4669999,0.01673152
0.4679999,0.01689706
0.4689999,0.01706566
0.4699999,0.01725878
0.4709999,0.01743658
0.4719999,0.01762051
0.4729999,0.01782896
0.4739999,0.01802209
0.4749999,0.01822747
0.4759999,0.01844819
0.4769999,0.01865051
0.4779999,0.01888042
0.4789999,0.0191134
0.4799999,0.01933412
0.4809999,0.01958548
0.4819999,0.01983379
0.4829999,0.02006983
0.4839999,0.02034266
0.4849999,0.02060322
0.4859999,0.02085766
0.4869999,0.02115195
0.4879999,0.02142784
0.4889999,0.0217068
0.4899999,0.02201335
0.4909999,0.02230457
0.4919999,0.02259886
0.4929999,0.0229238
0.4939999,0.02323034
0.4949999,0.02354609
0.4959999,0.02388023
0.4969999,0.02420517
0.4979999,0.02453317
0.4989999,0.0248857
0.4999999,0.02522291
0.5009999,0.02556624
0.5019999,0.0259341
0.5029999,0.02627437
0.5039999,0.02663609
0.5049999,0.02701315
0.5059999,0.02736261
0.5069999,0.02774273
0.5079999,0.02813205
0.5089999,0.02848458
0.5099999,0.02887696
0.5109999,0.02926934
0.5119999,0.02964027
0.5129999,0.03004798
0.5139999,0.03120778
0.5149999,0.03157564
0.5159999,0.03197415
0.5169999,0.03240332
0.5179999,0.03277118
0.5189999,0.03320035
0.5199999,0.03359886
0.5209999,0.03399737
0.5219999,0.03442654
0.5229999,0.03482505
0.5239999,0.03522356
0.5249999,0.03568339
0.5259999,0.0360819
0.5269999,0.03648041
0.5279999,0.03694023
0.5289999,0.03733874
0.5299999,0.03773726
0.5309999,0.03819708
0.5319999,0.03859559
0.5329999,0.03905542
0.5339999,0.03948459
0.5349999,0.0398831
0.5359999,0.04031226
0.5369999,0.04077209
0.5379999,0.0411706
0.5389999,0.04163042
0.5399999,0.04209024
0.5409999,0.04248876
0.5419999,0.04291793
0.5429999,0.04337775
0.5439999,0.04380691
0.5449999,0.04426674
0.5459999,0.04469591
0.5469999,0.04512507
0.5479999,0.04558489
0.5489999,0.04604472
0.5499999,0.04647389
0.5509999,0.04693371
0.5519999,0.04736288
0.5529999,0.0478227
0.5539999,0.04828252
0.5549999,0.04871169
0.5559999,0.04914085
0.5569999,0.04963133
0.5579999,0.0500605
0.5589999,0.05048966
0.5599999,0.05098015
0.5609999,0.05140931
0.5619999,0.05186913
0.5629999,0.05232896
0.5639999,0.05278878
0.5649999,0.0532486
0.5659999,0.05370842
0.5669999,0.05416824
0.5679999,0.05462807
0.5689999,0.05508789
0.5699999,0.05551706
0.5709999,0.05600753
0.5719999,0.05646735
0.5729999,0.05689653
0.5739999,0.057387
0.5749999,0.05784683
0.5759999,0.05827599
0.5769999,0.05876647
0.5779999,0.05922629
0.5789999,0.05965546
0.5799999,0.06017659
0.5809999,0.06060576
0.5819999,0.06106558
0.5829999,0.06155606
0.5839999,0.06201588
0.5849999,0.06244505
0.5859999,0.06296618
0.5869999,0.063426
0.5879999,0.06385517
0.5889999,0.0643763
0.5899999,0.06480547
0.5909999,0.06526529
0.5919999,0.06575577
0.5929999,0.06618494
0.5939999,0.06664476
0.5949999,0.0671659
0.5959999,0.06759506
0.5969999,0.06808554
0.5979999,0.06857602
0.5989999,0.06900518
0.5999999,0.06949566
0.6009999,0.06998613
0.6019999,0.07044595
0.6029999,0.07093643
0.6039999,0.07139625
0.6049999,0.07185608
0.6059999,0.07234656
0.6069999,0.07280638
0.6079999,0.0732662
0.6089999,0.07378733
0.6099999,0.07424716
0.6109999,0.07470698
0.6119999,0.07522812
0.6129999,0.07565728
0.6139999,0.0761171
0.6149999,0.07663824
0.6159999,0.07709806
0.6169999,0.07755788
0.6179999,0.07807901
0.6189999,0.07853883
0.6199999,0.07899866
0.6209999,0.07951979
0.6219999,0.07994895
0.6229999,0.08043943
0.6239999,0.08096056
0.6249999,0.08138973
0.6259999,0.08184955
0.6269999,0.08237069
0.6279999,0.08283051
0.6289999,0.08329033
0.6299999,0.08381146
0.6309999,0.08427128
0.6319999,0.08476176
0.6329999,0.08528289
0.6339999,0.08571207
0.6349999,0.08623319
0.6359999,0.08672367
0.6369999,0.08715284
0.6379999,0.08767397
0.6389999,0.08816445
0.6399999,0.08859362
0.6409999,0.08914541
0.6419999,0.08960523
0.6429999,0.09003439
0.6439999,0.09058618
0.6449999,0.09101535
0.6459999,0.09150583
0.6469999,0.09202696
0.6479999,0.09248678
0.6489999,0.0929466
0.6499999,0.09349839
0.6509999,0.09392755
0.6519999,0.09441803
0.6529999,0.09496982
0.6539999,0.09539898
0.6549999,0.09588946
0.6559999,0.09641059
0.6569999,0.09687041
0.6579999,0.09733024
0.6589999,0.09785137
0.6599999,0.09828054
0.6609999,0.09880167
0.6619999,0.09929215
0.6629999,0.09975197
0.6639999,0.1002731
0.6649999,0.1007636
0.6659999,0.1012234
0.6669999,0.1017445
0.6679999,0.102235
0.6689999,0.1026948
0.6699999,0.103216
0.6709999,0.1037064
0.6719999,0.1041356
0.6729999,0.104718
0.6739999,0.1051779
0.6749999,0.1056377
0.6759999,0.1061895
0.6769999,0.1066186
0.6779999,0.1071091
0.6789999,0.1076609
0.6799999,0.1080901
0.6809999,0.1085806
0.6819999,0.1091323
0.6829999,0.1095615
0.6839999,0.1100826
0.6849999,0.1105731
0.6859999,0.1110329
0.6869999,0.1115541
0.6879999,0.1120446
0.6889999,0.1125044
0.6899999,0.1130255
0.6909999,0.113516
0.6919999,0.1139758
0.6929999,0.1144969
0.6939999,0.1149874
0.6949999,0.1154472
0.6959999,0.115999
0.6969999,0.1164588
0.6979999,0.1169187
0.6989999,0.1174705
0.6999999,0.1175931
0.6990002,0.1170719
0.6980002,0.1166121
0.6970002,0.1160603
0.6960002,0.1155392
0.6950002,0.11511
0.6940002,0.1145889
0.6930002,0.1140678
0.6920002,0.1136079
0.6910002,0.1130868
0.6900002,0.1125963
0.6890002,0.1121365
0.6880002,0.1115847
0.6870002,0.1111249
0.6860002,0.1106344
0.6850002,0.1101133
0.6840002,0.1096228
0.6830002,0.109163
0.6820002,0.1086112
0.6810002,0.1081514
0.6800002,0.1076609
0.6790002,0.1071091
0.6780002,0.10668
0.6770002,0.1061588
0.6760002,0.105607
0.6750002,0.1051779
0.6740002,0.1046567
0.6730002,0.1041356
0.6720002,0.1037064
0.6710002,0.1031547
0.6700002,0.1026642
0.6690002,0.1022043
0.6680002,0.1016526
0.6670002,0.1011927
0.6660002,0.1007329
0.6650002,0.1001811
0.6640002,0.09969067
0.6630002,0.09923084
0.6620002,0.09867906
0.6610002,0.09824988
0.6600002,0.09775941
0.6590002,0.09720763
0.6580002,0.09677845
0.6570002,0.09628798
0.6560002,0.09576684
0.6550002,0.09530702
0.6540002,0.09481654
0.6530002,0.09429541
0.6520002,0.09383559
0.6510002,0.09334511
0.6500002,0.09279333
0.6490002,0.09236415
0.6480002,0.09184303
0.6470002,0.09132189
0.6460002,0.09089272
0.6450002,0.0903716
0.6440002,0.08988111
0.6430002,0.08942129
0.6420002,0.08890016
0.6410002,0.08840968
0.6400002,0.08798052
0.6390002,0.08742873
0.6380002,0.08696891
0.6370002,0.08650909
0.6360002,0.0859573
0.6350002,0.08549748
0.6340002,0.085007
0.6330002,0.08448587
0.6320002,0.08402605
0.6310002,0.08353557
0.6300002,0.08304509
0.6290002,0.08255462
0.6280002,0.08206414
0.6270002,0.08157366
0.6260002,0.08111384
0.6250002,0.08062336
0.6240002,0.08013289
0.6230002,0.07967306
0.6220002,0.07918259
0.6210002,0.07869211
0.6200002,0.07823228
0.6190002,0.07771116
0.6180002,0.07722067
0.6170002,0.07676085
0.6160002,0.07623972
0.6150002,0.0757799
0.6140002,0.07532008
0.6130002,0.07479894
0.6120002,0.07433912
0.6110002,0.07387929
0.6100002,0.07335817
0.6090002,0.07289835
0.6080002,0.07240786
0.6070002,0.07188674
0.6060002,0.07145756
0.6050002,0.07096709
0.6040002,0.07047661
0.6030002,0.07001679
0.6020002,0.06952631
0.6010002,0.06900518
0.6000002,0.06857602
0.5990002,0.06808554
0.5980002,0.06759506
0.5970002,0.0671659
0.5960002,0.06667542
0.5950002,0.06618494
0.5940002,0.06572511
0.5930002,0.06523464
0.5920002,0.06474417
0.5910002,0.06431499
0.5900002,0.06379386
0.5890002,0.06333404
0.5880002,0.06287422
0.5870002,0.06238374
0.5860002,0.06189326
0.5850002,0.06143344
0.5840002,0.06094296
0.5830002,0.06048314
0.5820002,0.06002332
0.5810002,0.05953284
0.5800002,0.05907302
0.5790002,0.05861319
0.5780002,0.05812272
0.5770002,0.05766289
0.5760002,0.05720307
0.5750002,0.0567126
0.5740002,0.05625277
0.5730002,0.05582361
0.5720002,0.05530247
0.5710002,0.05487331
0.5700002,0.05441349
0.5690002,0.05392301
0.5680002,0.05346319
0.5670002,0.05300336
0.5660002,0.05251288
0.5650002,0.05208372
0.5640002,0.05159324
0.5630002,0.05110276
0.5620002,0.05067359
0.5610002,0.05021377
0.5600002,0.04975395
0.5590002,0.04929413
0.5580002,0.04883431
0.5570002,0.04834383
0.5560002,0.04791466
0.5550002,0.04745484
0.5540002,0.04699502
0.5530002,0.04653519
0.5520002,0.04607537
0.5510002,0.04558489
0.5500002,0.04515573
0.5490002,0.04469591
0.5480002,0.04423608
0.5470002,0.04380691
0.5460002,0.04334709
0.5450002,0.04288727
0.5440002,0.0424581
0.5430002,0.04196763
0.5420002,0.0415078
0.5410002,0.04107863
0.5400002,0.04061881
0.5390002,0.04015899
0.5380002,0.03976048
0.5370002,0.03927
0.5360002,0.03884083
0.5350002,0.03841167
0.5340002,0.03792119
0.5330002,0.03749202
0.5320002,0.03706285
0.5310002,0.03660303
0.5300002,0.03617386
0.5290002,0.03574469
0.5280002,0.03528487
0.5270002,0.0348557
0.5260002,0.03442654
0.5250002,0.03396672
0.5240002,0.03353755
0.5230002,0.03310838
0.5220002,0.03267921
0.5210002,0.03225004
0.5200002,0.03182088
0.5190002,0.03136105
0.5180002,0.03093189
0.5170002,0.03053337
0.5160002,0.03007355
0.5150002,0.02964438
0.5140002,0.02921522
0.5130002,0.02878605
0.5120002,0.02838754
0.5110002,0.02795837
0.5100002,0.02749855
0.5090002,0.02710003
0.5080002,0.02670152
0.5070002,0.02627235
0.5060002,0.02584319
0.5050002,0.02544468
0.5040002,0.02501551
0.5030002,0.02461699
0.5020002,0.02418783
0.5010002,0.02378931
0.5000002,0.0233908
0.4990002,0.02296163
0.4980002,0.02256312
0.4970002,0.02216461
0.4960002,0.02176609
0.4950002,0.02133693
0.4940002,0.02096907
0.4930002,0.0205399
0.4920002,0.02014139
0.4910002,0.01977353
0.4900002,0.01937502
0.4890002,0.01897651
0.4880002,0.01860865
0.4870002,0.01821013
0.4860002,0.01784228
0.4850002,0.01747442
0.4840002,0.01707591
0.4830002,0.01670805
0.4820002,0.01634019
0.4810002,0.01594168
0.4800002,0.01557382
0.4790002,0.01520596
0.4780002,0.0148381
0.4770002,0.01447024
0.4760002,0.01410239
0.4750002,0.01373453
0.4740002,0.01339733
0.4730002,0.0125594
0.4720002,0.01220993
0.4710002,0.0118666
0.4700002,0.01153246
0.4690002,0.01118913
0.4680002,0.01085499
0.4670002,0.01052698
0.4660002,0.01018978
0.4650002,0.009867905
0.4640002,0.00955216
0.4630002,0.009221088
0.4620002,0.008914541
0.4610002,0.008598795
0.4600002,0.008283051
0.4590002,0.007988765
0.4580002,0.007685281
0.4570002,0.007384864
0.4560002,0.007096709
0.4550002,0.006802422
0.4540002,0.006517333
0.4530002,0.006238374
0.4520002,0.005956349
0.4510002,0.005686587
0.4500002,0.00541989
0.4490002,0.005150127
0.4480002,0.004892627
0.4470002,0.004635126
0.4460002,0.004383757
0.4450002,0.004138518
0.4440002,0.003899411
0.4430002,0.003660303
0.4420002,0.003424261
0.4410002,0.00320048
0.4400002,0.0029767
0.4390002,0.002755986
0.4380002,0.002547533
0.4370002,0.002336015
0.4360002,0.002130627
0.4350002,0.001937502
0.4340002,0.001741311
0.4330002,0.001551251
0.4320002,0.001370388
0.4310002,0.001183393
0.4300002,0.0009815792
0.4290002,0.0008123646
0.4280002,0.0006422303
0.4270002,0.0004855841
0.4260002,0.0003274052
0.4250002,0.0001729049
0.4240002,2.729447E-05
0.4230002,-0.0001239056
0.4220002,-0.0002643354
0.4210002,-0.0003981945
0.4200002,-0.0005309299
0.4190002,-0.0006581475
0.4180002,-0.0007856716
0.4170002,-0.0009076777
0.4160002,-0.001026619
0.4150002,-0.001147092
0.4140002,-0.001257756
0.4130002,-0.00136934
0.4120002,-0.001481536
0.4110002,-0.001583923
0.4100002,-0.001697346
0.4090002,-0.001808623
0.4080002,-0.001904266
0.4070002,-0.002007266
0.4060002,-0.002105975
0.4050002,-0.002202231
0.4040002,-0.002302472
0.4030002,-0.002399648
0.4020002,-0.002497744
0.4010002,-0.002596145
0.4000002,-0.002695774
0.3990002,-0.002795095
0.3980002,-0.002893497
0.3970002,-0.002998644
0.3960002,-0.003068431
0.3950002,-0.003166527
0.3940002,-0.003276884
0.3930002,-0.00338111
0.3920002,-0.003488402
0.3910002,-0.003607956
0.3900002,-0.003718314
0.3890002,-0.003837867
0.3880002,-0.003963552
0.3870002,-0.004083106
0.3860002,-0.004214922
0.3850002,-0.004349803
0.3840002,-0.004475488
0.3830002,-0.004622631
0.3820002,-0.004760577
0.3810002,-0.004904655
0.3800002,-0.005060995
0.3790002,-0.005211203
0.3780002,-0.005367543
0.3770002,-0.005533079
0.3760002,-0.005692484
0.3750002,-0.005861086
0.3740002,-0.006032753
0.3730002,-0.006201354
0.3720002,-0.006376087
0.3710002,-0.006556951
0.3700002,-0.006737814
0.3690002,-0.006915612
0.3680002,-0.00709954
0.3670002,-0.007286535
0.3660002,-0.007467398
0.3650002,-0.007657459
0.3640002,-0.007841388
0.3630002,-0.008025317
0.3620002,-0.008215376
0.3610002,-0.00839624
0.3600002,-0.008580169
0.3590002,-0.008770229
0.3580002,-0.008944961
0.3570002,-0.00912889
0.3560002,-0.009306688
0.3550002,-0.00947529
0.3540002,-0.009656153
0.3530002,-0.009824755
0.3520002,-0.009987226
0.3510002,-0.01016196
0.3500002,-0.01032136
0.3490002,-0.0104777
0.3480002,-0.01064937
0.3470002,-0.01079651
0.3460002,-0.01094979
0.3450002,-0.01111532
0.3440002,-0.01125634
0.3430002,-0.01140961
0.3420002,-0.01156595
0.3410002,-0.01170696
0.3400002,-0.01185717
0.3390002,-0.01201351
0.3380002,-0.01215146
0.3370002,-0.0122986
0.3360002,-0.01244881
0.3350002,-0.01258369
0.3340002,-0.01272777
0.3330002,-0.01287184
0.3320002,-0.0130006
0.3310002,-0.01313548
0.3300002,-0.01327036
0.3290002,-0.01338378
0.3280002,-0.01350947
0.3270002,-0.01362902
0.3260002,-0.01372712
0.3250002,-0.01383441
0.3240002,-0.01392944
0.3230002,-0.01400301
0.3220002,-0.01408884
0.3210002,-0.01415322
0.3200002,-0.01420226
0.3190002,-0.01426357
0.3180002,-0.0142881
0.3170002,-0.01430649
0.3160002,-0.01433408
0.3150002,-0.01432488
0.3140002,-0.01431262
0.3130002,-0.01430649
0.3120002,-0.01426357
0.3110002,-0.01422679
0.3100002,-0.01418387
0.3090002,-0.01411643
0.3080002,-0.01405512
0.3070002,-0.01399075
0.3060002,-0.01389878
0.3050002,-0.01381601
0.3040002,-0.01372098
0.3030002,-0.01361063
0.3020002,-0.0135064
0.3010002,-0.01339604
0.3000002,-0.01327036
0.2990002,-0.01315387
0.2980002,-0.01302512
0.2970002,-0.01288717
0.2960002,-0.01276149
0.2950002,-0.01262048
0.2940002,-0.01247333
0.2930002,-0.01234152
0.2920002,-0.01219437
0.2910002,-0.01203497
0.2900002,-0.01190009
0.2890002,-0.01174068
0.2880002,-0.01157821
0.2870002,-0.01143413
0.2860002,-0.01126247
0.2850002,-0.01109693
0.2840002,-0.01094059
0.2830002,-0.01075666
0.2820002,-0.010585
0.2810002,-0.01041333
0.2800002,-0.01021101
0.2790002,-0.01002708
0.2780002,-0.009830886
0.2770002,-0.009616302
0.2760002,-0.009407849
0.2750002,-0.009187134
0.2740002,-0.008948027
0.2730002,-0.008711984
0.2720002,-0.008463681
0.2710002,-0.008196983
0.2700002,-0.007939483
0.2690002,-0.007672786
0.2680002,-0.007399958
0.2670002,-0.007139392
0.2660002,-0.006881891
0.2650002,-0.006627456
0.2640002,-0.006397545
0.2630002,-0.006167634
0.2620002,-0.00595305
0.2610002,-0.005759925
0.2600002,-0.0055668
0.2590002,-0.005389001
0.2580002,-0.005232662
0.2570002,-0.005073257
0.2560002,-0.004926114
0.2550002,-0.004794298
0.2540002,-0.004659417
0.2530002,-0.004539863
0.2520002,-0.004429505
0.2510002,-0.004313017
0.2500002,-0.004211857
0.2490002,-0.004113761
0.2480002,-0.004015665
0.2470002,-0.003926767
0.2460002,-0.003840933
0.2450002,-0.003755099
0.2440002,-0.003678462
0.2430002,-0.003601825
0.2420002,-0.003525188
0.2410002,-0.003454682
0.2400002,-0.003387242
0.2390002,-0.003319801
0.2380002,-0.003255426
0.2370002,-0.003191051
0.2360002,-0.003132806
0.2350002,-0.003077628
0.2340002,-0.003019383
0.2330002,-0.00296727
0.2320002,-0.002918222
0.2310002,-0.00286611
0.2300002,-0.002820127
0.2290002,-0.002774145
0.2280002,-0.002731228
0.2270002,-0.002688312
0.2260002,-0.00264846
0.2250002,-0.002608609
0.2240002,-0.002571823
0.2230002,-0.002535037
0.2220002,-0.002498251
0.2210002,-0.002461466
0.2200002,-0.002430811
0.2190002,-0.002397091
0.2180002,-0.002366436
0.2170002,-0.002335781
0.2160002,-0.002305126
0.2150002,-0.002277537
0.2140002,-0.002249948
0.2130002,-0.002222358
0.2120002,-0.002194769
0.2110002,-0.002170245
0.2100002,-0.002145721
0.2090002,-0.002121197
0.2080002,-0.002096673
0.2070002,-0.002072149
0.2060002,-0.002050691
0.2050002,-0.002029233
0.2040002,-0.002004709
0.2030002,-0.001986316
0.2020002,-0.001964858
0.2010002,-0.001943399
0.2000002,-0.001925006
0.1990002,-0.001903548
0.1980002,-0.001885155
0.1970002,-0.001866762
0.1960002,-0.001848369
0.1950002,-0.001833042
0.1940002,-0.001814649
0.1930002,-0.001796256
0.1920002,-0.001780929
0.1910002,-0.001765601
0.1900002,-0.001747208
0.1890002,-0.001731881
0.1880002,-0.001716554
0.1870002,-0.001701226
0.1860002,-0.001685899
0.1850002,-0.001670571
0.1840002,-0.001655244
0.1830002,-0.001642982
0.1820002,-0.00163072
0.1810002,-0.001615393
0.1800002,-0.001638489
0.1790002,-0.001625001
0.1780002,-0.001612126
0.1770002,-0.001599864
0.1760002,-0.001586989
0.1750002,-0.001574727
0.1740002,-0.001563078
0.1730002,-0.001550816
0.1720002,-0.001539474
0.1710002,-0.001527825
0.1700002,-0.001516483
0.1690002,-0.001505447
0.1680002,-0.001494411
0.1670002,-0.001483376
0.1660002,-0.001472953
0.1650002,-0.00146253
0.1640002,-0.001452108
0.1630002,-0.001442298
0.1620002,-0.001432182
0.1610002,-0.001421759
0.1600002,-0.001412256
0.1590002,-0.001402753
0.1580002,-0.00139325
0.1570002,-0.00138436
0.1560002,-0.001375164
0.1550002,-0.001366274
0.1540002,-0.001357384
0.1530002,-0.001348801
0.1520002,-0.001339911
0.1510002,-0.001331327
0.1500002,-0.001322438
0.1490002,-0.001314161
0.1480002,-0.001306497
0.1470002,-0.001297914
0.1460002,-0.00129025
0.1450002,-0.00128228
0.1440002,-0.00127431
0.1430002,-0.001266952
0.1420002,-0.001259289
0.1410002,-0.001251625
0.1400002,-0.001244268
0.1390002,-0.001236911
0.1380002,-0.001229553
0.1370002,-0.001222503
0.1360002,-0.001215146
0.1350002,-0.001208402
0.1340002,-0.001201658
0.1330002,-0.001194607
0.1320002,-0.001187863
0.1310002,-0.001181425
0.1300002,-0.001174681
0.1290002,-0.001168244
0.1280002,-0.001161806
0.1270002,-0.001155369
0.1260002,-0.001148931
0.1250002,-0.001143107
0.1240002,-0.001136669
0.1230002,-0.001130538
0.1220002,-0.001124714
0.1210002,-0.00111889
0.1200002,-0.001112759
0.1190002,-0.001107241
0.1180002,-0.00110111
0.1170002,-0.001095592
0.1160002,-0.001090074
0.1150002,-0.00108425
0.1140002,-0.001078732
0.1130002,-0.001073521
0.1120002,-0.001068003
0.1110002,-0.001063098
0.1100002,-0.00105758
0.1090002,-0.001052062
0.1080002,-0.001047157
0.1070002,-0.001041946
0.1060002,-0.001036735
0.1050002,-0.001032136
0.1040002,-0.001026925
0.1030002,-0.00102202
0.1020002,-0.001017422
0.1010002,-0.001012517
0.1000002,-0.001007613
0.09900019,-0.001003014
0.09800019,-0.0009984161
0.09700019,-0.0009938178
0.09600019,-0.0009892196
0.09500019,-0.0009846214
0.09400019,-0.0009800232
0.09300019,-0.000976038
0.09200019,-0.0009714398
0.09100019,-0.0009668416
0.09000019,-0.0009628565
0.08900019,-0.0009582583
0.08800019,-0.0009539665
0.08700019,-0.0009499814
0.08600019,-0.0009456897
0.08500019,-0.0009413981
0.08400019,-0.000937413
0.08300019,-0.0009331212
0.08200019,-0.0009291361
0.08100019,-0.0009254576
0.08000019,-0.0009211659
0.07900019,-0.0009174873
0.07800019,-0.0009135022
0.07700019,-0.0009095171
0.07600019,-0.000906145
0.07500019,-0.0009018534
0.07400019,-0.0008981748
0.07300019,-0.0008948027
0.07200019,-0.0008908176
0.07100019,-0.0008874455
0.07000019,-0.000883767
0.06900019,-0.0008800884
0.06800019,-0.0008764099
0.06700019,-0.0008730378
0.06600019,-0.0008693592
0.06500019,-0.0008659872
0.06400019,-0.0008626151
0.06300019,-0.0008592432
0.06200019,-0.0008558711
0.06100019,-0.000852499
0.06000019,-0.000849127
0.05900019,-0.000845755
0.05800019,-0.000842383
0.05700019,-0.0008393175
0.05600019,-0.0008359455
0.05500019,-0.00083288
0.05400019,-0.0008295079
0.05300019,-0.0008264424
0.05200019,-0.000823377
0.05100019,-0.000820005
0.05000019,-0.000817246
0.04900019,-0.000813874
0.04800019,-0.0008108085
0.04700019,-0.0008080496
0.04600019,-0.0008049841
0.04500019,-0.0008019186
0.04400019,-0.0007991597
0.04300019,-0.0007960942
0.04200019,-0.0007930287
0.04100019,-0.0007902698
0.04000019,-0.0007872043
0.03900019,-0.0007844454
0.03800019,-0.0007816864
0.03700019,-0.0007789275
0.03600019,-0.0007761685
0.03500019,-0.0007734096
0.03400019,-0.0007706507
0.03300019,-0.0007678918
0.03200019,-0.0007651328
0.03100019,-0.0007623739
0.03000019,-0.0007596149
0.02900019,-0.0007571626
0.02800019,-0.0007544036
0.02700019,-0.0007519512
0.02600019,-0.0007491923
0.02500019,-0.0007467399
0.02400019,-0.0007442875
0.02300019,-0.0007415286
0.02200019,-0.0007387697
0.02100019,-0.0007363172
0.02000019,-0.0007338649
0.01900019,-0.0007314125
0.01800019,-0.0007289601
0.01700019,-0.0007265077
0.01600019,-0.0007237488
0.01500019,-0.0007216029
0.01400019,-0.000718844
0.01300019,-0.0007163917
0.01200019,-0.0007142458
0.01100019,-0.0007117934
0.01000019,-0.000709341
0.009000191,-0.0007071952
0.00800019,-0.0007047429
0.007000191,-0.0007022904
0.006000191,-0.0007001446
0.005000191,-0.0006976922
0.004000191,-0.0006955464
0.003000191,-0.000693094
0.002000191,-0.0006909482
0.001000191,-0.0006884958
1.907349E-07,-0.0006805255
0.0009998092,-0.0006661177
0.001999809,-0.0006529361
0.002999809,-0.0006409807
0.003999809,-0.0006293319
0.004999809,-0.0006182962
0.005999809,-0.0006078735
0.006999809,-0.0005977575
0.007999809,-0.000588561
0.00899981,-0.000579058
0.009999809,-0.0005701681
0.01099981,-0.0005615847
0.01199981,-0.000553308
0.01299981,-0.0005450312
0.01399981,-0.0005373674
0.01499981,-0.0005300103
0.01599981,-0.0005226531
0.01699981,-0.0005156025
0.01799981,-0.0005082454
0.01899981,-0.0005015013
0.01999981,-0.0004950638
0.02099981,-0.0004886262
0.02199981,-0.0004821887
0.02299981,-0.0004760578
0.02399981,-0.0004699268
0.02499981,-0.0004641024
0.02599981,-0.000458278
0.02699981,-0.0004527601
0.02799981,-0.0004469357
0.02899981,-0.0004417244
0.02999981,-0.0004362065
0.03099981,-0.0004309952
0.03199981,-0.0004260904
0.03299981,-0.0004208791
0.03399981,-0.0004159743
0.03499981,-0.0004110696
0.03599981,-0.0004061648
0.03699981,-0.0004015666
0.03799981,-0.0003969684
0.03899981,-0.0003923701
0.03999981,-0.0003880784
0.04099981,-0.0003834802
0.04199981,-0.0003791885
0.04299981,-0.0003748969
0.04399981,-0.0003706052
0.04499981,-0.0003666201
0.04599981,-0.0003623284
0.04699981,-0.0003583433
0.04799981,-0.0003546647
0.04899981,-0.0003506796
0.04999981,-0.0003466944
0.05099981,-0.0003430158
0.05199981,-0.0003390307
0.05299981,-0.0003353521
0.05399981,-0.0003319801
0.05499981,-0.0003283015
0.05599981,-0.0003249295
0.05699981,-0.0003212509
0.05799981,-0.0003178789
0.05899981,-0.0003145068
0.05999981,-0.0003111348
0.06099981,-0.0003077628
0.06199981,-0.0003046973
0.06299981,-0.0003013253
0.06399981,-0.0002982598
0.06499981,-0.0002951943
0.06599981,-0.0002918223
0.06699981,-0.0002887568
0.06799981,-0.0002859978
0.06899981,-0.0002829324
0.06999981,-0.0002798669
0.07099981,-0.000277108
0.07199981,-0.000274349
0.07299981,-0.0002712836
0.07399981,-0.0002685246
0.07499981,-0.0002657657
0.07599981,-0.0002630067
0.07699981,-0.0002602478
0.07799981,-0.0002577954
0.07899981,-0.0002550365
0.07999981,-0.0002525841
0.08099981,-0.0002498252
0.08199981,-0.0002473728
0.08299981,-0.0002446139
0.08399981,-0.0002421615
0.08499981,-0.0002397091
0.08599981,-0.0002372567
0.08699981,-0.0002348043
0.08799981,-0.0002323519
0.08899981,-0.0002298995
0.08999981,-0.0002277537
0.09099981,-0.0002253013
0.09199981,-0.0002231555
0.09299981,-0.0002210096
0.09399981,-0.0002185573
0.09499981,-0.0002164114
0.09599981,-0.000213959
0.09699981,-0.0002118132
0.09799981,-0.0002096674
0.09899981,-0.0002075215
0.09999981,-0.0002056822
0.1009998,-0.0002035364
0.1019998,-0.0002013905
0.1029998,-0.0001992447
0.1039998,-0.0001974054
0.1049998,-0.0001952596
0.1059998,-0.0001931137
0.1069998,-0.0001912744
0.1079998,-0.0001891286
0.1089998,-0.0001875959
0.1099998,-0.0001857566
0.1109998,-0.0001839173
0.1119998,-0.0001817715
0.1129998,-0.0001799322
0.1139998,-0.0001780929
0.1149998,-0.0001762536
0.1159998,-0.0001744143
0.1169998,-0.000172575
0.1179998,-0.0001710423
0.1189998,-0.000169203
0.1199998,-0.0001676702
0.1209998,-0.0001658309
0.1219998,-0.0001639917
0.1229998,-0.0001624589
0.1239998,-0.0001606196
0.1249998,-0.0001590869
0.1259998,-0.0001606914
0.1269998,-0.0001590974
0.1279998,-0.000157534
0.1289998,-0.0001560012
0.1299998,-0.0001544685
0.1309998,-0.0001529358
0.1319998,-0.0001514337
0.1329998,-0.0001497783
0.1339998,-0.0001482149
0.1349998,-0.0001467435
0.1359998,-0.0001452414
0.1369998,-0.0001438313
0.1379998,-0.0001423905
0.1389998,-0.0001409804
0.1399998,-0.0001395396
0.1409998,-0.0001380682
0.1419998,-0.0001365661
0.1429998,-0.0001351866
0.1439998,-0.0001338378
0.1449998,-0.0001324583
0.1459998,-0.0001311708
0.1469998,-0.0001298833
0.1479998,-0.0001285039
0.1489998,-0.0001271857
0.1499998,-0.0001258062
0.1509998,-0.0001244574
0.1519998,-0.0001232006
0.1529998,-0.0001219437
0.1539998,-0.0001206869
0.1549998,-0.0001194913
0.1559998,-0.0001182038
0.1569998,-0.000116947
0.1579998,-0.0001156901
0.1589998,-0.000114464
0.1599998,-0.0001132378
0.1609998,-0.0001121035
0.1619998,-0.0001109387
0.1629998,-0.0001098657
0.1639998,-0.0001086395
0.1649998,-0.0001074133
0.1659998,-0.0001062485
0.1669998,-0.0001050529
0.1679998,-0.0001040107
0.1689998,-0.0001028764
0.1699998,-0.0001017729
0.1709998,-0.0001007919
0.1719998,-9.965767E-05
0.1729998,-9.849279E-05
0.1739998,-9.735856E-05
0.1749998,-9.625498E-05
0.1759998,-9.518206E-05
0.1769998,-9.420111E-05
0.1779998,-9.312819E-05
0.1789998,-9.211658E-05
0.1799998,-9.113563E-05
0.1809998,-9.015467E-05
0.1819998,-8.914307E-05
0.1829998,-8.813146E-05
0.1839998,-8.71505E-05
0.1849998,-8.604692E-05
0.1859998,-8.500466E-05
0.1869998,-8.405436E-05
0.1879998,-8.304276E-05
0.1889998,-8.215377E-05
0.1899998,-8.114216E-05
0.1909998,-8.022251E-05
0.1919998,-7.927221E-05
0.1929998,-7.841388E-05
0.1939998,-7.746358E-05
0.1949998,-7.654393E-05
0.1959998,-7.556297E-05
0.1969998,-7.464333E-05
0.1979998,-7.369304E-05
0.1989998,-7.268143E-05
0.1999998,-7.179243E-05
0.2009998,-7.090344E-05
0.2019998,-7.001445E-05
0.2029998,-6.912547E-05
0.2039998,-6.826713E-05
0.2049998,-6.740879E-05
0.2059998,-6.65198E-05
0.2069998,-6.569213E-05
0.2079998,-6.483379E-05
0.2089998,-6.40061E-05
0.2099998,-6.308646E-05
0.2109998,-6.225878E-05
0.2119998,-6.124718E-05
0.2129998,-6.041949E-05
0.2139998,-5.962246E-05
0.2149998,-5.879479E-05
0.2159998,-5.796711E-05
0.2169998,-5.713943E-05
0.2179998,-5.628109E-05
0.2189998,-5.551472E-05
0.2199998,-5.468704E-05
0.2209998,-5.38287E-05
0.2219998,-5.300103E-05
0.2229998,-5.211203E-05
0.2239998,-5.128435E-05
0.2249998,-5.048733E-05
0.2259998,-4.96903E-05
0.2269998,-4.892393E-05
0.2279998,-4.812691E-05
0.2289998,-4.736054E-05
0.2299998,-4.656351E-05
0.2309998,-4.567452E-05
0.2319998,-4.484684E-05
0.2329998,-4.401916E-05
0.2339998,-4.319148E-05
0.2349998,-4.245577E-05
0.2359998,-4.172005E-05
0.2369998,-4.092303E-05
0.2379998,-4.018731E-05
0.2389998,-3.926766E-05
0.2399998,-3.834802E-05
0.2409998,-3.767361E-05
0.2419998,-3.681528E-05
0.2429998,-3.607956E-05
0.2439998,-3.528254E-05
0.2449998,-3.457748E-05
0.2459998,-3.378045E-05
0.2469998,-3.289146E-05
0.2479998,-3.206378E-05
0.2489998,-3.120544E-05
0.2499998,-3.040842E-05
0.2509998,-2.964205E-05
0.2519998,-2.884502E-05
0.2529998,-2.813996E-05
0.2539998,-2.734294E-05
0.2549998,-2.642329E-05
0.2559998,-2.55343E-05
0.2569998,-2.473728E-05
0.2579998,-2.39096E-05
0.2589998,-2.314323E-05
0.2599998,-2.231555E-05
0.2609998,-2.157983E-05
0.2619998,-2.069084E-05
0.2629998,-1.980185E-05
0.2639998,-1.891286E-05
0.2649998,-1.805452E-05
0.2659998,-1.72575E-05
0.2669998,-1.652178E-05
0.2679998,-1.557148E-05
0.2689998,-1.468249E-05
0.2699998,-1.373219E-05
0.2709998,-1.312628E-05
0.2719998,-1.244268E-05
0.2729998,-1.159047E-05
0.2739998,-1.063098E-05
0.2749998,-9.640826E-06
0.2759998,-8.733443E-06
0.2769998,-7.85978E-06
0.2779998,-7.038231E-06
0.2789998,-6.075669E-06
0.2799998,-5.088584E-06
0.2809998,-4.132154E-06
0.2819998,-3.169592E-06
0.2829998,-2.265275E-06
0.2839998,-1.333368E-06
0.2849998,-3.738721E-07
0.2859998,6.959813E-07
0.2869998,1.787293E-06
0.2879998,2.746789E-06
0.2889998,3.73694E-06
0.2899998,4.681108E-06
0.2909998,5.708045E-06
0.2919998,6.921976E-06
0.2929998,7.997961E-06
0.2939998,9.003439E-06
0.2949998,1.007329E-05
0.2959998,1.105425E-05
0.2969998,1.218848E-05
0.2979998,1.345452E-05
0.2989998,1.461327E-05
0.2999998,1.573524E-05
0.3009998,1.693384E-05
0.3019998,1.802515E-05
0.3029998,1.920536E-05
0.3039998,2.051126E-05
0.3049998,2.180796E-05
0.3059998,2.304641E-05
0.3069998,2.4291E-05
0.3079998,2.559996E-05
0.3089998,2.689053E-05
0.3099998,2.863277E-05
0.3109998,3.007355E-05
0.3119998,3.136105E-05
0.3129998,3.286314E-05
0.3139998,3.427326E-05
0.3149998,3.559142E-05
0.3159998,3.715482E-05
0.3169998,3.86569E-05
0.3179998,4.031226E-05
0.3189998,4.193697E-05
0.3199998,4.353102E-05
0.3209998,4.518638E-05
0.3219998,4.681108E-05
0.3229998,4.855841E-05
0.3239998,5.052032E-05
0.3249998,5.245157E-05
0.3259998,5.429086E-05
0.3269998,5.637539E-05
0.3279998,5.830665E-05
0.3289998,6.039118E-05
0.3299998,6.27516E-05
0.3309998,6.508136E-05
0.3319998,6.762571E-05
0.3329998,7.010875E-05
0.3339998,7.277572E-05
0.3349998,7.556531E-05
0.3359998,7.856948E-05
0.3369998,8.181889E-05
0.3379998,8.53442E-05
0.3389998,8.905343E-05
0.3399998,9.303856E-05
0.3409998,9.733024E-05
0.3419998,0.000102327
0.3429998,0.0001078755
0.3439998,0.0001140371
0.3449998,0.0001213023
0.3459998,0.0001297324
0.3469998,0.0001397259
0.3479998,0.0001520184
0.3489998,0.0001669167
0.3499998,0.0001857081
0.3509998,0.0002094043
0.3519998,0.000239354
0.3529998,0.0002779791
0.3539998,0.0003274867
0.3549998,0.0003948459
0.3559998,0.0004785335
0.3569998,0.0005858254
0.3579998,0.0007240787
0.3589998,0.0008957458
0.3599998,0.00110052
0.3609998,0.001339321
0.3619998,0.001602953
0.3629998,0.001884977
0.3639998,0.002181103
0.3649998,0.002479374
0.3659998,0.002777952
0.3669998,0.003074078
0.3679998,0.003387475
0.3689998,0.003666434
0.3699998,0.003939262
0.3709998,0.004202893
0.3719998,0.004466525
0.3729998,0.004724025
0.3739998,0.00497846
0.3749998,0.005232896
0.3759998,0.005490396
0.3769998,0.005741765
0.3779998,0.005999266
0.3789998,0.006253701
0.3799998,0.006505071
0.3809998,0.00675644
0.3819998,0.007004744
0.3829998,0.007246917
0.3839998,0.00748909
0.3849998,0.007731264
0.3859998,0.007961174
0.3869998,0.00818802
0.3879998,0.008414866
0.3889998,0.00862945
0.3899998,0.0088471
0.3909998,0.009055552
0.3919998,0.009254809
0.3929998,0.00945713
0.3939998,0.009647191
0.3949998,0.009828053
0.3959998,0.01001198
0.3969998,0.01017752
0.3979998,0.01034305
0.3989998,0.01050246
0.3999998,0.01064347
0.4009998,0.01078755
0.4019998,0.01092243
0.4029998,0.01104198
0.4039998,0.0111646
0.4049998,0.01127189
0.4059998,0.01136693
0.4069998,0.01146809
0.4079998,0.01155085
0.4089998,0.01163056
0.4099998,0.01171639
0.4109998,0.0117777
0.4119998,0.01183288
0.4129998,0.01189112
0.4139998,0.01193404
0.4149998,0.01197389
0.4159998,0.01201681
0.4169998,0.01204746
0.4179998,0.01207505
0.4189998,0.01211184
0.4199998,0.01213023
0.4209998,0.01215475
0.4219998,0.01218847
0.4229998,0.01220687
0.4239998,0.01223139
0.4249998,0.01226818
0.4259998,0.01228657
0.4269998,0.01232029
0.4279998,0.01236321
0.4289998,0.0123908
0.4299998,0.01243984
0.4309998,0.01248889
0.4319998,0.01252261
0.4329998,0.01258699
0.4339998,0.0126391
0.4349998,0.01268815
0.4359998,0.01276172
0.4369998,0.01281996
0.4379998,0.01288434
0.4389998,0.01297017
0.4399998,0.01303761
0.4409998,0.01311732
0.4419998,0.01321541
0.4429998,0.01329205
0.4439998,0.01338708
0.4449998,0.01348824
0.4459998,0.0135802
0.4469998,0.0136875
0.4479998,0.01380092
0.4489998,0.01390514
0.4499998,0.01402163
0.4509998,0.01414425
0.4519998,0.01426074
0.4529998,0.01439256
0.4539998,0.01452437
0.4549998,0.01465006
0.4559998,0.01479413
0.4569998,0.01493821
0.4579998,0.01507616
0.4589998,0.01523863
0.4599998,0.01538884
0.4609998,0.01554211
0.4619998,0.01571991
0.4629998,0.01587932
0.4639998,0.01604179
0.4649998,0.01623185
0.4659998,0.01640351
0.4669998,0.01658438
0.4679998,0.0167867
0.4689998,0.01696756
0.4699998,0.01716682
0.4709998,0.0173814
0.4719998,0.01757453
0.4729998,0.01779218
0.4739998,0.01801902
0.4749998,0.01822747
0.4759998,0.01846658
0.4769998,0.01870262
0.4779998,0.01892947
0.4789998,0.01918391
0.4799998,0.01943221
0.4809998,0.01967745
0.4819998,0.01995028
0.4829998,0.02021084
0.4839998,0.02047448
0.4849998,0.02076263
0.4859998,0.02103852
0.4869998,0.02131748
0.4879998,0.02162096
0.4889998,0.02191525
0.4899998,0.02220954
0.4909998,0.02252835
0.4919998,0.02283796
0.4929998,0.02315064
0.4939998,0.02348478
0.4949998,0.02380052
0.4959998,0.0241316
0.4969998,0.02448106
0.4979998,0.024806
0.4989998,0.02515853
0.4999998,0.02551719
0.5009998,0.02584827
0.5019998,0.02621613
0.5029998,0.02658398
0.5039998,0.02692425
0.5049998,0.02730437
0.5059998,0.02767529
0.5069998,0.02803396
0.5079998,0.02842021
0.5089998,0.02880033
0.5099998,0.02917125
0.5109998,0.02956057
0.5119998,0.02995601
0.5129998,0.03108516
0.5139998,0.03148368
0.5149998,0.03185153
0.5159998,0.03225004
0.5169998,0.03267921
0.5179998,0.03304707
0.5189998,0.03347624
0.5199998,0.03387475
0.5209998,0.03427326
0.5219998,0.03470243
0.5229998,0.03510094
0.5239998,0.03549946
0.5249998,0.03592863
0.5259998,0.03635779
0.5269998,0.0367563
0.5279998,0.03718547
0.5289998,0.03761464
0.5299998,0.03804381
0.5309998,0.03847298
0.5319998,0.03890214
0.5329998,0.03930065
0.5339998,0.03976048
0.5349998,0.04018965
0.5359998,0.04058816
0.5369998,0.04104798
0.5379998,0.04147715
0.5389998,0.04190632
0.5399998,0.04233548
0.5409998,0.04276465
0.5419998,0.04319382
0.5429998,0.04365364
0.5439998,0.04408281
0.5449998,0.04451197
0.5459998,0.0449718
0.5469998,0.04540097
0.5479998,0.04586079
0.5489998,0.04628995
0.5499998,0.04671912
0.5509998,0.04717895
0.5519998,0.04760811
0.5529998,0.04806793
0.5539998,0.04852776
0.5549998,0.04895693
0.5559998,0.04941675
0.5569998,0.04987657
0.5579998,0.05027508
0.5589998,0.05073491
0.5599998,0.05119473
0.5609998,0.05162389
0.5619998,0.05208372
0.5629998,0.05254354
0.5639998,0.0529727
0.5649998,0.05346319
0.5659998,0.05392301
0.5669998,0.05435218
0.5679998,0.054812
0.5689998,0.05527182
0.5699998,0.05573164
0.5709998,0.05619146
0.5719998,0.05665129
0.5729998,0.05708046
0.5739998,0.05757093
0.5749998,0.0580001
0.5759998,0.05845992
0.5769998,0.0589504
0.5779998,0.05937957
0.5789998,0.05983939
0.5799998,0.06032987
0.5809998,0.06075903
0.5819998,0.06124951
0.5829998,0.06170933
0.5839998,0.06216915
0.5849998,0.06262898
0.5859998,0.0630888
0.5869998,0.06354862
0.5879998,0.0640391
0.5889998,0.06446826
0.5899998,0.06495874
0.5909998,0.06541856
0.5919998,0.06587839
0.5929998,0.06633821
0.5939998,0.06679803
0.5949998,0.06725786
0.5959998,0.06771768
0.5969998,0.06820816
0.5979998,0.06863733
0.5989998,0.0691278
0.5999998,0.06958763
0.6009998,0.0700781
0.6019998,0.07053792
0.6029998,0.0710284
0.6039998,0.07148822
0.6049998,0.0719787
0.6059998,0.07240786
0.6069998,0.07289835
0.6079998,0.07335817
0.6089998,0.07381799
0.6099998,0.07430847
0.6109998,0.07479894
0.6119998,0.07522812
0.6129998,0.07571859
0.6139998,0.07623972
0.6149998,0.07666889
0.6159998,0.07719002
0.6169998,0.07764985
0.6179998,0.07810967
0.6189998,0.07860014
0.6199998,0.07905997
0.6209998,0.07951979
0.6219998,0.08001027
0.6229998,0.08047009
0.6239998,0.08096056
0.6249998,0.08142038
0.6259998,0.0818802
0.6269998,0.08240134
0.6279998,0.08286116
0.6289998,0.08335164
0.6299998,0.08384212
0.6309998,0.08427128
0.6319998,0.08476176
0.6329998,0.08525224
0.6339998,0.08571207
0.6349998,0.08620254
0.6359998,0.08666236
0.6369998,0.08715284
0.6379998,0.08761266
0.6389998,0.08807249
0.6399998,0.08859362
0.6409998,0.08905344
0.6419998,0.08954392
0.6429998,0.09003439
0.6439998,0.09049422
0.6449998,0.09098469
0.6459998,0.09147517
0.6469998,0.09193499
0.6479998,0.09245612
0.6489998,0.09291594
0.6499998,0.09340642
0.6509998,0.0938969
0.6519998,0.09432607
0.6529998,0.09484719
0.6539998,0.09533768
0.6549998,0.0957975
0.6559998,0.09631863
0.6569998,0.09677845
0.6579998,0.09723828
0.6589998,0.09775941
0.6599998,0.09821923
0.6609998,0.09870971
0.6619998,0.09920018
0.6629998,0.09966001
0.6639998,0.1001811
0.6649998,0.100641
0.6659998,0.1011314
0.6669998,0.1016526
0.6679998,0.1020817
0.6689998,0.1026029
0.6699998,0.1030627
0.6709998,0.1035225
0.6719998,0.1040436
0.6729998,0.1045341
0.6739998,0.1050246
0.6749998,0.1055457
0.6759998,0.1059749
0.6769998,0.106496
0.6779998,0.1069865
0.6789998,0.1074157
0.6799998,0.1079675
0.6809998,0.1084273
0.6819998,0.1089178
0.6829998,0.1094082
0.6839998,0.1098681
0.6849998,0.1103585
0.6859998,0.110849
0.6869998,0.1113088
0.6879998,0.1118606
0.6889998,0.1123204
0.6899998,0.1128109
0.6909998,0.1133321
0.6919998,0.1137612
0.6929998,0.1142824
0.6939998,0.1147728
0.6949998,0.115202
0.6959998,0.1157538
0.6969998,0.1162136
0.6979998,0.1167347
0.6989998,0.1172252
0.6999998,0.1173172
0.6990003,0.1168267
0.6980003,0.1163362
0.6970003,0.1158151
0.6960003,0.1153859
0.6950003,0.1148648
0.6940003,0.1143743
0.6930003,0.1138838
0.6920003,0.1133627
0.6910003,0.1128722
0.6900003,0.1124124
0.6890003,0.1118913
0.6880003,0.1114008
0.6870003,0.1108797
0.6860003,0.1103892
0.6850003,0.1098987
0.6840003,0.1094082
0.6830003,0.1089484
0.6820003,0.1084273
0.6810003,0.1079062
0.6800003,0.107477
0.6790003,0.1069252
0.6780003,0.1064347
0.6770003,0.1059749
0.6760003,0.1053925
0.6750003,0.104902
0.6740003,0.1044115
0.6730003,0.1038597
0.6720003,0.1035225
0.6710003,0.1030014
0.6700003,0.1025109
0.6690003,0.1019898
0.6680003,0.1014993
0.6670003,0.1010088
0.6660003,0.1005796
0.6650003,0.1000279
0.6640003,0.09956805
0.6630003,0.09904691
0.6620003,0.09855644
0.6610003,0.09806596
0.6600003,0.09760614
0.6590003,0.097085
0.6580003,0.09662518
0.6570003,0.09610405
0.6560003,0.09561357
0.6550003,0.09515375
0.6540003,0.09466327
0.6530003,0.09414214
0.6520003,0.09368231
0.6510003,0.09319184
0.6500003,0.09267071
0.6490003,0.09221088
0.6480003,0.09172041
0.6470003,0.09119927
0.6460003,0.09073945
0.6450003,0.09024898
0.6440003,0.08972784
0.6430003,0.08929868
0.6420003,0.08877754
0.6410003,0.08831772
0.6400003,0.08785789
0.6390003,0.08733677
0.6380003,0.08687695
0.6370003,0.08635581
0.6360003,0.08586534
0.6350003,0.08537485
0.6340003,0.08485373
0.6330003,0.08442456
0.6320003,0.08393408
0.6310003,0.08341295
0.6300003,0.08298378
0.6290003,0.08246265
0.6280003,0.08200283
0.6270003,0.08154301
0.6260003,0.08102188
0.6250003,0.08056205
0.6240003,0.08007158
0.6230003,0.0795811
0.6220003,0.07912128
0.6210003,0.07860014
0.6200003,0.07817098
0.6190003,0.07764985
0.6180003,0.07715937
0.6170003,0.07669955
0.6160003,0.07620906
0.6150003,0.07574924
0.6140003,0.07528942
0.6130003,0.07476829
0.6120003,0.07430847
0.6110003,0.07381799
0.6100003,0.07332751
0.6090003,0.07286769
0.6080003,0.07237721
0.6070003,0.07188674
0.6060003,0.07142691
0.6050003,0.07093643
0.6040003,0.07047661
0.6030003,0.06998613
0.6020003,0.06949566
0.6010003,0.06903584
0.6000003,0.06854536
0.5990003,0.06808554
0.5980003,0.06762572
0.5970003,0.06710459
0.5960003,0.06667542
0.5950003,0.06615429
0.5940003,0.06569446
0.5930003,0.06523464
0.5920003,0.06474417
0.5910003,0.06428434
0.5900003,0.06382452
0.5890003,0.06333404
0.5880003,0.06290487
0.5870003,0.06238374
0.5860003,0.06195457
0.5850003,0.06149475
0.5840003,0.06097361
0.5830003,0.06054445
0.5820003,0.06005397
0.5810003,0.0595635
0.5800003,0.05910368
0.5790003,0.05864385
0.5780003,0.05818403
0.5770003,0.05772421
0.5760003,0.05723373
0.5750003,0.05677391
0.5740003,0.05631408
0.5730003,0.05585426
0.5720003,0.05536379
0.5710003,0.05493462
0.5700003,0.05444414
0.5690003,0.05398431
0.5680003,0.05352449
0.5670003,0.05306467
0.5660003,0.05257419
0.5650003,0.05211437
0.5640003,0.05165455
0.5630003,0.05119473
0.5620003,0.05073491
0.5610003,0.05027508
0.5600003,0.04984592
0.5590003,0.0493861
0.5580003,0.04892627
0.5570003,0.04846645
0.5560003,0.04800662
0.5550003,0.0475468
0.5540003,0.04708698
0.5530003,0.04662716
0.5520003,0.04619799
0.5510003,0.04570751
0.5500003,0.04524769
0.5490003,0.04481852
0.5480003,0.0443587
0.5470003,0.04389888
0.5460003,0.04346971
0.5450003,0.04300989
0.5440003,0.04255007
0.5430003,0.0421209
0.5420003,0.04166108
0.5410003,0.04120126
0.5400003,0.04077209
0.5390003,0.04031226
0.5380003,0.0398831
0.5370003,0.03942328
0.5360003,0.03899411
0.5350003,0.03853428
0.5340003,0.03810512
0.5330003,0.0376453
0.5320003,0.03721613
0.5310003,0.0367563
0.5300003,0.03632713
0.5290003,0.03589797
0.5280003,0.03543815
0.5270003,0.03503963
0.5260003,0.03457981
0.5250003,0.03415065
0.5240003,0.03372148
0.5230003,0.03329231
0.5220003,0.03286314
0.5210003,0.03243398
0.5200003,0.03200481
0.5190003,0.03157564
0.5180003,0.03114647
0.5170003,0.0307173
0.5160003,0.03028814
0.5150003,0.02985897
0.5140003,0.0294298
0.5130003,0.02900063
0.5120003,0.02857147
0.5110003,0.02817295
0.5100003,0.02774378
0.5090003,0.02731462
0.5080003,0.02691611
0.5070003,0.02648694
0.5060003,0.02605777
0.5050003,0.02565926
0.5040003,0.02523009
0.5030003,0.02483158
0.5020003,0.02443307
0.5010003,0.02403455
0.5000003,0.02363604
0.4990003,0.02320687
0.4980003,0.02280836
0.4970003,0.02240985
0.4960003,0.02201133
0.4950003,0.02161282
0.4940003,0.02121431
0.4930003,0.0208158
0.4920003,0.02041728
0.4910003,0.02001877
0.4900003,0.01962026
0.4890003,0.0192524
0.4880003,0.01885389
0.4870003,0.01848603
0.4860003,0.01811817
0.4850003,0.01771966
0.4840003,0.0173518
0.4830003,0.01698394
0.4820003,0.01658543
0.4810003,0.01624822
0.4800003,0.01584971
0.4790003,0.01548185
0.4780003,0.015114
0.4770003,0.01474614
0.4760003,0.01440894
0.4750003,0.01404108
0.4740003,0.01367322
0.4730003,0.01330536
0.4720003,0.01249502
0.4710003,0.01214556
0.4700003,0.01181755
0.4690003,0.01147422
0.4680003,0.01114008
0.4670003,0.01081207
0.4660003,0.01047487
0.4650003,0.01015299
0.4640003,0.009834184
0.4630003,0.009509244
0.4620003,0.009202695
0.4610003,0.008883885
0.4600003,0.008574272
0.4590003,0.008273854
0.4580003,0.007967305
0.4570003,0.007669954
0.4560003,0.007378733
0.4550003,0.007081382
0.4540003,0.006799357
0.4530003,0.006517333
0.4520003,0.006235308
0.4510003,0.00596248
0.4500003,0.005686587
0.4490003,0.005422956
0.4480003,0.005159324
0.4470003,0.004898758
0.4460003,0.004650454
0.4450003,0.004402149
0.4440003,0.00415078
0.4430003,0.003914738
0.4420003,0.00367563
0.4410003,0.003442654
0.4400003,0.003221939
0.4390003,0.002998159
0.4380003,0.002780509
0.4370003,0.002565926
0.4360003,0.002360538
0.4350003,0.002158216
0.4340003,0.00195896
0.4330003,0.001765835
0.4320003,0.00157884
0.4310003,0.001391846
0.4300003,0.001214048
0.4290003,0.00100641
0.4280003,0.0008344361
0.4270003,0.0006719655
0.4260003,0.0005085753
0.4250003,0.0003500898
0.4240003,0.000198655
0.4230003,4.630047E-05
0.4220003,-0.0001033976
0.4210003,-0.0002426624
0.4200003,-0.0003807213
0.4190003,-0.0005113108
0.4180003,-0.0006440463
0.4170003,-0.000769731
0.4160003,-0.0008935765
0.4150003,-0.001018955
0.4140003,-0.001133297
0.4130003,-0.001249786
0.4120003,-0.001366581
0.4110003,-0.001474179
0.4100003,-0.001590974
0.4090003,-0.001706236
0.4080003,-0.001805864
0.4070003,-0.001911317
0.4060003,-0.002012478
0.4050003,-0.002113945
0.4040003,-0.002216026
0.4030003,-0.002316573
0.4020003,-0.002421106
0.4010003,-0.002518589
0.4000003,-0.002617297
0.3990003,-0.002725509
0.3980003,-0.002823298
0.3970003,-0.002928138
0.3960003,-0.003035429
0.3950003,-0.003102152
0.3940003,-0.003209443
0.3930003,-0.003322866
0.3920003,-0.003430158
0.3910003,-0.003546647
0.3900003,-0.003663135
0.3890003,-0.003782689
0.3880003,-0.003908373
0.3870003,-0.004030993
0.3860003,-0.004159743
0.3850003,-0.004294624
0.3840003,-0.00442644
0.3830003,-0.004570518
0.3820003,-0.00471153
0.3810003,-0.004858673
0.3800003,-0.005011947
0.3790003,-0.005165222
0.3780003,-0.005327692
0.3770003,-0.005487097
0.3760003,-0.005652633
0.3750003,-0.0058243
0.3740003,-0.005992902
0.3730003,-0.006167634
0.3720003,-0.006345432
0.3710003,-0.006526296
0.3700003,-0.006710225
0.3690003,-0.006891088
0.3680003,-0.007075017
0.3670003,-0.007265077
0.3660003,-0.007449006
0.3650003,-0.007639066
0.3640003,-0.00782606
0.3630003,-0.008009989
0.3620003,-0.00820618
0.3610003,-0.008387043
0.3600003,-0.008570973
0.3590003,-0.008761032
0.3580003,-0.008941895
0.3570003,-0.009119694
0.3560003,-0.009303623
0.3550003,-0.009472225
0.3540003,-0.009643891
0.3530003,-0.00982169
0.3520003,-0.009981094
0.3510003,-0.0101497
0.3500003,-0.0103091
0.3490003,-0.01046851
0.3480003,-0.01062485
0.3470003,-0.01077199
0.3460003,-0.01093139
0.3450003,-0.01108467
0.3440003,-0.01122568
0.3430003,-0.01138202
0.3420003,-0.01152303
0.3410003,-0.01166098
0.3400003,-0.01181425
0.3390003,-0.01194913
0.3380003,-0.01209015
0.3370003,-0.01223422
0.3360003,-0.01236297
0.3350003,-0.01250399
0.3340003,-0.0126358
0.3330003,-0.01275536
0.3320003,-0.01289024
0.3310003,-0.01300979
0.3300003,-0.01312322
0.3290003,-0.0132397
0.3280003,-0.01335006
0.3270003,-0.01345122
0.3260003,-0.01355238
0.3250003,-0.01364128
0.3240003,-0.01372405
0.3230003,-0.01379762
0.3220003,-0.01385893
0.3210003,-0.01391717
0.3200003,-0.01396622
0.3190003,-0.01399994
0.3180003,-0.01402447
0.3170003,-0.01404592
0.3160003,-0.01405206
0.3150003,-0.01404592
0.3140003,-0.01403366
0.3130003,-0.01401834
0.3120003,-0.01398155
0.3110003,-0.01393863
0.3100003,-0.01388959
0.3090003,-0.01383441
0.3080003,-0.0137731
0.3070003,-0.01370872
0.3060003,-0.01363209
0.3050003,-0.01354625
0.3040003,-0.01345735
0.3030003,-0.01336232
0.3020003,-0.01325503
0.3010003,-0.01315693
0.3000003,-0.01304658
0.2990003,-0.01292396
0.2980003,-0.01281667
0.2970003,-0.01269098
0.2960003,-0.01255917
0.2950003,-0.01243961
0.2940003,-0.0123078
0.2930003,-0.01216372
0.2920003,-0.0120319
0.2910003,-0.01188783
0.2900003,-0.01174375
0.2890003,-0.01159967
0.2880003,-0.01144333
0.2870003,-0.01129006
0.2860003,-0.01112758
0.2850003,-0.01095592
0.2840003,-0.01079958
0.2830003,-0.01061871
0.2820003,-0.01043172
0.2810003,-0.01025392
0.2800003,-0.01004854
0.2790003,-0.009846213
0.2780003,-0.009643891
0.2770003,-0.009410915
0.2760003,-0.009184069
0.2750003,-0.008941895
0.2740003,-0.008684396
0.2730003,-0.008426895
0.2720003,-0.008157132
0.2710003,-0.007881239
0.2700003,-0.007608411
0.2690003,-0.007335583
0.2680003,-0.007068886
0.2670003,-0.006811386
0.2660003,-0.006563081
0.2650003,-0.00633317
0.2640003,-0.00610939
0.2630003,-0.005900937
0.2620003,-0.005713942
0.2610003,-0.005530014
0.2600003,-0.005358347
0.2590003,-0.005202007
0.2580003,-0.005051799
0.2570003,-0.004907721
0.2560003,-0.004782036
0.2550003,-0.004653286
0.2540003,-0.004533732
0.2530003,-0.00442644
0.2520003,-0.004316083
0.2510003,-0.004214922
0.2500003,-0.004119892
0.2490003,-0.004024862
0.2480003,-0.003939028
0.2470003,-0.00385626
0.2460003,-0.003770427
0.2450003,-0.00369379
0.2440003,-0.003617153
0.2430003,-0.003543581
0.2420003,-0.00347614
0.2410003,-0.003405634
0.2400003,-0.003338194
0.2390003,-0.003276884
0.2380003,-0.003212509
0.2370003,-0.003154265
0.2360003,-0.003096021
0.2350003,-0.003040842
0.2340003,-0.002988729
0.2330003,-0.002936616
0.2320003,-0.002884502
0.2310003,-0.00283852
0.2300003,-0.002792538
0.2290003,-0.002749621
0.2280003,-0.002706704
0.2270003,-0.002663787
0.2260003,-0.002627002
0.2250003,-0.002587151
0.2240003,-0.002550365
0.2230003,-0.002513579
0.2220003,-0.002479859
0.2210003,-0.002446138
0.2200003,-0.002415484
0.2190003,-0.002381763
0.2180003,-0.002354174
0.2170003,-0.002323519
0.2160003,-0.00229593
0.2150003,-0.002265275
0.2140003,-0.002237685
0.2130003,-0.002213162
0.2120003,-0.002185572
0.2110003,-0.002161048
0.2100003,-0.00213959
0.2090003,-0.002115066
0.2080003,-0.002090542
0.2070003,-0.002069084
0.2060003,-0.00204456
0.2050003,-0.002023102
0.2040003,-0.002004709
0.2030003,-0.00198325
0.2020003,-0.001961792
0.2010003,-0.001943399
0.2000003,-0.001925006
0.1990003,-0.001906613
0.1980003,-0.001885155
0.1970003,-0.001869828
0.1960003,-0.001851435
0.1950003,-0.001833042
0.1940003,-0.001817714
0.1930003,-0.001799321
0.1920003,-0.001783994
0.1910003,-0.001768667
0.1900003,-0.001753339
0.1890003,-0.001738012
0.1880003,-0.001722684
0.1870003,-0.001707357
0.1860003,-0.00169203
0.1850003,-0.001676702
0.1840003,-0.00166444
0.1830003,-0.001649113
0.1820003,-0.001636851
0.1810003,-0.001624589
0.1800003,-0.001646153
0.1790003,-0.001633278
0.1780003,-0.001620403
0.1770003,-0.001607834
0.1760003,-0.001595879
0.1750003,-0.001583923
0.1740003,-0.001571968
0.1730003,-0.001560626
0.1720003,-0.001548977
0.1710003,-0.001537941
0.1700003,-0.001526905
0.1690003,-0.001516176
0.1680003,-0.001505447
0.1670003,-0.001494718
0.1660003,-0.001484602
0.1650003,-0.001474179
0.1640003,-0.001464063
0.1630003,-0.00145456
0.1620003,-0.001444444
0.1610003,-0.001434941
0.1600003,-0.001425438
0.1590003,-0.001416241
0.1580003,-0.001406738
0.1570003,-0.001397849
0.1560003,-0.001388652
0.1550003,-0.001379762
0.1540003,-0.001371485
0.1530003,-0.001362595
0.1520003,-0.001354319
0.1510003,-0.001346042
0.1500003,-0.001337765
0.1490003,-0.001329488
0.1480003,-0.001321518
0.1470003,-0.001313548
0.1460003,-0.001305884
0.1450003,-0.001297914
0.1440003,-0.00129025
0.1430003,-0.001282893
0.1420003,-0.001274923
0.1410003,-0.001267872
0.1400003,-0.001260821
0.1390003,-0.001253158
0.1380003,-0.001246414
0.1370003,-0.001239363
0.1360003,-0.001232313
0.1350003,-0.001225875
0.1340003,-0.001218824
0.1330003,-0.001212387
0.1320003,-0.001205949
0.1310003,-0.001199205
0.1300003,-0.001192768
0.1290003,-0.00118633
0.1280003,-0.001179893
0.1270003,-0.001173762
0.1260003,-0.001167631
0.1250003,-0.0011615
0.1240003,-0.001155675
0.1230003,-0.001149544
0.1220003,-0.00114372
0.1210003,-0.001137896
0.1200003,-0.001132071
0.1190003,-0.001126553
0.1180003,-0.001121035
0.1170003,-0.001115518
0.1160003,-0.001109693
0.1150003,-0.001104175
0.1140003,-0.001098964
0.1130003,-0.001093446
0.1120003,-0.001088235
0.1110003,-0.001083023
0.1100003,-0.001077812
0.1090003,-0.001072601
0.1080003,-0.001068003
0.1070003,-0.001062791
0.1060003,-0.001057887
0.1050003,-0.001052982
0.1040003,-0.001048077
0.1030003,-0.001043479
0.1020003,-0.001038574
0.1010003,-0.001033669
0.1000003,-0.001029071
0.09900028,-0.001024473
0.09800029,-0.001019874
0.09700029,-0.001015583
0.09600028,-0.001010985
0.09500029,-0.001006693
0.09400029,-0.001001788
0.09300029,-0.0009974964
0.09200028,-0.0009932048
0.09100029,-0.000988913
0.09000029,-0.0009846214
0.08900028,-0.0009803297
0.08800028,-0.000976038
0.08700029,-0.0009720529
0.08600029,-0.0009680677
0.08500028,-0.0009640827
0.08400029,-0.0009600975
0.08300029,-0.0009561123
0.08200029,-0.0009518207
0.08100028,-0.0009478356
0.08000029,-0.000944157
0.07900029,-0.0009401719
0.07800028,-0.0009364933
0.07700028,-0.0009325081
0.07600029,-0.0009291361
0.07500029,-0.000925151
0.07400028,-0.0009214724
0.07300029,-0.0009177938
0.07200029,-0.0009138088
0.07100029,-0.0009104367
0.07000028,-0.0009070646
0.06900029,-0.0009030796
0.06800029,-0.0009000141
0.06700028,-0.0008963355
0.06600028,-0.0008926569
0.06500029,-0.0008892849
0.06400029,-0.0008859128
0.06300028,-0.0008825408
0.06200029,-0.0008791688
0.06100029,-0.0008757967
0.06000029,-0.0008727313
0.05900029,-0.0008693592
0.05800029,-0.0008662938
0.05700029,-0.0008629217
0.05600028,-0.0008595497
0.05500029,-0.0008564842
0.05400028,-0.0008534187
0.05300029,-0.0008500467
0.05200029,-0.0008469812
0.05100029,-0.0008442223
0.05000029,-0.0008411568
0.04900029,-0.0008377847
0.04800029,-0.0008347193
0.04700029,-0.0008316538
0.04600029,-0.0008285883
0.04500028,-0.0008258293
0.04400029,-0.0008227639
0.04300028,-0.000820005
0.04200029,-0.000817246
0.04100028,-0.0008141805
0.04000029,-0.0008111151
0.03900029,-0.0008083562
0.03800029,-0.0008055972
0.03700029,-0.0008025317
0.03600029,-0.0007997728
0.03500029,-0.0007970139
0.03400028,-0.0007945614
0.03300029,-0.000791496
0.03200028,-0.000788737
0.03100029,-0.0007859781
0.03000029,-0.0007832192
0.02900029,-0.0007807668
0.02800029,-0.0007780078
0.02700029,-0.0007752489
0.02600029,-0.0007727966
0.02500029,-0.0007700376
0.02400029,-0.0007672787
0.02300029,-0.0007648263
0.02200029,-0.0007620673
0.02100029,-0.0007593084
0.02000029,-0.000756856
0.01900029,-0.0007540971
0.01800029,-0.0007519512
0.01700029,-0.0007491923
0.01600029,-0.0007464333
0.01500029,-0.000743981
0.01400029,-0.0007415286
0.01300029,-0.0007387697
0.01200029,-0.0007363172
0.01100029,-0.0007338649
0.01000029,-0.000731106
0.009000286,-0.0007289601
0.008000286,-0.0007262012
0.007000286,-0.0007234422
0.006000286,-0.0007209898
0.005000286,-0.0007185375
0.004000286,-0.0007160851
0.003000286,-0.0007133262
0.002000286,-0.0007108737
0.001000286,-0.0007084214
2.861023E-07,-0.000699838
0.0009997139,-0.0006848171
0.001999714,-0.0006710225
0.002999714,-0.000658454
0.003999714,-0.0006464986
0.004999714,-0.0006348498
0.005999714,-0.0006238141
0.006999714,-0.0006133915
0.007999714,-0.0006035819
0.008999714,-0.0005940789
0.009999714,-0.0005848824
0.01099971,-0.000575686
0.01199971,-0.0005671026
0.01299971,-0.0005585193
0.01399971,-0.0005502424
0.01499971,-0.0005422722
0.01599971,-0.0005346085
0.01699971,-0.0005272513
0.01799971,-0.0005198942
0.01899971,-0.0005131501
0.01999971,-0.0005060995
0.02099971,-0.0004993554
0.02199971,-0.000492918
0.02299971,-0.0004861739
0.02399971,-0.0004797364
0.02499971,-0.0004736054
0.02599971,-0.0004674745
0.02699971,-0.0004619566
0.02799971,-0.0004561322
0.02899971,-0.0004503077
0.02999971,-0.0004447899
0.03099971,-0.000439272
0.03199971,-0.0004340607
0.03299971,-0.0004288494
0.03399972,-0.000423638
0.03499971,-0.0004187333
0.03599972,-0.0004135219
0.03699971,-0.0004086172
0.03799972,-0.000404019
0.03899971,-0.0003991142
0.03999971,-0.000394516
0.04099971,-0.0003899177
0.04199971,-0.0003856261
0.04299971,-0.0003810278
0.04399971,-0.0003767362
0.04499971,-0.0003724445
0.04599971,-0.0003681528
0.04699972,-0.0003638611
0.04799971,-0.000359876
0.04899972,-0.0003558909
0.04999971,-0.0003519058
0.05099971,-0.0003482272
0.05199971,-0.000344242
0.05299971,-0.0003405634
0.05399971,-0.0003368849
0.05499971,-0.0003332063
0.05599971,-0.0003295277
0.05699971,-0.0003258491
0.05799972,-0.0003221706
0.05899971,-0.0003187985
0.05999972,-0.0003151199
0.06099971,-0.0003117479
0.06199971,-0.0003086824
0.06299971,-0.0003053104
0.06399971,-0.0003019384
0.06499971,-0.0002988729
0.06599972,-0.0002958074
0.06699971,-0.0002924354
0.06799971,-0.0002890633
0.06899972,-0.0002863044
0.06999972,-0.0002832389
0.07099971,-0.00028048
0.07199971,-0.0002774145
0.07299972,-0.0002746556
0.07399971,-0.0002715901
0.07499971,-0.0002688312
0.07599971,-0.0002657657
0.07699972,-0.0002630067
0.07799971,-0.0002605543
0.07899971,-0.0002577954
0.07999972,-0.0002550365
0.08099972,-0.0002525841
0.08199971,-0.0002498252
0.08299971,-0.0002470662
0.08399972,-0.0002443073
0.08499971,-0.0002418549
0.08599971,-0.0002394025
0.08699971,-0.0002369501
0.08799972,-0.0002344978
0.08899971,-0.0002320454
0.08999971,-0.000229593
0.09099972,-0.0002271406
0.09199972,-0.0002249948
0.09299971,-0.0002225424
0.09399971,-0.0002203965
0.09499972,-0.0002179441
0.09599971,-0.0002157983
0.09699971,-0.0002136525
0.09799971,-0.0002112001
0.09899972,-0.0002090542
0.09999971,-0.0002069084
0.1009997,-0.0002047626
0.1019997,-0.0002029233
0.1029997,-0.0002007774
0.1039997,-0.0001986316
0.1049997,-0.0001964858
0.1059997,-0.0001943399
0.1069997,-0.0001925007
0.1079997,-0.0001903548
0.1089997,-0.0001885155
0.1099997,-0.0001866762
0.1109997,-0.0001848369
0.1119997,-0.0001829976
0.1129997,-0.0001808518
0.1139997,-0.0001790125
0.1149997,-0.0001771732
0.1159997,-0.0001753339
0.1169997,-0.0001734946
0.1179997,-0.0001716554
0.1189997,-0.0001698161
0.1199997,-0.0001679768
0.1209997,-0.000166444
0.1219997,-0.0001646047
0.1229997,-0.000163072
0.1239997,-0.0001612327
0.1249997,-0.0001597
0.1259997,-0.0001611513
0.1269997,-0.0001594652
0.1279997,-0.0001578405
0.1289997,-0.0001562158
0.1299997,-0.0001546524
0.1309997,-0.0001530584
0.1319997,-0.0001514643
0.1329997,-0.0001499316
0.1339997,-0.0001483988
0.1349997,-0.0001468048
0.1359997,-0.0001453027
0.1369997,-0.0001438619
0.1379997,-0.0001422985
0.1389997,-0.0001409191
0.1399997,-0.0001394783
0.1409997,-0.0001380069
0.1419997,-0.0001366274
0.1429997,-0.0001351253
0.1439997,-0.0001337152
0.1449997,-0.0001322744
0.1459997,-0.0001308643
0.1469997,-0.0001294542
0.1479997,-0.0001280747
0.1489997,-0.0001267872
0.1499997,-0.0001255304
0.1509997,-0.0001241202
0.1519997,-0.0001228021
0.1529997,-0.0001215759
0.1539997,-0.0001202577
0.1549997,-0.0001190315
0.1559997,-0.0001178053
0.1569997,-0.0001165178
0.1579997,-0.0001153223
0.1589997,-0.0001139735
0.1599997,-0.0001126553
0.1609997,-0.0001114904
0.1619997,-0.0001102642
0.1629997,-0.00010913
0.1639997,-0.0001079651
0.1649997,-0.0001068616
0.1659997,-0.0001057273
0.1669997,-0.0001045011
0.1679997,-0.0001033669
0.1689997,-0.0001021714
0.1699997,-0.0001009452
0.1709997,-9.990291E-05
0.1719997,-9.876868E-05
0.1729997,-9.76038E-05
0.1739997,-9.665349E-05
0.1749997,-9.551927E-05
0.1759997,-9.441569E-05
0.1769997,-9.340408E-05
0.1779997,-9.233117E-05
0.1789997,-9.141152E-05
0.1799997,-9.030795E-05
0.1809997,-8.929634E-05
0.1819997,-8.828473E-05
0.1829997,-8.724246E-05
0.1839997,-8.626151E-05
0.1849997,-8.518859E-05
0.1859997,-8.405436E-05
0.1869997,-8.316537E-05
0.1879997,-8.212311E-05
0.1889997,-8.114216E-05
0.1899997,-8.022251E-05
0.1909997,-7.924155E-05
0.1919997,-7.829125E-05
0.1929997,-7.740227E-05
0.1939997,-7.645196E-05
0.1949997,-7.556297E-05
0.1959997,-7.464333E-05
0.1969997,-7.372369E-05
0.1979997,-7.277339E-05
0.1989997,-7.179243E-05
0.1999997,-7.084214E-05
0.2009997,-6.992248E-05
0.2019997,-6.897219E-05
0.2029997,-6.814451E-05
0.2039997,-6.725552E-05
0.2049997,-6.633587E-05
0.2059997,-6.544688E-05
0.2069997,-6.461921E-05
0.2079997,-6.376087E-05
0.2089997,-6.290253E-05
0.2099997,-6.201354E-05
0.2109997,-6.118586E-05
0.2119997,-6.038884E-05
0.2129997,-5.95305E-05
0.2139997,-5.870283E-05
0.2149997,-5.787514E-05
0.2159997,-5.698615E-05
0.2169997,-5.612781E-05
0.2179997,-5.533079E-05
0.2189997,-5.447246E-05
0.2199997,-5.358347E-05
0.2209997,-5.275579E-05
0.2219997,-5.198942E-05
0.2229997,-5.110043E-05
0.2239997,-5.03034E-05
0.2249997,-4.947572E-05
0.2259997,-4.864804E-05
0.2269997,-4.788167E-05
0.2279997,-4.705399E-05
0.2289997,-4.625697E-05
0.2299997,-4.549059E-05
0.2309997,-4.472422E-05
0.2319997,-4.39272E-05
0.2329997,-4.306886E-05
0.2339997,-4.23638E-05
0.2349997,-4.159743E-05
0.2359997,-4.073909E-05
0.2369997,-4.003403E-05
0.2379997,-3.926766E-05
0.2389997,-3.847064E-05
0.2399997,-3.767361E-05
0.2409997,-3.690724E-05
0.2419997,-3.607956E-05
0.2429997,-3.519057E-05
0.2439997,-3.439355E-05
0.2449997,-3.362718E-05
0.2459997,-3.283015E-05
0.2469997,-3.203312E-05
0.2479997,-3.126675E-05
0.2489997,-3.043907E-05
0.2499997,-2.970336E-05
0.2509997,-2.89983E-05
0.2519997,-2.817062E-05
0.2529997,-2.731228E-05
0.2539997,-2.651526E-05
0.2549997,-2.559561E-05
0.2559997,-2.482924E-05
0.2569997,-2.406287E-05
0.2579997,-2.323519E-05
0.2589997,-2.246882E-05
0.2599997,-2.170245E-05
0.2609997,-2.087477E-05
0.2619997,-2.007774E-05
0.2629997,-1.925006E-05
0.2639997,-1.842238E-05
0.2649997,-1.750274E-05
0.2659997,-1.66444E-05
0.2669997,-1.581672E-05
0.2679997,-1.495839E-05
0.2689997,-1.413071E-05
0.2699997,-1.360756E-05
0.2709997,-1.27247E-05
0.2719997,-1.197366E-05
0.2729997,-1.117357E-05
0.2739997,-1.030604E-05
0.2749997,-9.407849E-06
0.2759997,-8.494335E-06
0.2769997,-7.562428E-06
0.2779997,-6.578409E-06
0.2789997,-5.698615E-06
0.2799997,-4.831084E-06
0.2809997,-3.889981E-06
0.2819997,-3.013253E-06
0.2829997,-2.121197E-06
0.2839997,-1.164767E-06
0.2849997,-3.003006E-07
0.2859997,6.224097E-07
0.2869997,1.655477E-06
0.2879997,2.722265E-06
0.2889997,3.721613E-06
0.2899997,4.711763E-06
0.2909997,5.683522E-06
0.2919997,6.688999E-06
0.2929997,7.67915E-06
0.2939997,8.66317E-06
0.2949997,9.690107E-06
0.2959997,1.072317E-05
0.2969997,1.180222E-05
0.2979997,1.293339E-05
0.2989997,1.408601E-05
0.2999997,1.530301E-05
0.3009997,1.637899E-05
0.3019997,1.747643E-05
0.3029997,1.86781E-05
0.3039997,1.975102E-05
0.3049997,2.090364E-05
0.3059997,2.208998E-05
0.3069997,2.327939E-05
0.3079997,2.456076E-05
0.3089997,2.581761E-05
0.3099997,2.75292E-05
0.3109997,2.884736E-05
0.3119997,3.019617E-05
0.3129997,3.157564E-05
0.3139997,3.29551E-05
0.3149997,3.427326E-05
0.3159997,3.568338E-05
0.3169997,3.712416E-05
0.3179997,3.856494E-05
0.3189997,4.006703E-05
0.3199997,4.159976E-05
0.3209997,4.319382E-05
0.3219997,4.487983E-05
0.3229997,4.644323E-05
0.3239997,4.834383E-05
0.3249997,5.009115E-05
0.3259997,5.186913E-05
0.3269997,5.383104E-05
0.3279997,5.57623E-05
0.3289997,5.766289E-05
0.3299997,5.980873E-05
0.3309997,6.186261E-05
0.3319997,6.406975E-05
0.3329997,6.639952E-05
0.3339997,6.891321E-05
0.3349997,7.154953E-05
0.3359997,7.433912E-05
0.3369997,7.728198E-05
0.3379997,8.031681E-05
0.3389997,8.359687E-05
0.3399997,8.712218E-05
0.3409997,9.092338E-05
0.3419997,9.512309E-05
0.3429997,9.981328E-05
0.3439997,0.0001049939
0.3449997,0.0001111556
0.3459997,0.0001181755
0.3469997,0.0001265749
0.3479997,0.0001365378
0.3489997,0.0001485851
0.3499997,0.000163514
0.3509997,0.0001821215
0.3519997,0.0002057257
0.3529997,0.0002359514
0.3539997,0.0002745458
0.3549997,0.0003245438
0.3559997,0.0003930065
0.3569997,0.0004779204
0.3579997,0.0005882778
0.3589997,0.0007292901
0.3599997,0.0009049422
0.3609997,0.001116154
0.3619997,0.001360166
0.3629997,0.001631462
0.3639997,0.001922376
0.3649997,0.002224633
0.3659997,0.002532714
0.3669997,0.002838036
0.3679997,0.00313876
0.3689997,0.003461046
0.3699997,0.003743071
0.3709997,0.004025095
0.3719997,0.004297923
0.3729997,0.00456462
0.3739997,0.004831317
0.3749997,0.005088818
0.3759997,0.005346318
0.3769997,0.00560995
0.3779997,0.005870515
0.3789997,0.006124951
0.3799997,0.006385517
0.3809997,0.006636886
0.3819997,0.006888256
0.3829997,0.007142691
0.3839997,0.00738793
0.3849997,0.007630103
0.3859997,0.007869211
0.3869997,0.008102187
0.3879997,0.008332099
0.3889997,0.008558944
0.3899997,0.008779659
0.3909997,0.008994242
0.3919997,0.00919963
0.3929997,0.009405017
0.3939997,0.009601207
0.3949997,0.009788202
0.3959997,0.009972132
0.3969997,0.01014993
0.3979997,0.0103216
0.3989997,0.01047794
0.3999997,0.01063428
0.4009997,0.01077529
0.4019997,0.0109071
0.4029997,0.01104198
0.4039997,0.01115847
0.4049997,0.0112627
0.4059997,0.01136693
0.4069997,0.01145889
0.4079997,0.01154472
0.4089997,0.01162749
0.4099997,0.01170413
0.4109997,0.0117685
0.4119997,0.01182062
0.4129997,0.01186966
0.4139997,0.01191565
0.4149997,0.01194324
0.4159997,0.01198309
0.4169997,0.01200761
0.4179997,0.012026
0.4189997,0.01205359
0.4199997,0.01206585
0.4209997,0.01208425
0.4219997,0.01210571
0.4229997,0.01211797
0.4239997,0.01214249
0.4249997,0.01216089
0.4259997,0.01217928
0.4269997,0.01221606
0.4279997,0.01223752
0.4289997,0.01226818
0.4299997,0.01231109
0.4309997,0.01234175
0.4319997,0.01238467
0.4329997,0.01243371
0.4339997,0.01247663
0.4349997,0.01253487
0.4359997,0.01259312
0.4369997,0.01265136
0.4379997,0.01272187
0.4389997,0.01278931
0.4399997,0.01286288
0.4409997,0.01294871
0.4419997,0.01302535
0.4429997,0.01311732
0.4439997,0.01321541
0.4449997,0.01330124
0.4459997,0.01340854
0.4469997,0.0135189
0.4479997,0.01362006
0.4489997,0.01373654
0.4499997,0.0138561
0.4509997,0.01397259
0.4519997,0.0141044
0.4529997,0.01423315
0.4539997,0.01436497
0.4549997,0.01450904
0.4559997,0.01464393
0.4569997,0.01480027
0.4579997,0.01495354
0.4589997,0.01510068
0.4599997,0.01527542
0.4609997,0.01544095
0.4619997,0.01560342
0.4629997,0.01578735
0.4639997,0.01595595
0.4649997,0.01614295
0.4659997,0.01633301
0.4669997,0.01652
0.4679997,0.01673152
0.4689997,0.01692465
0.4699997,0.01713003
0.4709997,0.01735688
0.4719997,0.0175592
0.4729997,0.01778298
0.4739997,0.01802209
0.4749997,0.01824587
0.4759997,0.01848498
0.4769997,0.01872715
0.4779997,0.01897239
0.4789997,0.01922682
0.4799997,0.01948126
0.4809997,0.01974795
0.4819997,0.02001772
0.4829997,0.02028135
0.4839997,0.02057257
0.4849997,0.02085153
0.4859997,0.02113049
0.4869997,0.02143091
0.4879997,0.02172519
0.4889997,0.02202868
0.4899997,0.02233522
0.4909997,0.02265403
0.4919997,0.02296058
0.4929997,0.02328859
0.4939997,0.0236166
0.4949997,0.02394154
0.4959997,0.02427261
0.4969997,0.02461288
0.4979997,0.02495621
0.4989997,0.02528728
0.4999997,0.02565207
0.5009997,0.02600767
0.5019997,0.02634794
0.5029997,0.02672193
0.5039997,0.02708059
0.5049997,0.02743619
0.5059997,0.02781937
0.5069997,0.02818416
0.5079997,0.02855815
0.5089997,0.02895053
0.5099997,0.02931533
0.5109997,0.02970771
0.5119997,0.03010316
0.5129997,0.03123844
0.5139997,0.03163695
0.5149997,0.03200481
0.5159997,0.03240332
0.5169997,0.03280183
0.5179997,0.03320035
0.5189997,0.03359886
0.5199997,0.03402802
0.5209997,0.03439588
0.5219997,0.03482505
0.5229997,0.03522356
0.5239997,0.03565273
0.5249997,0.0360819
0.5259997,0.03648041
0.5269997,0.03690958
0.5279997,0.03733874
0.5289997,0.03773726
0.5299997,0.03816643
0.5309997,0.03859559
0.5319997,0.03899411
0.5329997,0.03945393
0.5339997,0.03985244
0.5349997,0.04028161
0.5359997,0.04071078
0.5369997,0.04113995
0.5379997,0.04156911
0.5389997,0.04199828
0.5399997,0.04242745
0.5409997,0.04288727
0.5419997,0.04331644
0.5429997,0.0437456
0.5439997,0.04420543
0.5449997,0.04460394
0.5459997,0.04506376
0.5469997,0.04549293
0.5479997,0.0459221
0.5489997,0.04638192
0.5499997,0.04681109
0.5509997,0.04727091
0.5519997,0.04770008
0.5529997,0.04812925
0.5539997,0.04858907
0.5549997,0.04904889
0.5559997,0.04947806
0.5569997,0.04993788
0.5579997,0.05036705
0.5589997,0.05079622
0.5599997,0.05128669
0.5609997,0.05171586
0.5619997,0.05217568
0.5629997,0.0526355
0.5639997,0.05306467
0.5649997,0.05352449
0.5659997,0.05398431
0.5669997,0.05441349
0.5679997,0.05490396
0.5689997,0.05533313
0.5699997,0.05579295
0.5709997,0.05625277
0.5719997,0.05668194
0.5729997,0.05714176
0.5739997,0.05760158
0.5749997,0.05806141
0.5759997,0.05852123
0.5769997,0.05898106
0.5779997,0.05944088
0.5789997,0.0599007
0.5799997,0.06032987
0.5809997,0.06082034
0.5819997,0.06131082
0.5829997,0.06170933
0.5839997,0.06219981
0.5849997,0.06265964
0.5859997,0.0630888
0.5869997,0.06357928
0.5879997,0.06400844
0.5889997,0.06449892
0.5899997,0.06495874
0.5909997,0.06538791
0.5919997,0.06587839
0.5929997,0.06633821
0.5939997,0.06679803
0.5949997,0.06728851
0.5959997,0.06771768
0.5969997,0.06820816
0.5979997,0.06869864
0.5989997,0.0691278
0.5999997,0.06961828
0.6009997,0.0700781
0.6019997,0.07053792
0.6029997,0.0710284
0.6039997,0.07145756
0.6049997,0.07191739
0.6059997,0.07240786
0.6069997,0.07286769
0.6079997,0.07332751
0.6089997,0.07381799
0.6099997,0.07427781
0.6109997,0.07476829
0.6119997,0.07522812
0.6129997,0.07568794
0.6139997,0.07617841
0.6149997,0.07663824
0.6159997,0.07709806
0.6169997,0.07758854
0.6179997,0.07804836
0.6189997,0.07853883
0.6199997,0.07899866
0.6209997,0.07945848
0.6219997,0.07994895
0.6229997,0.08040877
0.6239997,0.08086859
0.6249997,0.08135908
0.6259997,0.08178824
0.6269997,0.08230938
0.6279997,0.0827692
0.6289997,0.08322902
0.6299997,0.0837195
0.6309997,0.08417932
0.6319997,0.08463915
0.6329997,0.08519093
0.6339997,0.0856201
0.6349997,0.08607992
0.6359997,0.08660105
0.6369997,0.08703022
0.6379997,0.08755135
0.6389997,0.08804183
0.6399997,0.088471
0.6409997,0.08899213
0.6419997,0.08945195
0.6429997,0.08991177
0.6439997,0.09040225
0.6449997,0.09083142
0.6459997,0.09135254
0.6469997,0.09181237
0.6479997,0.09227219
0.6489997,0.09282398
0.6499997,0.09325315
0.6509997,0.09374363
0.6519997,0.09426476
0.6529997,0.09469392
0.6539997,0.09518441
0.6549997,0.09570553
0.6559997,0.09613471
0.6569997,0.09662518
0.6579997,0.09711566
0.6589997,0.09754483
0.6599997,0.09806596
0.6609997,0.09852578
0.6619997,0.09901626
0.6629997,0.09950673
0.6639997,0.0999359
0.6649997,0.100457
0.6659997,0.1009475
0.6669997,0.1014073
0.6679997,0.1019285
0.6689997,0.1023883
0.6699997,0.1028788
0.6709997,0.1033999
0.6719997,0.1038291
0.6729997,0.1043502
0.6739997,0.1048713
0.6749997,0.1052698
0.6759997,0.1058216
0.6769997,0.1063121
0.6779997,0.1067106
0.6789997,0.1072624
0.6799997,0.1077222
0.6809997,0.108182
0.6819997,0.1087338
0.6829997,0.109163
0.6839997,0.1096841
0.6849997,0.1101746
0.6859997,0.1106344
0.6869997,0.1111862
0.6879997,0.1116154
0.6889997,0.1121059
0.6899997,0.1126576
0.6909997,0.1130562
0.6919997,0.1135466
0.6929997,0.1140984
0.6939997,0.1145276
0.6949997,0.1150487
0.6959997,0.1155392
0.6969997,0.1159684
0.6979997,0.1164895
0.6989997,0.1169493
0.6999997,0.1171026
0.6990004,0.1166121
0.6980004,0.1160603
0.6970004,0.1156312
0.6960004,0.1150794
0.6950004,0.1145889
0.6940004,0.1141597
0.6930004,0.1136079
0.6920004,0.1131175
0.6910004,0.1126883
0.6900004,0.1121365
0.6890004,0.1116767
0.6880004,0.1111862
0.6870004,0.1106651
0.6860004,0.1102053
0.6850004,0.1096841
0.6840004,0.109163
0.6830004,0.1087032
0.6820004,0.108182
0.6810004,0.1077222
0.6800004,0.1072318
0.6790004,0.1067106
0.6780004,0.1062508
0.6770004,0.1057603
0.6760004,0.1052392
0.6750004,0.1047794
0.6740004,0.1042582
0.6730004,0.1037371
0.6720004,0.1033079
0.6710004,0.1027868
0.6700004,0.1022963
0.6690004,0.1018672
0.6680004,0.1012847
0.6670004,0.1008555
0.6660004,0.1003651
0.6650004,0.09984394
0.6640004,0.09938411
0.6630004,0.09883233
0.6620004,0.09837251
0.6610004,0.09788202
0.6600004,0.0973609
0.6590004,0.09693173
0.6580004,0.09644125
0.6570004,0.09592012
0.6560004,0.09549095
0.6550004,0.09496982
0.6540004,0.09447934
0.6530004,0.09405018
0.6520004,0.09349839
0.6510004,0.09303857
0.6500004,0.09254809
0.6490004,0.09202696
0.6480004,0.09156714
0.6470004,0.091046
0.6460004,0.09055553
0.6450004,0.0900957
0.6440004,0.08957457
0.6430004,0.08911475
0.6420004,0.08862427
0.6410004,0.0881338
0.6400004,0.08770462
0.6390004,0.08715284
0.6380004,0.08669301
0.6370004,0.08626385
0.6360004,0.08574272
0.6350004,0.08525224
0.6340004,0.08479242
0.6330004,0.08427128
0.6320004,0.08381146
0.6310004,0.08332099
0.6300004,0.08283051
0.6290004,0.08237069
0.6280004,0.08184955
0.6270004,0.08138973
0.6260004,0.08089925
0.6250004,0.08040877
0.6240004,0.07997961
0.6230004,0.07948913
0.6220004,0.07899866
0.6210004,0.07853883
0.6200004,0.0780177
0.6190004,0.07755788
0.6180004,0.07709806
0.6170004,0.07657693
0.6160004,0.0761171
0.6150004,0.07565728
0.6140004,0.07513615
0.6130004,0.07467633
0.6120004,0.07418585
0.6110004,0.07369537
0.6100004,0.07323555
0.6090004,0.07274507
0.6080004,0.07228525
0.6070004,0.07182543
0.6060004,0.07133495
0.6050004,0.07087513
0.6040004,0.07038464
0.6030004,0.06989417
0.6020004,0.069465
0.6010004,0.06894387
0.6000004,0.06848405
0.5990004,0.06802423
0.5980004,0.06750309
0.5970004,0.06707393
0.5960004,0.06658345
0.5950004,0.06609298
0.5940004,0.06566381
0.5930004,0.06514268
0.5920004,0.06468286
0.5910004,0.06422303
0.5900004,0.06373256
0.5890004,0.06330338
0.5880004,0.06281291
0.5870004,0.06235309
0.5860004,0.06192392
0.5850004,0.06140279
0.5840004,0.06094296
0.5830004,0.06048314
0.5820004,0.05999266
0.5810004,0.05953284
0.5800004,0.05907302
0.5790004,0.05861319
0.5780004,0.05815337
0.5770004,0.05769355
0.5760004,0.05720307
0.5750004,0.05674325
0.5740004,0.05625277
0.5730004,0.05582361
0.5720004,0.05536379
0.5710004,0.05487331
0.5700004,0.05444414
0.5690004,0.05395366
0.5680004,0.05349384
0.5670004,0.05306467
0.5660004,0.05257419
0.5650004,0.05211437
0.5640004,0.0516852
0.5630004,0.05119473
0.5620004,0.05073491
0.5610004,0.05027508
0.5600004,0.04984592
0.5590004,0.0493861
0.5580004,0.04892627
0.5570004,0.04846645
0.5560004,0.04800662
0.5550004,0.04757746
0.5540004,0.04711764
0.5530004,0.04665781
0.5520004,0.04622864
0.5510004,0.04573817
0.5500004,0.045309
0.5490004,0.04484918
0.5480004,0.04438936
0.5470004,0.04396019
0.5460004,0.04346971
0.5450004,0.04304054
0.5440004,0.04261138
0.5430004,0.04215155
0.5420004,0.04172239
0.5410004,0.04126256
0.5400004,0.04080274
0.5390004,0.04037357
0.5380004,0.03994441
0.5370004,0.03948459
0.5360004,0.03905542
0.5350004,0.03859559
0.5340004,0.03816643
0.5330004,0.03773726
0.5320004,0.03727744
0.5310004,0.03684827
0.5300004,0.0364191
0.5290004,0.03595928
0.5280004,0.03553011
0.5270004,0.03510094
0.5260004,0.03464112
0.5250004,0.03424261
0.5240004,0.03381344
0.5230004,0.03335362
0.5220004,0.03295511
0.5210004,0.03249529
0.5200004,0.03206612
0.5190004,0.0316676
0.5180004,0.03123844
0.5170004,0.03080927
0.5160004,0.0303801
0.5150004,0.02995093
0.5140004,0.02952177
0.5130004,0.0290926
0.5120004,0.02866343
0.5110004,0.02826492
0.5100004,0.02783575
0.5090004,0.02743724
0.5080004,0.02700807
0.5070004,0.02660956
0.5060004,0.02621104
0.5050004,0.02578188
0.5040004,0.02535271
0.5030004,0.0249542
0.5020004,0.02455568
0.5010004,0.02415717
0.5000004,0.023728
0.4990004,0.02332949
0.4980004,0.02293098
0.4970004,0.02253246
0.4960004,0.02213395
0.4950004,0.02173544
0.4940004,0.02133693
0.4930004,0.02093842
0.4920004,0.02057056
0.4910004,0.02017204
0.4900004,0.01977353
0.4890004,0.01937502
0.4880004,0.01900716
0.4870004,0.0186393
0.4860004,0.01824079
0.4850004,0.01787293
0.4840004,0.01750507
0.4830004,0.01710656
0.4820004,0.01676936
0.4810004,0.01637085
0.4800004,0.01600299
0.4790004,0.01563513
0.4780004,0.01529793
0.4770004,0.01493007
0.4760004,0.01456221
0.4750004,0.01419435
0.4740004,0.01382649
0.4730004,0.01348929
0.4720004,0.01315209
0.4710004,0.01231416
0.4700004,0.01198309
0.4690004,0.01164282
0.4680004,0.01130868
0.4670004,0.01098374
0.4660004,0.0106496
0.4650004,0.01032773
0.4640004,0.01000892
0.4630004,0.009683976
0.4620004,0.009371297
0.4610004,0.009055552
0.4600004,0.008742873
0.4590004,0.008442456
0.4580004,0.008138973
0.4570004,0.007841621
0.4560004,0.0075504
0.4550004,0.007256114
0.4540004,0.006971024
0.4530004,0.006685934
0.4520004,0.00640391
0.4510004,0.006131082
0.4500004,0.005858254
0.4490004,0.005591557
0.4480004,0.00532486
0.4470004,0.005064294
0.4460004,0.004812925
0.4450004,0.004561555
0.4440004,0.004316316
0.4430004,0.004074143
0.4420004,0.003835035
0.4410004,0.003602059
0.4400004,0.003375213
0.4390004,0.003148367
0.4380004,0.002930718
0.4370004,0.002716134
0.4360004,0.002504616
0.4350004,0.00230536
0.4340004,0.002099972
0.4330004,0.001903781
0.4320004,0.001716787
0.4310004,0.001526727
0.4300004,0.001342798
0.4290004,0.001165
0.4280004,0.000957975
0.4270004,0.0007930521
0.4260004,0.0006269029
0.4250004,0.000465965
0.4240004,0.0003114647
0.4230004,0.0001569644
0.4220004,8.901573E-06
0.4210004,-0.0001388039
0.4200004,-0.0002793869
0.4190004,-0.0004138285
0.4180004,-0.0005487097
0.4170004,-0.0006780731
0.4160004,-0.0008046775
0.4150004,-0.0009328147
0.4140004,-0.001050529
0.4130004,-0.00116855
0.4120004,-0.001287798
0.4110004,-0.001398462
0.4100004,-0.001518322
0.4090004,-0.001635423
0.4080004,-0.00173873
0.4070004,-0.001847248
0.4060004,-0.001949635
0.4050004,-0.002053555
0.4040004,-0.002159314
0.4030004,-0.002261088
0.4020004,-0.002365928
0.4010004,-0.002467089
0.4000004,-0.002568556
0.3990004,-0.002675541
0.3980004,-0.002775476
0.3970004,-0.002882768
0.3960004,-0.002992513
0.3950004,-0.0030623
0.3940004,-0.003169592
0.3930004,-0.003283015
0.3920004,-0.003393373
0.3910004,-0.003512926
0.3900004,-0.003629415
0.3890004,-0.003748968
0.3880004,-0.003874653
0.3870004,-0.003997272
0.3860004,-0.004132153
0.3850004,-0.004267035
0.3840004,-0.004398851
0.3830004,-0.004542928
0.3820004,-0.004687006
0.3810004,-0.004834149
0.3800004,-0.004993554
0.3790004,-0.005143763
0.3780004,-0.005306234
0.3770004,-0.005471769
0.3760004,-0.00563424
0.3750004,-0.005808973
0.3740004,-0.00598064
0.3730004,-0.006155372
0.3720004,-0.006336236
0.3710004,-0.006517099
0.3700004,-0.006701028
0.3690004,-0.006884957
0.3680004,-0.007068886
0.3670004,-0.007258946
0.3660004,-0.00744594
0.3650004,-0.007632935
0.3640004,-0.007822994
0.3630004,-0.008013055
0.3620004,-0.008200049
0.3610004,-0.008387043
0.3600004,-0.008570973
0.3590004,-0.008757967
0.3580004,-0.008941895
0.3570004,-0.009119694
0.3560004,-0.009297492
0.3550004,-0.009466094
0.3540004,-0.009640826
0.3530004,-0.009806362
0.3520004,-0.009974963
0.3510004,-0.0101405
0.3500004,-0.01029377
0.3490004,-0.01045624
0.3480004,-0.01061258
0.3470004,-0.01075666
0.3460004,-0.010913
0.3450004,-0.01106014
0.3440004,-0.01120116
0.3430004,-0.01135137
0.3420004,-0.01149238
0.3410004,-0.01163032
0.3400004,-0.01177134
0.3390004,-0.01190928
0.3380004,-0.0120411
0.3370004,-0.01217905
0.3360004,-0.01230473
0.3350004,-0.01243961
0.3340004,-0.01256223
0.3330004,-0.01268485
0.3320004,-0.0128044
0.3310004,-0.0129117
0.3300004,-0.01302818
0.3290004,-0.01313854
0.3280004,-0.01323357
0.3270004,-0.01333167
0.3260004,-0.01342057
0.3250004,-0.01350027
0.3240004,-0.01357997
0.3230004,-0.01364435
0.3220004,-0.01370259
0.3210004,-0.0137547
0.3200004,-0.01379456
0.3190004,-0.01382521
0.3180004,-0.01384973
0.3170004,-0.013862
0.3160004,-0.013862
0.3150004,-0.01385893
0.3140004,-0.01384667
0.3130004,-0.01382214
0.3120004,-0.01379762
0.3110004,-0.01375777
0.3100004,-0.01370872
0.3090004,-0.01366274
0.3080004,-0.01360143
0.3070004,-0.01353705
0.3060004,-0.01346962
0.3050004,-0.01338685
0.3040004,-0.01330101
0.3030004,-0.01321518
0.3020004,-0.01311402
0.3010004,-0.01301899
0.3000004,-0.01291783
0.2990004,-0.01280134
0.2980004,-0.01269098
0.2970004,-0.01257756
0.2960004,-0.01245187
0.2950004,-0.01233232
0.2940004,-0.01220664
0.2930004,-0.01206869
0.2920004,-0.01193994
0.2910004,-0.01179586
0.2900004,-0.01165485
0.2890004,-0.0115077
0.2880004,-0.01135443
0.2870004,-0.01120116
0.2860004,-0.01103256
0.2850004,-0.01086702
0.2840004,-0.01070148
0.2830004,-0.01050836
0.2820004,-0.01032443
0.2810004,-0.0101313
0.2800004,-0.009913653
0.2790004,-0.009711332
0.2780004,-0.009481421
0.2770004,-0.009239248
0.2760004,-0.008997074
0.2750004,-0.008730377
0.2740004,-0.00845755
0.2730004,-0.008184722
0.2720004,-0.007899632
0.2710004,-0.007617608
0.2700004,-0.007341714
0.2690004,-0.007068886
0.2680004,-0.006811386
0.2670004,-0.006563081
0.2660004,-0.006323974
0.2650004,-0.00610939
0.2640004,-0.005900937
0.2630004,-0.005710877
0.2620004,-0.005533079
0.2610004,-0.005364478
0.2600004,-0.005205072
0.2590004,-0.00506406
0.2580004,-0.004923048
0.2570004,-0.004791233
0.2560004,-0.004674744
0.2550004,-0.00455519
0.2540004,-0.004447898
0.2530004,-0.004343672
0.2520004,-0.004245576
0.2510004,-0.004150547
0.2500004,-0.004058582
0.2490004,-0.003969683
0.2480004,-0.003886915
0.2470004,-0.003804147
0.2460004,-0.003730575
0.2450004,-0.003653938
0.2440004,-0.003580367
0.2430004,-0.003512926
0.2420004,-0.00344242
0.2410004,-0.003378045
0.2400004,-0.003316735
0.2390004,-0.00325236
0.2380004,-0.003194116
0.2370004,-0.003135872
0.2360004,-0.003077628
0.2350004,-0.003025514
0.2340004,-0.002970336
0.2330004,-0.002921288
0.2320004,-0.00287224
0.2310004,-0.002823193
0.2300004,-0.002780276
0.2290004,-0.002734293
0.2280004,-0.002694442
0.2270004,-0.002654591
0.2260004,-0.00261474
0.2250004,-0.002577954
0.2240004,-0.002541168
0.2230004,-0.002507448
0.2220004,-0.002473728
0.2210004,-0.002440007
0.2200004,-0.002406287
0.2190004,-0.002375632
0.2180004,-0.002344977
0.2170004,-0.002317388
0.2160004,-0.002289799
0.2150004,-0.002262209
0.2140004,-0.00223462
0.2130004,-0.002210096
0.2120004,-0.002182507
0.2110004,-0.002157983
0.2100004,-0.002136525
0.2090004,-0.002112001
0.2080004,-0.002090542
0.2070004,-0.002066019
0.2060004,-0.00204456
0.2050004,-0.002026167
0.2040004,-0.002004709
0.2030004,-0.00198325
0.2020004,-0.001964858
0.2010004,-0.001943399
0.2000004,-0.001925006
0.1990004,-0.001906613
0.1980004,-0.00188822
0.1970004,-0.001872893
0.1960004,-0.0018545
0.1950004,-0.001836107
0.1940004,-0.00182078
0.1930004,-0.001805453
0.1920004,-0.001790125
0.1910004,-0.001771732
0.1900004,-0.001756405
0.1890004,-0.001741077
0.1880004,-0.001728815
0.1870004,-0.001713488
0.1860004,-0.001698161
0.1850004,-0.001685899
0.1840004,-0.001670571
0.1830004,-0.001655244
0.1820004,-0.001642982
0.1810004,-0.00163072
0.1800004,-0.001618458
0.1790004,-0.001640022
0.1780004,-0.001628066
0.1770004,-0.001615804
0.1760004,-0.001603849
0.1750004,-0.001592507
0.1740004,-0.001580858
0.1730004,-0.001569209
0.1720004,-0.001558173
0.1710004,-0.001547138
0.1700004,-0.001536102
0.1690004,-0.001525373
0.1680004,-0.00151495
0.1670004,-0.001504527
0.1660004,-0.001494411
0.1650004,-0.001483989
0.1640004,-0.001474179
0.1630004,-0.001464676
0.1620004,-0.001454866
0.1610004,-0.001445364
0.1600004,-0.001436167
0.1590004,-0.001426664
0.1580004,-0.001417774
0.1570004,-0.001408884
0.1560004,-0.001399994
0.1550004,-0.001391104
0.1540004,-0.001382828
0.1530004,-0.001374244
0.1520004,-0.001365967
0.1510004,-0.001357997
0.1500004,-0.00134972
0.1490004,-0.001341444
0.1480004,-0.00133378
0.1470004,-0.00132581
0.1460004,-0.001317839
0.1450004,-0.001310482
0.1440004,-0.001302819
0.1430004,-0.001295155
0.1420004,-0.001287798
0.1410004,-0.001280747
0.1400004,-0.001273696
0.1390004,-0.001266646
0.1380004,-0.001259595
0.1370004,-0.001252851
0.1360004,-0.001245801
0.1350004,-0.001239057
0.1340004,-0.001232313
0.1330004,-0.001226181
0.1320004,-0.001219744
0.1310004,-0.001213
0.1300004,-0.001206869
0.1290004,-0.001200738
0.1280004,-0.001193994
0.1270004,-0.001188476
0.1260004,-0.001182038
0.1250004,-0.001176214
0.1240004,-0.001170696
0.1230004,-0.001164259
0.1220004,-0.001158741
0.1210004,-0.001153223
0.1200004,-0.001147092
0.1190004,-0.001141881
0.1180004,-0.001136056
0.1170004,-0.001130538
0.1160004,-0.001125634
0.1150004,-0.001119809
0.1140004,-0.001114598
0.1130004,-0.001109387
0.1120004,-0.001103562
0.1110004,-0.001098964
0.1100004,-0.001093446
0.1090004,-0.001088541
0.1080004,-0.001083637
0.1070004,-0.001078425
0.1060004,-0.001073827
0.1050004,-0.001069229
0.1040004,-0.001064324
0.1030004,-0.001059726
0.1020004,-0.001055128
0.1010004,-0.001050529
0.1000004,-0.001045931
0.09900038,-0.001041026
0.09800038,-0.001036735
0.09700038,-0.001032136
0.09600038,-0.001027538
0.09500038,-0.001023553
0.09400038,-0.001018955
0.09300038,-0.001014663
0.09200038,-0.001010678
0.09100038,-0.00100608
0.09000038,-0.001002095
0.08900038,-0.0009981095
0.08800038,-0.0009935113
0.08700038,-0.0009895262
0.08600038,-0.000985541
0.08500038,-0.0009812494
0.08400038,-0.0009775708
0.08300038,-0.0009732791
0.08200038,-0.0009696006
0.08100038,-0.0009656154
0.08000038,-0.0009616303
0.07900038,-0.0009579517
0.07800038,-0.0009542731
0.07700038,-0.0009499814
0.07600038,-0.0009466094
0.07500038,-0.0009429308
0.07400038,-0.0009392523
0.07300038,-0.0009355737
0.07200038,-0.0009315885
0.07100038,-0.0009285231
0.07000038,-0.0009248445
0.06900038,-0.0009211659
0.06800038,-0.0009177938
0.06700038,-0.0009141153
0.06600038,-0.0009110498
0.06500039,-0.0009076777
0.06400038,-0.0009039992
0.06300038,-0.0009009338
0.06200038,-0.0008972551
0.06100038,-0.0008938831
0.06000038,-0.0008908176
0.05900038,-0.000887139
0.05800038,-0.0008840736
0.05700038,-0.000881008
0.05600038,-0.0008776361
0.05500038,-0.0008745705
0.05400038,-0.0008711985
0.05300038,-0.000868133
0.05200038,-0.0008650676
0.05100038,-0.0008620021
0.05000038,-0.0008586301
0.04900038,-0.0008555645
0.04800038,-0.000852499
0.04700038,-0.0008494336
0.04600038,-0.0008463681
0.04500038,-0.0008433026
0.04400038,-0.0008405437
0.04300038,-0.0008374782
0.04200038,-0.0008347193
0.04100038,-0.0008316538
0.04000038,-0.0008285883
0.03900038,-0.0008258293
0.03800038,-0.0008227639
0.03700038,-0.0008196984
0.03600038,-0.0008169395
0.03500038,-0.0008141805
0.03400038,-0.0008111151
0.03300038,-0.0008080496
0.03200038,-0.0008052906
0.03100038,-0.0008025317
0.03000038,-0.0007994662
0.02900038,-0.0007964008
0.02800038,-0.0007933353
0.02700038,-0.0007905763
0.02600038,-0.0007875108
0.02500038,-0.0007847519
0.02400038,-0.000781993
0.02300038,-0.0007789275
0.02200038,-0.0007761685
0.02100038,-0.0007731031
0.02000038,-0.0007703441
0.01900038,-0.0007675852
0.01800038,-0.0007645197
0.01700038,-0.0007620673
0.01600038,-0.0007590018
0.01500038,-0.0007559364
0.01400038,-0.000753484
0.01300038,-0.000750725
0.01200038,-0.0007476595
0.01100038,-0.0007449006
0.01000038,-0.0007421417
0.009000381,-0.0007393828
0.008000381,-0.0007366238
0.007000382,-0.0007341714
0.006000381,-0.0007314125
0.005000381,-0.0007286536
0.004000382,-0.0007258946
0.003000381,-0.0007231357
0.002000381,-0.0007203768
0.001000381,-0.0007179244
3.814697E-07,-0.0007090345
0.0009996186,-0.0006934005
0.001999618,-0.0006792994
0.002999618,-0.0006664242
0.003999618,-0.0006538558
0.004999619,-0.0006422069
0.005999619,-0.0006308646
0.006999618,-0.0006201355
0.007999619,-0.0006097128
0.008999619,-0.0005999033
0.009999619,-0.0005904003
0.01099962,-0.0005812038
0.01199962,-0.0005723139
0.01299962,-0.0005637306
0.01399962,-0.0005551472
0.01499962,-0.000547177
0.01599962,-0.0005395133
0.01699962,-0.000531543
0.01799962,-0.0005241859
0.01899962,-0.0005171353
0.01999962,-0.0005097781
0.02099962,-0.000503034
0.02199962,-0.00049629
0.02299962,-0.0004895459
0.02399962,-0.0004831084
0.02499962,-0.0004769774
0.02599962,-0.0004708465
0.02699962,-0.0004650221
0.02799962,-0.0004591976
0.02899962,-0.0004533732
0.02999962,-0.0004475488
0.03099962,-0.0004423375
0.03199962,-0.0004368196
0.03299962,-0.0004316083
0.03399962,-0.000426397
0.03499962,-0.0004214922
0.03599962,-0.0004162809
0.03699962,-0.0004113761
0.03799962,-0.0004067779
0.03899962,-0.0004015666
0.03999962,-0.0003969684
0.04099962,-0.0003923701
0.04199962,-0.0003877719
0.04299962,-0.0003834802
0.04399962,-0.0003791885
0.04499962,-0.0003745903
0.04599962,-0.0003706052
0.04699962,-0.0003663135
0.04799962,-0.0003623284
0.04899962,-0.0003580367
0.04999962,-0.0003540516
0.05099962,-0.0003500664
0.05199962,-0.0003460813
0.05299962,-0.0003424028
0.05399962,-0.0003387242
0.05499962,-0.000334739
0.05599962,-0.000331367
0.05699962,-0.0003276884
0.05799962,-0.0003240099
0.05899962,-0.0003206378
0.05999962,-0.0003169593
0.06099962,-0.0003135872
0.06199962,-0.0003102152
0.06299962,-0.0003068431
0.06399962,-0.0003037777
0.06499962,-0.0003004056
0.06599962,-0.0002970336
0.06699962,-0.0002939681
0.06799962,-0.0002909026
0.06899962,-0.0002878372
0.06999962,-0.0002847717
0.07099961,-0.0002817062
0.07199962,-0.0002789472
0.07299962,-0.0002758818
0.07399962,-0.0002731228
0.07499962,-0.0002703639
0.07599962,-0.0002672984
0.07699962,-0.0002645395
0.07799962,-0.0002617805
0.07899962,-0.0002590216
0.07999962,-0.0002562627
0.08099962,-0.0002535038
0.08199961,-0.0002510514
0.08299962,-0.000248599
0.08399962,-0.00024584
0.08499962,-0.0002430811
0.08599962,-0.0002406287
0.08699962,-0.0002381763
0.08799962,-0.000235724
0.08899962,-0.0002332716
0.08999962,-0.0002308192
0.09099962,-0.0002283668
0.09199962,-0.0002259144
0.09299962,-0.0002237686
0.09399962,-0.0002213162
0.09499962,-0.0002188638
0.09599962,-0.0002167179
0.09699962,-0.0002145721
0.09799962,-0.0002121197
0.09899962,-0.0002099739
0.09999962,-0.0002078281
0.1009996,-0.0002056822
0.1019996,-0.0002035364
0.1029996,-0.0002013905
0.1039996,-0.0001995512
0.1049996,-0.0001974054
0.1059996,-0.000194953
0.1069996,-0.0001931137
0.1079996,-0.0001909679
0.1089996,-0.0001891286
0.1099996,-0.0001872893
0.1109996,-0.00018545
0.1119996,-0.0001836107
0.1129996,-0.0001814649
0.1139996,-0.0001796256
0.1149996,-0.0001777863
0.1159996,-0.0001756405
0.1169996,-0.0001738012
0.1179996,-0.0001722685
0.1189996,-0.0001704292
0.1199996,-0.0001685899
0.1209996,-0.0001667506
0.1219996,-0.0001649113
0.1229996,-0.0001633786
0.1239996,-0.0001615393
0.1249996,-0.0001600065
0.1259996,-0.0001615498
0.1269996,-0.0001599251
0.1279996,-0.000158331
0.1289996,-0.0001565837
0.1299996,-0.0001549283
0.1309996,-0.0001533343
0.1319996,-0.0001516789
0.1329996,-0.0001501768
0.1339996,-0.0001485828
0.1349996,-0.0001469887
0.1359996,-0.0001455173
0.1369996,-0.0001440152
0.1379996,-0.0001425131
0.1389996,-0.000141103
0.1399996,-0.0001396009
0.1409996,-0.0001381601
0.1419996,-0.0001367194
0.1429996,-0.0001352479
0.1439996,-0.0001337765
0.1449996,-0.0001323357
0.1459996,-0.0001309256
0.1469996,-0.0001294848
0.1479996,-0.0001281667
0.1489996,-0.0001268179
0.1499996,-0.0001254997
0.1509996,-0.0001241509
0.1519996,-0.000122894
0.1529996,-0.0001216065
0.1539996,-0.0001202884
0.1549996,-0.0001190009
0.1559996,-0.0001175907
0.1569996,-0.0001162726
0.1579996,-0.0001150464
0.1589996,-0.0001137282
0.1599996,-0.0001125634
0.1609996,-0.0001113372
0.1619996,-0.0001100803
0.1629996,-0.0001089767
0.1639996,-0.0001077812
0.1649996,-0.000106555
0.1659996,-0.0001052368
0.1669996,-0.000104072
0.1679996,-0.0001029684
0.1689996,-0.0001017729
0.1699996,-0.0001006693
0.1709996,-9.965767E-05
0.1719996,-9.849279E-05
0.1729996,-9.738921E-05
0.1739996,-9.616302E-05
0.1749996,-9.499813E-05
0.1759996,-9.398653E-05
0.1769996,-9.300557E-05
0.1779996,-9.187134E-05
0.1789996,-9.092104E-05
0.1799996,-8.984812E-05
0.1809996,-8.880586E-05
0.1819996,-8.761032E-05
0.1829996,-8.659872E-05
0.1839996,-8.561776E-05
0.1849996,-8.454484E-05
0.1859996,-8.365585E-05
0.1869996,-8.270555E-05
0.1879996,-8.163263E-05
0.1889996,-8.059036E-05
0.1899996,-7.954811E-05
0.1909996,-7.85365E-05
0.1919996,-7.761685E-05
0.1929996,-7.666655E-05
0.1939996,-7.571625E-05
0.1949996,-7.488857E-05
0.1959996,-7.393827E-05
0.1969996,-7.298797E-05
0.1979996,-7.200702E-05
0.1989996,-7.096475E-05
0.1999996,-7.007576E-05
0.2009996,-6.915612E-05
0.2019996,-6.826713E-05
0.2029996,-6.743945E-05
0.2039996,-6.65198E-05
0.2049996,-6.563082E-05
0.2059996,-6.477248E-05
0.2069996,-6.391414E-05
0.2079996,-6.29945E-05
0.2089996,-6.201354E-05
0.2099996,-6.112456E-05
0.2109996,-6.035818E-05
0.2119996,-5.946919E-05
0.2129996,-5.858021E-05
0.2139996,-5.781384E-05
0.2149996,-5.698615E-05
0.2159996,-5.615847E-05
0.2169996,-5.533079E-05
0.2179996,-5.441115E-05
0.2189996,-5.358347E-05
0.2199996,-5.266382E-05
0.2209996,-5.189745E-05
0.2219996,-5.106977E-05
0.2229996,-5.024209E-05
0.2239996,-4.953703E-05
0.2249996,-4.877066E-05
0.2259996,-4.785102E-05
0.2269996,-4.702334E-05
0.2279996,-4.6165E-05
0.2289996,-4.542928E-05
0.2299996,-4.466291E-05
0.2309996,-4.380458E-05
0.2319996,-4.309952E-05
0.2329996,-4.230249E-05
0.2339996,-4.147481E-05
0.2349996,-4.067778E-05
0.2359996,-3.97888E-05
0.2369996,-3.899177E-05
0.2379996,-3.828671E-05
0.2389996,-3.752034E-05
0.2399996,-3.675397E-05
0.2409996,-3.59876E-05
0.2419996,-3.515992E-05
0.2429996,-3.448551E-05
0.2439996,-3.362718E-05
0.2449996,-3.27995E-05
0.2459996,-3.194116E-05
0.2469996,-3.114414E-05
0.2479996,-3.040842E-05
0.2489996,-2.958074E-05
0.2499996,-2.878371E-05
0.2509996,-2.8048E-05
0.2519996,-2.725097E-05
0.2529996,-2.651526E-05
0.2539996,-2.568758E-05
0.2549996,-2.48599E-05
0.2559996,-2.412418E-05
0.2569996,-2.335781E-05
0.2579996,-2.249947E-05
0.2589996,-2.179441E-05
0.2599996,-2.102804E-05
0.2609996,-2.016971E-05
0.2619996,-1.934203E-05
0.2629996,-1.848369E-05
0.2639996,-1.768667E-05
0.2649996,-1.682833E-05
0.2659996,-1.597E-05
0.2669996,-1.514232E-05
0.2679996,-1.428398E-05
0.2689996,-1.34563E-05
0.2699996,-1.290863E-05
0.2709996,-1.210241E-05
0.2719996,-1.137589E-05
0.2729996,-1.055741E-05
0.2739996,-9.63776E-06
0.2749996,-8.718115E-06
0.2759996,-7.761685E-06
0.2769996,-6.909481E-06
0.2779996,-6.094063E-06
0.2789996,-5.131501E-06
0.2799996,-4.337541E-06
0.2809996,-3.50373E-06
0.2819996,-2.531972E-06
0.2829996,-1.547952E-06
0.2839996,-5.578011E-07
0.2849996,3.557127E-07
0.2859996,1.155804E-06
0.2869996,2.164348E-06
0.2879996,3.096254E-06
0.2889996,4.02203E-06
0.2899996,4.960068E-06
0.2909996,5.931825E-06
0.2919996,6.992482E-06
0.2929996,8.022485E-06
0.2939996,9.086207E-06
0.2949996,1.015606E-05
0.2959996,1.118606E-05
0.2969996,1.214556E-05
0.2979996,1.3243E-05
0.2989996,1.426381E-05
0.2999996,1.534899E-05
0.3009996,1.639738E-05
0.3019996,1.753774E-05
0.3029996,1.869036E-05
0.3039996,1.98062E-05
0.3049996,2.103852E-05
0.3059996,2.227698E-05
0.3069996,2.346025E-05
0.3079996,2.467725E-05
0.3089996,2.591264E-05
0.3099996,2.70622E-05
0.3109996,2.875539E-05
0.3119996,2.988962E-05
0.3129996,3.120778E-05
0.3139996,3.255659E-05
0.3149996,3.396671E-05
0.3159996,3.543814E-05
0.3169996,3.681761E-05
0.3179996,3.816642E-05
0.3189996,3.969917E-05
0.3199996,4.11706E-05
0.3209996,4.264203E-05
0.3219996,4.423608E-05
0.3229996,4.576882E-05
0.3239996,4.751615E-05
0.3249996,4.929413E-05
0.3259996,5.094949E-05
0.3269996,5.275812E-05
0.3279996,5.45361E-05
0.3289996,5.646735E-05
0.3299996,5.836795E-05
0.3309996,6.039118E-05
0.3319996,6.259832E-05
0.3329996,6.483612E-05
0.3339996,6.713524E-05
0.3349996,6.958762E-05
0.3359996,7.207066E-05
0.3369996,7.470698E-05
0.3379996,7.749657E-05
0.3389996,8.040878E-05
0.3399996,8.368884E-05
0.3409996,8.721415E-05
0.3419996,9.095403E-05
0.3429996,9.509244E-05
0.3439996,9.966001E-05
0.3449996,0.0001048407
0.3459996,0.0001108184
0.3469996,0.0001177157
0.3479996,0.0001260232
0.3489996,0.0001360166
0.3499996,0.0001483092
0.3509996,0.0001635753
0.3519996,0.000182612
0.3529996,0.0002069826
0.3539996,0.0002378826
0.3549996,0.0002779485
0.3559996,0.0003302456
0.3569996,0.0004012834
0.3579996,0.0004901824
0.3589996,0.0006060576
0.3599996,0.0007528943
0.3609996,0.0009359035
0.3619996,0.001153246
0.3629996,0.001404003
0.3639996,0.001681429
0.3649996,0.001976328
0.3659996,0.002283183
0.3669996,0.002592797
0.3679996,0.002899959
0.3689996,0.003231135
0.3699996,0.003525421
0.3709996,0.003813577
0.3719996,0.004098667
0.3729996,0.004371495
0.3739996,0.004644323
0.3749996,0.004914085
0.3759996,0.005174651
0.3769996,0.005441349
0.3779996,0.00570498
0.3789996,0.00596248
0.3799996,0.006229177
0.3809996,0.006483613
0.3819996,0.006741113
0.3829996,0.006998613
0.3839996,0.007243852
0.3849996,0.007495221
0.3859996,0.007737394
0.3869996,0.007976502
0.3879996,0.008212545
0.3889996,0.008436324
0.3899996,0.00866317
0.3909996,0.00888695
0.3919996,0.009095403
0.3929996,0.009309988
0.3939996,0.009509244
0.3949996,0.009699304
0.3959996,0.009895494
0.3969996,0.01007329
0.3979996,0.01024802
0.3989996,0.01041663
0.3999996,0.01056683
0.4009996,0.01072317
0.4019996,0.01086112
0.4029996,0.01098681
0.4039996,0.01111862
0.4049996,0.01122591
0.4059996,0.01132707
0.4069996,0.0114313
0.4079996,0.01150794
0.4089996,0.01159684
0.4099996,0.01167654
0.4109996,0.01173478
0.4119996,0.01179916
0.4129996,0.01184208
0.4139996,0.01188193
0.4149996,0.01192484
0.4159996,0.01194937
0.4169996,0.01197696
0.4179996,0.01200148
0.4189996,0.01201374
0.4199996,0.0120352
0.4209996,0.0120444
0.4219996,0.01205666
0.4229996,0.01207812
0.4239996,0.01208731
0.4249996,0.01210877
0.4259996,0.01213023
0.4269996,0.01214249
0.4279996,0.01217621
0.4289996,0.0122038
0.4299996,0.01222833
0.4309996,0.01226511
0.4319996,0.01230496
0.4329996,0.01234481
0.4339996,0.0123908
0.4349996,0.01244291
0.4359996,0.01249502
0.4369996,0.01255633
0.4379996,0.01262071
0.4389996,0.01268815
0.4399996,0.01275865
0.4409996,0.01283836
0.4419996,0.01292113
0.4429996,0.01300696
0.4439996,0.01309892
0.4449996,0.01319395
0.4459996,0.01329511
0.4469996,0.01339934
0.4479996,0.01351276
0.4489996,0.01362925
0.4499996,0.01374574
0.4509996,0.01387142
0.4519996,0.01400017
0.4529996,0.01412893
0.4539996,0.014273
0.4549996,0.01441401
0.4559996,0.01455503
0.4569996,0.01471443
0.4579996,0.01486158
0.4589996,0.01502711
0.4599996,0.01519265
0.4609996,0.01535818
0.4619996,0.01554211
0.4629996,0.01571991
0.4639996,0.01589771
0.4649996,0.01610003
0.4659996,0.01628089
0.4669996,0.01648628
0.4679996,0.01670086
0.4689996,0.01689399
0.4699996,0.01711777
0.4709996,0.01733542
0.4719996,0.01754081
0.4729996,0.01778605
0.4739996,0.01800676
0.4749996,0.01824587
0.4759996,0.0185003
0.4769996,0.01872715
0.4779996,0.01899078
0.4789996,0.01925135
0.4799996,0.01949965
0.4809996,0.01978168
0.4819996,0.02004837
0.4829996,0.02032427
0.4839996,0.02062162
0.4849996,0.02089138
0.4859996,0.02118567
0.4869996,0.02148608
0.4879996,0.02177731
0.4889996,0.02209305
0.4899996,0.02239653
0.4909996,0.02270615
0.4919996,0.02303415
0.4929996,0.02334683
0.4939996,0.02367484
0.4949996,0.02401511
0.4959996,0.02433698
0.4969996,0.02468032
0.4979996,0.02502672
0.4989996,0.02536392
0.4999996,0.02571645
0.5009996,0.02607511
0.5019996,0.02642151
0.5029996,0.02678937
0.5039996,0.02714496
0.5049996,0.02750056
0.5059996,0.02789294
0.5069996,0.02824854
0.5079996,0.02862253
0.5089996,0.02902104
0.5099996,0.02937664
0.5109996,0.02976595
0.5119996,0.0301706
0.5129996,0.03129975
0.5139996,0.0316676
0.5149996,0.03206612
0.5159996,0.03246463
0.5169996,0.03286314
0.5179996,0.03326165
0.5189996,0.03366017
0.5199996,0.03408933
0.5209996,0.03445719
0.5219996,0.03488636
0.5229996,0.03528487
0.5239996,0.03568339
0.5249996,0.03614321
0.5259996,0.03654172
0.5269996,0.03694023
0.5279996,0.03740006
0.5289996,0.03776791
0.5299996,0.03822774
0.5309996,0.0386569
0.5319996,0.03905542
0.5329996,0.03948459
0.5339996,0.03991375
0.5349996,0.04031226
0.5359996,0.04074143
0.5369996,0.0411706
0.5379996,0.04159977
0.5389996,0.04202893
0.5399996,0.0424581
0.5409996,0.04291793
0.5419996,0.04331644
0.5429996,0.04377626
0.5439996,0.04420543
0.5449996,0.0446346
0.5459996,0.04506376
0.5469996,0.04552358
0.5479996,0.04595275
0.5489996,0.04638192
0.5499996,0.04684174
0.5509996,0.04727091
0.5519996,0.04773073
0.5529996,0.0481599
0.5539996,0.04858907
0.5549996,0.04904889
0.5559996,0.04947806
0.5569996,0.04990723
0.5579996,0.05036705
0.5589996,0.05082687
0.5599996,0.05125604
0.5609996,0.05171586
0.5619996,0.05214503
0.5629996,0.05257419
0.5639996,0.05306467
0.5649996,0.05349384
0.5659996,0.05395366
0.5669996,0.05441349
0.5679996,0.05484265
0.5689996,0.05530247
0.5699996,0.0557623
0.5709996,0.05619146
0.5719996,0.05668194
0.5729996,0.05711111
0.5739996,0.05760158
0.5749996,0.05806141
0.5759996,0.05845992
0.5769996,0.0589504
0.5779996,0.05941022
0.5789996,0.05980873
0.5799996,0.06032987
0.5809996,0.06075903
0.5819996,0.06121886
0.5829996,0.06167868
0.5839996,0.0621385
0.5849996,0.06259833
0.5859996,0.06305815
0.5869996,0.06351797
0.5879996,0.06400844
0.5889996,0.06443761
0.5899996,0.06489744
0.5909996,0.06538791
0.5919996,0.06581708
0.5929996,0.0662769
0.5939996,0.06676738
0.5949996,0.06719655
0.5959996,0.06765637
0.5969996,0.06814685
0.5979996,0.06860667
0.5989996,0.06906649
0.5999996,0.06955697
0.6009996,0.07001679
0.6019996,0.07044595
0.6029996,0.07093643
0.6039996,0.07139625
0.6049996,0.07185608
0.6059996,0.07234656
0.6069996,0.07280638
0.6079996,0.0732662
0.6089996,0.07372602
0.6099996,0.07421651
0.6109996,0.07467633
0.6119996,0.07513615
0.6129996,0.07562663
0.6139996,0.07608645
0.6149996,0.07651561
0.6159996,0.07703675
0.6169996,0.07749657
0.6179996,0.07795639
0.6189996,0.07847752
0.6199996,0.07890669
0.6209996,0.07936651
0.6219996,0.07988765
0.6229996,0.08031681
0.6239996,0.08080729
0.6249996,0.08129777
0.6259996,0.08169628
0.6269996,0.08221742
0.6279996,0.08267724
0.6289996,0.0831064
0.6299996,0.08362754
0.6309996,0.0840567
0.6319996,0.08454718
0.6329996,0.08503766
0.6339996,0.08546682
0.6349996,0.08598796
0.6359996,0.08647843
0.6369996,0.0869076
0.6379996,0.08742873
0.6389996,0.08785789
0.6399996,0.08834838
0.6409996,0.0888695
0.6419996,0.08929868
0.6429996,0.08981981
0.6439996,0.09027963
0.6449996,0.0907088
0.6459996,0.09122993
0.6469996,0.09168976
0.6479996,0.09211892
0.6489996,0.09264006
0.6499996,0.09309988
0.6509996,0.09359035
0.6519996,0.09408083
0.6529996,0.09454065
0.6539996,0.09503113
0.6549996,0.09552161
0.6559996,0.09595077
0.6569996,0.09644125
0.6579996,0.09693173
0.6589996,0.09733024
0.6599996,0.09785137
0.6609996,0.09840316
0.6619996,0.09880167
0.6629996,0.0993228
0.6639996,0.09978263
0.6649996,0.1002425
0.6659996,0.1007329
0.6669996,0.101254
0.6679996,0.1016832
0.6689996,0.1022043
0.6699996,0.1027561
0.6709996,0.103216
0.6719996,0.1036758
0.6729996,0.1041356
0.6739996,0.1046261
0.6749996,0.1051166
0.6759996,0.105607
0.6769996,0.1060975
0.6779996,0.106588
0.6789996,0.1070478
0.6799996,0.1075996
0.6809996,0.1080288
0.6819996,0.1084886
0.6829996,0.1090097
0.6839996,0.1094389
0.6849996,0.1099294
0.6859996,0.1104198
0.6869996,0.1109103
0.6879996,0.1114315
0.6889996,0.1118606
0.6899996,0.1123818
0.6909996,0.1128722
0.6919996,0.1133014
0.6929996,0.1138225
0.6939996,0.1143437
0.6949996,0.1147728
0.6959996,0.115294
0.6969996,0.1157538
0.6979996,0.1162443
0.6989996,0.1167041
0.6999996,0.1168267
0.6990005,0.1163975
0.6980005,0.1158458
0.6970005,0.1153246
0.6960005,0.1149261
0.6950005,0.1143743
0.6940005,0.1138838
0.6930005,0.1134547
0.6920004,0.1129029
0.6910005,0.1124431
0.6900005,0.1119526
0.6890005,0.1114315
0.6880005,0.110941
0.6870005,0.1104505
0.6860005,0.10996
0.6850005,0.1094695
0.6840005,0.1089484
0.6830005,0.1084886
0.6820005,0.1079675
0.6810005,0.107477
0.6800005,0.1070478
0.6790005,0.1065267
0.6780005,0.1060362
0.6770005,0.1055764
0.6760005,0.1050246
0.6750005,0.1045954
0.6740005,0.1040743
0.6730005,0.1035532
0.6720005,0.103124
0.6710005,0.1026029
0.6700005,0.1020817
0.6690005,0.1015913
0.6680005,0.1011008
0.6670005,0.1006103
0.6660005,0.1000892
0.6650005,0.09962936
0.6640005,0.09920018
0.6630005,0.0986484
0.6620005,0.09818857
0.6610005,0.09772875
0.6600005,0.09717696
0.6590005,0.09671714
0.6580005,0.09625732
0.6570005,0.09570553
0.6560005,0.09524571
0.6550004,0.09478589
0.6540005,0.09429541
0.6530005,0.09380494
0.6520005,0.09331446
0.6510005,0.09279333
0.6500005,0.09236415
0.6490005,0.09184303
0.6480005,0.0913832
0.6470005,0.09092338
0.6460005,0.09040225
0.6450005,0.08994243
0.6440005,0.08945195
0.6430005,0.08896147
0.6420005,0.08850165
0.6410004,0.08798052
0.6400005,0.0875207
0.6390005,0.08703022
0.6380005,0.08653974
0.6370005,0.08607992
0.6360005,0.08555879
0.6350005,0.08506831
0.6340005,0.08460849
0.6330005,0.08408736
0.6320005,0.08365819
0.6310005,0.08316771
0.6300005,0.08267724
0.6290005,0.08221742
0.6280005,0.08172693
0.6270005,0.08126711
0.6260005,0.08080729
0.6250005,0.08028616
0.6240005,0.07982634
0.6230005,0.07933586
0.6220005,0.07884538
0.6210005,0.07838555
0.6200005,0.07789508
0.6190005,0.07743526
0.6180004,0.07694478
0.6170005,0.0764543
0.6160005,0.07599448
0.6150005,0.075504
0.6140005,0.07501353
0.6130005,0.07455371
0.6120005,0.07406323
0.6110005,0.07360341
0.6100005,0.07311293
0.6090005,0.07265311
0.6080005,0.07216263
0.6070005,0.07170281
0.6060005,0.07121233
0.6050005,0.07072186
0.6040004,0.07029268
0.6030005,0.06980221
0.6020005,0.06931173
0.6010005,0.06885191
0.6000005,0.06836143
0.5990005,0.0679016
0.5980005,0.06744178
0.5970005,0.0669513
0.5960005,0.06649148
0.5950005,0.06603166
0.5940005,0.06557184
0.5930005,0.06511202
0.5920005,0.0646522
0.5910005,0.06416172
0.5900005,0.06367125
0.5890005,0.06324207
0.5880005,0.06278225
0.5870005,0.06229177
0.5860005,0.0618013
0.5850005,0.06137213
0.5840005,0.06088165
0.5830005,0.06042183
0.5820005,0.059962
0.5810004,0.05947153
0.5800005,0.05901171
0.5790005,0.05855189
0.5780005,0.05809207
0.5770005,0.05763224
0.5760005,0.05717242
0.5750005,0.05668194
0.5740005,0.05625277
0.5730005,0.05579295
0.5720005,0.05530247
0.5710005,0.05487331
0.5700005,0.05438283
0.5690005,0.05392301
0.5680005,0.05346319
0.5670004,0.05300336
0.5660005,0.05257419
0.5650005,0.05208372
0.5640005,0.05162389
0.5630005,0.05119473
0.5620005,0.05073491
0.5610005,0.05027508
0.5600005,0.04984592
0.5590005,0.04935544
0.5580005,0.04892627
0.5570005,0.04846645
0.5560005,0.04800662
0.5550005,0.04757746
0.5540005,0.04711764
0.5530005,0.04665781
0.5520005,0.04619799
0.5510005,0.04573817
0.5500005,0.04527835
0.5490005,0.04484918
0.5480005,0.04438936
0.5470005,0.04392953
0.5460005,0.04350037
0.5450005,0.04304054
0.5440005,0.04261138
0.5430005,0.04215155
0.5420005,0.04172239
0.5410005,0.04126256
0.5400005,0.04083339
0.5390005,0.04040423
0.5380005,0.03994441
0.5370005,0.03948459
0.5360005,0.03908607
0.5350005,0.03862625
0.5340005,0.03816643
0.5330005,0.03776791
0.5320005,0.03730809
0.5310005,0.03687892
0.5300004,0.0364191
0.5290005,0.03598994
0.5280005,0.03556077
0.5270005,0.0351316
0.5260005,0.03470243
0.5250005,0.03427326
0.5240005,0.03384409
0.5230005,0.03341493
0.5220005,0.03298576
0.5210005,0.03255659
0.5200005,0.03212743
0.5190005,0.03172891
0.5180005,0.03126909
0.5170005,0.03087058
0.5160004,0.03044141
0.5150005,0.03001224
0.5140005,0.02958308
0.5130005,0.02915391
0.5120005,0.02872474
0.5110005,0.02832623
0.5100005,0.02792772
0.5090005,0.02749855
0.5080005,0.02706938
0.5070005,0.02667087
0.5060005,0.02627235
0.5050005,0.02584319
0.5040005,0.02544468
0.5030005,0.02504616
0.5020005,0.02461699
0.5010005,0.02421848
0.5000005,0.02381997
0.4990005,0.0233908
0.4980005,0.02302294
0.4970005,0.02262443
0.4960005,0.02219526
0.4950005,0.02182741
0.4940005,0.02142889
0.4930005,0.02103038
0.4920005,0.02063187
0.4910005,0.02026401
0.4900005,0.0198655
0.4890005,0.01946698
0.4880005,0.01909912
0.4870005,0.01870061
0.4860005,0.01836341
0.4850005,0.0179649
0.4840005,0.01759704
0.4830005,0.01722918
0.4820005,0.01683067
0.4810005,0.01649346
0.4800005,0.01612561
0.4790005,0.01575775
0.4780005,0.01538989
0.4770005,0.01502203
0.4760005,0.01465417
0.4750005,0.01431697
0.4740005,0.01394911
0.4730005,0.01361191
0.4720005,0.01324405
0.4710005,0.01242145
0.4700005,0.01209038
0.4690005,0.01175624
0.4680005,0.01141904
0.4670005,0.0110941
0.4660005,0.01076302
0.4650005,0.01043808
0.4640005,0.0101254
0.4630005,0.009800464
0.4620005,0.009484719
0.4610005,0.009175106
0.4600005,0.008859362
0.4590005,0.008558944
0.4580005,0.008255461
0.4570005,0.007958109
0.4560005,0.007666889
0.4550005,0.007372602
0.4540005,0.007084447
0.4530005,0.006802422
0.4520005,0.006520398
0.4510005,0.006244505
0.4500005,0.005971677
0.4490005,0.00570498
0.4480005,0.005438283
0.4470005,0.005177717
0.4460005,0.004926347
0.4450005,0.004674978
0.4440005,0.004426674
0.4430005,0.004187566
0.4420005,0.003945393
0.4410005,0.003709351
0.4400005,0.003482505
0.4390005,0.003255659
0.4380005,0.003034944
0.4370005,0.002820361
0.4360005,0.002605777
0.4350005,0.002403455
0.4340005,0.002198068
0.4330005,0.002001877
0.4320005,0.001811817
0.4310005,0.001618691
0.4300005,0.001437828
0.4290005,0.001256965
0.4280005,0.001047487
0.4270005,0.0008816445
0.4260005,0.0007118168
0.4250005,0.0005490396
0.4240005,0.0003942328
0.4230005,0.0002351342
0.4220005,8.52321E-05
0.4210005,-5.88456E-05
0.4200005,-0.0002082064
0.4190005,-0.0003433942
0.4180005,-0.000480656
0.4170005,-0.0006127784
0.4160005,-0.0007412221
0.4150005,-0.0008687461
0.4140005,-0.0009895262
0.4130005,-0.001111226
0.4120005,-0.00123078
0.4110005,-0.001343283
0.4100005,-0.001466209
0.4090005,-0.001583923
0.4080005,-0.001688763
0.4070005,-0.001800346
0.4060005,-0.001903653
0.4050005,-0.002009412
0.4040005,-0.002117317
0.4030005,-0.002219398
0.4020005,-0.002324544
0.4010005,-0.002429996
0.4000005,-0.00253269
0.3990005,-0.002640289
0.3980005,-0.002742676
0.3970005,-0.002852113
0.3960005,-0.002961858
0.3950005,-0.003066391
0.3940005,-0.003145068
0.3930005,-0.003255426
0.3920005,-0.003365783
0.3910005,-0.003488402
0.3900005,-0.003604891
0.3890005,-0.003724444
0.3880005,-0.003853195
0.3870005,-0.00397888
0.3860005,-0.004113761
0.3850005,-0.004251707
0.3840005,-0.004383523
0.3830005,-0.004530666
0.3820005,-0.004674744
0.3810005,-0.004824953
0.3800005,-0.004981292
0.3790005,-0.005134566
0.3780005,-0.005300103
0.3770005,-0.005465638
0.3760005,-0.005631175
0.3750005,-0.005808973
0.3740005,-0.005977574
0.3730005,-0.006152307
0.3720005,-0.006339301
0.3710005,-0.006517099
0.3700005,-0.006704094
0.3690005,-0.006891088
0.3680005,-0.007071951
0.3670005,-0.007265077
0.3660005,-0.007455137
0.3650005,-0.007639066
0.3640005,-0.007835257
0.3630005,-0.008019186
0.3620005,-0.00820618
0.3610005,-0.008393174
0.3600005,-0.008577104
0.3590005,-0.008764098
0.3580005,-0.008944961
0.3570005,-0.009119694
0.3560005,-0.009297492
0.3550005,-0.009472225
0.3540005,-0.00963776
0.3530005,-0.009806362
0.3520005,-0.009971898
0.3510005,-0.01013437
0.3500005,-0.01029071
0.3490005,-0.01044705
0.3480005,-0.01060339
0.3470005,-0.0107444
0.3460005,-0.01089154
0.3450005,-0.01104788
0.3440005,-0.01118276
0.3430005,-0.01132684
0.3420005,-0.01147092
0.3410005,-0.01159967
0.3400005,-0.01174681
0.3390005,-0.01187556
0.3380005,-0.01200431
0.3370005,-0.01214226
0.3360005,-0.01226181
0.3350005,-0.0123875
0.3340005,-0.01251931
0.3330005,-0.01262661
0.3320005,-0.01274616
0.3310005,-0.01285958
0.3300005,-0.01295461
0.3290005,-0.01306497
0.3280005,-0.01315693
0.3270005,-0.01324583
0.3260005,-0.01333473
0.3250005,-0.01340524
0.3240005,-0.01347575
0.3230005,-0.01354012
0.3220005,-0.01358917
0.3210005,-0.01364128
0.3200005,-0.013675
0.3190005,-0.01370566
0.3180005,-0.01373325
0.3170005,-0.01373631
0.3160005,-0.01374244
0.3150005,-0.01374551
0.3140005,-0.01372405
0.3130005,-0.01370872
0.3120005,-0.0136842
0.3110005,-0.01363822
0.3100005,-0.01360143
0.3090005,-0.01354932
0.3080005,-0.01348801
0.3070005,-0.01343589
0.3060005,-0.01335926
0.3050005,-0.01328569
0.3040005,-0.01320598
0.3030005,-0.01311708
0.3020005,-0.01303125
0.3010005,-0.01293009
0.3000005,-0.01282893
0.2990005,-0.01273083
0.2980005,-0.01261128
0.2970005,-0.01250399
0.2960005,-0.01239056
0.2950005,-0.01225875
0.2940005,-0.01214226
0.2930005,-0.01201044
0.2920005,-0.01186943
0.2910005,-0.01173455
0.2900005,-0.01158741
0.2890005,-0.0114372
0.2880005,-0.01128699
0.2870005,-0.01112145
0.2860005,-0.01095898
0.2850005,-0.01078425
0.2840005,-0.01060032
0.2830005,-0.01042252
0.2820005,-0.01021714
0.2810005,-0.01000255
0.2800005,-0.009797165
0.2790005,-0.009558057
0.2780005,-0.00931895
0.2770005,-0.009070646
0.2760005,-0.008794753
0.2750005,-0.00852499
0.2740005,-0.008239901
0.2730005,-0.007942548
0.2720005,-0.007657459
0.2710005,-0.007369304
0.2700005,-0.00709341
0.2690005,-0.006832844
0.2680005,-0.006578409
0.2670005,-0.006345432
0.2660005,-0.006124718
0.2650005,-0.005916264
0.2640005,-0.00572927
0.2630005,-0.005548407
0.2620005,-0.005385936
0.2610005,-0.005232662
0.2600005,-0.005076322
0.2590005,-0.004947572
0.2580005,-0.004818822
0.2570005,-0.004693137
0.2560005,-0.004585845
0.2550005,-0.004475488
0.2540005,-0.004374327
0.2530005,-0.004279297
0.2520005,-0.004184267
0.2510005,-0.004095368
0.2500005,-0.004009534
0.2490005,-0.003926767
0.2480005,-0.003850129
0.2470005,-0.003773492
0.2460005,-0.003696855
0.2450005,-0.003629415
0.2440005,-0.003558908
0.2430005,-0.003491468
0.2420005,-0.003430158
0.2410005,-0.003368848
0.2400005,-0.003307539
0.2390005,-0.003246229
0.2380005,-0.003187985
0.2370005,-0.003135872
0.2360005,-0.003080693
0.2350005,-0.00302858
0.2340005,-0.002979532
0.2330005,-0.002927419
0.2320005,-0.002881437
0.2310005,-0.002835455
0.2300005,-0.002792538
0.2290005,-0.002749621
0.2280005,-0.00270977
0.2270005,-0.002669919
0.2260005,-0.002633133
0.2250005,-0.002596347
0.2240005,-0.002559561
0.2230005,-0.002525841
0.2220005,-0.002489055
0.2210005,-0.0024584
0.2200005,-0.002427745
0.2190005,-0.002394025
0.2180005,-0.00236337
0.2170005,-0.002335781
0.2160005,-0.002308191
0.2150005,-0.002280602
0.2140005,-0.002253013
0.2130005,-0.002225423
0.2120005,-0.0022009
0.2110005,-0.002176376
0.2100005,-0.002151852
0.2090005,-0.002127328
0.2080005,-0.00210587
0.2070005,-0.002084411
0.2060005,-0.002059887
0.2050005,-0.002038429
0.2040005,-0.002020036
0.2030005,-0.001998578
0.2020005,-0.00197712
0.2010005,-0.001958727
0.2000005,-0.001940334
0.1990005,-0.001921941
0.1980005,-0.001903548
0.1970005,-0.001885155
0.1960005,-0.001869828
0.1950005,-0.001851435
0.1940005,-0.001833042
0.1930005,-0.001817714
0.1920005,-0.001802387
0.1910005,-0.00178706
0.1900005,-0.001771732
0.1890005,-0.001756405
0.1880005,-0.001741077
0.1870005,-0.00172575
0.1860005,-0.001710422
0.1850005,-0.001698161
0.1840005,-0.001682833
0.1830005,-0.001670571
0.1820005,-0.001655244
0.1810005,-0.001642982
0.1800005,-0.00163072
0.1790005,-0.001618458
0.1780005,-0.001640635
0.1770005,-0.001628679
0.1760005,-0.001616417
0.1750005,-0.001604769
0.1740005,-0.00159312
0.1730005,-0.001581778
0.1720005,-0.001570435
0.1710005,-0.001559399
0.1700005,-0.00154867
0.1690005,-0.001537941
0.1680005,-0.001527518
0.1670005,-0.001517096
0.1660005,-0.001507286
0.1650005,-0.001496864
0.1640005,-0.001487054
0.1630005,-0.001477858
0.1620005,-0.001467742
0.1610005,-0.001458852
0.1600005,-0.001449042
0.1590005,-0.001439846
0.1580005,-0.001430956
0.1570005,-0.001421759
0.1560005,-0.001413176
0.1550005,-0.001404593
0.1540005,-0.001396009
0.1530005,-0.001387426
0.1520005,-0.001379456
0.1510005,-0.001371485
0.1500005,-0.001363209
0.1490005,-0.001354932
0.1480005,-0.001347268
0.1470005,-0.001339298
0.1460005,-0.001331327
0.1450005,-0.001324277
0.1440005,-0.001316307
0.1430005,-0.00130895
0.1420005,-0.001301899
0.1410005,-0.001294542
0.1400005,-0.001287491
0.1390005,-0.00128044
0.1380005,-0.00127339
0.1370005,-0.001266339
0.1360005,-0.001259595
0.1350005,-0.001252851
0.1340005,-0.00124672
0.1330005,-0.001239976
0.1320005,-0.001233539
0.1310005,-0.001227408
0.1300005,-0.00122097
0.1290005,-0.001214533
0.1280005,-0.001208402
0.1270005,-0.001202577
0.1260005,-0.001196446
0.1250005,-0.001190622
0.1240005,-0.001184491
0.1230005,-0.001178666
0.1220005,-0.001173149
0.1210005,-0.001167018
0.1200005,-0.001161806
0.1190005,-0.001156288
0.1180005,-0.001150464
0.1170005,-0.001144946
0.1160005,-0.001139735
0.1150005,-0.001134217
0.1140005,-0.001129312
0.1130005,-0.001124101
0.1120005,-0.001118583
0.1110005,-0.001113678
0.1100005,-0.001108467
0.1090005,-0.001103869
0.1080005,-0.001098657
0.1070005,-0.001093753
0.1060005,-0.001089154
0.1050005,-0.001083943
0.1040005,-0.001079345
0.1030005,-0.001075053
0.1020005,-0.001070148
0.1010005,-0.001065857
0.1000005,-0.001061258
0.09900048,-0.001056354
0.09800047,-0.001052062
0.09700048,-0.001047464
0.09600048,-0.001042866
0.09500048,-0.001038881
0.09400047,-0.001034282
0.09300048,-0.001030297
0.09200048,-0.001025699
0.09100047,-0.001021407
0.09000048,-0.001017729
0.08900048,-0.001013131
0.08800048,-0.001009145
0.08700047,-0.00100516
0.08600048,-0.001000562
0.08500048,-0.0009968834
0.08400048,-0.0009928982
0.08300047,-0.000988913
0.08200048,-0.000984928
0.08100048,-0.0009812494
0.08000048,-0.0009772643
0.07900048,-0.0009735856
0.07800048,-0.0009696006
0.07700048,-0.0009659219
0.07600047,-0.0009622434
0.07500048,-0.0009582583
0.07400048,-0.0009548862
0.07300048,-0.0009509011
0.07200047,-0.0009472225
0.07100048,-0.000944157
0.07000048,-0.0009401719
0.06900048,-0.0009367999
0.06800048,-0.0009334278
0.06700048,-0.0009297492
0.06600048,-0.0009263772
0.06500047,-0.0009230052
0.06400048,-0.0009193266
0.06300048,-0.0009159546
0.06200048,-0.000912276
0.06100048,-0.0009092105
0.06000048,-0.0009058384
0.05900048,-0.0009024665
0.05800048,-0.000899401
0.05700048,-0.0008957224
0.05600048,-0.0008926569
0.05500048,-0.0008892849
0.05400048,-0.0008859128
0.05300048,-0.0008828474
0.05200048,-0.0008794753
0.05100048,-0.0008764099
0.05000048,-0.0008730378
0.04900048,-0.0008699723
0.04800048,-0.0008666003
0.04700048,-0.0008635348
0.04600048,-0.0008598563
0.04500048,-0.0008567907
0.04400048,-0.0008537253
0.04300048,-0.0008503532
0.04200048,-0.0008472878
0.04100048,-0.0008439157
0.04000048,-0.0008405437
0.03900048,-0.0008374782
0.03800048,-0.0008337997
0.03700048,-0.0008307341
0.03600048,-0.0008276686
0.03500048,-0.0008242966
0.03400048,-0.0008212312
0.03300048,-0.0008178591
0.03200048,-0.0008144871
0.03100048,-0.0008114216
0.03000048,-0.0008080496
0.02900048,-0.0008049841
0.02800048,-0.0008019186
0.02700048,-0.0007988531
0.02600048,-0.0007960942
0.02500048,-0.0007930287
0.02400048,-0.0007896567
0.02300048,-0.0007868978
0.02200048,-0.0007838323
0.02100048,-0.0007807668
0.02000048,-0.0007777013
0.01900048,-0.0007746358
0.01800048,-0.0007718769
0.01700048,-0.0007691179
0.01600048,-0.0007660525
0.01500048,-0.0007632935
0.01400048,-0.0007602281
0.01300048,-0.0007574691
0.01200048,-0.0007547102
0.01100048,-0.0007516447
0.01000048,-0.0007488858
0.009000476,-0.0007461268
0.008000477,-0.0007433679
0.007000477,-0.000740609
0.006000477,-0.00073785
0.005000477,-0.000735091
0.004000477,-0.0007326387
0.003000477,-0.0007295733
0.002000477,-0.0007268143
0.001000477,-0.0007240553
