EXPID. 0133
[电化学]: i-t : @ 0(V) X 600(sec)
起始电位 (V),0
静置时间 (秒),0
运行时间 (秒),600
记录间隔,0.1
电解液 信息:
HNO3,0.4
0.1,-0.0005319057
0.2,-0.0005064422
0.3,-0.0004887329
0.4,-0.0004753971
0.5,-0.0004650437
0.6,-0.000456797
0.7,-0.0004495513
0.8000001,-0.0004435986
0.9000001,-0.0004385387
1,-0.0004337612
1.1,-0.0004296986
1.2,-0.0004260466
1.3,-0.0004224972
1.4,-0.0004193876
1.5,-0.0004163289
1.6,-0.0004134387
1.7,-0.0004108734
1.8,-0.0004084306
1.9,-0.0004058398
2,-0.0004033528
2.1,-0.0004012433
2.2,-0.0003992082
2.3,-0.0003968887
2.4,-0.0003950542
2.5,-0.0003933375
2.6,-0.0003914822
2.7,-0.000389902
2.799999,-0.000388238
2.899999,-0.0003865099
2.999999,-0.0003847912
3.099999,-0.0003831837
3.199999,-0.0003816289
3.299999,-0.0003799818
3.399999,-0.0003785815
3.499999,-0.0003769833
3.599999,-0.0003755472
3.699999,-0.0003741968
3.799999,-0.0003727088
3.899998,-0.0003712755
3.999998,-0.000369909
4.099998,-0.000368616
4.199998,-0.0003672873
4.299998,-0.0003659085
4.399998,-0.0003648237
4.499998,-0.0003634318
4.599998,-0.0003621576
4.699998,-0.0003608976
4.799998,-0.0003596573
4.899998,-0.000358499
4.999998,-0.000357271
5.099998,-0.0003560665
5.199997,-0.0003548018
5.299997,-0.0003536736
5.399997,-0.0003525021
5.499997,-0.0003514172
5.599997,-0.000350306
5.699997,-0.0003494226
5.799997,-0.0003483472
5.899997,-0.0003472802
5.999997,-0.0003460625
6.099997,-0.0003450332
6.199996,-0.0003439615
6.299996,-0.0003429011
6.399996,-0.0003419688
6.499996,-0.0003408783
6.599996,-0.0003399271
6.699996,-0.000338928
6.799996,-0.0003379015
6.899996,-0.0003369889
6.999996,-0.0003358598
7.099996,-0.0003349877
7.199996,-0.0003340291
7.299995,-0.0003330629
7.399995,-0.0003322982
7.499995,-0.0003313188
7.599995,-0.0003304486
7.699995,-0.0003295709
7.799995,-0.0003285746
7.899995,-0.0003276752
7.999995,-0.000326645
8.099995,-0.0003257079
8.199995,-0.0003250261
8.299995,-0.0003239996
8.399996,-0.0003231888
8.499996,-0.0003222518
8.599997,-0.0003214316
8.699997,-0.0003204503
8.799997,-0.0003197082
8.899998,-0.0003188267
8.999998,-0.000317965
9.099998,-0.0003171796
9.199999,-0.0003162143
9.299999,-0.0003152575
9.4,-0.0003146681
9.5,-0.0003137687
9.6,-0.0003131001
9.700001,-0.0003122412
9.800001,-0.0003113484
9.900002,-0.0003107137
10,-0.0003097607
10.1,-0.0003090789
10.2,-0.0003081691
10.3,-0.0003072867
10.4,-0.0003065748
10.5,-0.000305877
10.6,-0.0003050614
10.7,-0.0003042374
10.8,-0.0003036036
10.90001,-0.0003029039
11.00001,-0.0003020272
11.10001,-0.0003013567
11.20001,-0.0003006456
11.30001,-0.0002998452
11.40001,-0.0002991784
11.50001,-0.0002984646
11.60001,-0.0002975888
11.70001,-0.000296793
11.80001,-0.0002961686
11.90001,-0.0002953983
12.00001,-0.0002946497
12.10001,-0.0002939904
12.20001,-0.0002932239
12.30001,-0.0002925279
12.40001,-0.0002918734
12.50001,-0.000291185
12.60001,-0.0002903733
12.70001,-0.0002897244
12.80001,-0.0002891047
12.90001,-0.0002883787
13.00001,-0.0002876253
13.10001,-0.0002869566
13.20001,-0.0002862654
13.30001,-0.0002855365
13.40001,-0.0002849423
13.50002,-0.000284203
13.60002,-0.0002835118
13.70002,-0.000283072
13.80002,-0.0002822716
13.90002,-0.0002815869
14.00002,-0.000280841
14.10002,-0.0002801979
14.20002,-0.0002797364
14.30002,-0.0002790094
14.40002,-0.0002784132
14.50002,-0.0002778463
14.60002,-0.0002771617
14.70002,-0.0002765646
14.80002,-0.0002760081
14.90002,-0.0002752698
15.00002,-0.0002747
15.10002,-0.0002739748
15.20002,-0.000273277
15.30002,-0.0002726291
15.40002,-0.0002721582
15.50002,-0.0002714717
15.60002,-0.0002709039
15.70002,-0.0002705922
15.80002,-0.0002699452
15.90002,-0.0002692173
16.00002,-0.0002687859
16.10003,-0.000268186
16.20003,-0.0002675325
16.30003,-0.0002668987
16.40003,-0.000266311
16.50003,-0.0002657639
16.60003,-0.0002652224
16.70003,-0.0002647657
16.80003,-0.0002641592
16.90003,-0.0002636205
17.00003,-0.0002631261
17.10003,-0.0002624989
17.20003,-0.0002619932
17.30003,-0.0002613256
17.40003,-0.0002607765
17.50003,-0.0002602322
17.60003,-0.000259588
17.70003,-0.0002590324
17.80003,-0.000258361
17.90003,-0.0002577969
18.00003,-0.000257229
18.10003,-0.0002566734
18.20003,-0.0002560283
18.30003,-0.0002556751
18.40003,-0.0002551016
18.50003,-0.0002546675
18.60003,-0.0002540384
18.70004,-0.0002535431
18.80004,-0.0002530336
18.90004,-0.0002524893
19.00004,-0.0002520128
19.10004,-0.0002513818
19.20004,-0.000250877
19.30004,-0.000250392
19.40004,-0.0002498072
19.50004,-0.0002492573
19.60004,-0.0002488128
19.70004,-0.0002483607
19.80004,-0.0002479059
19.90004,-0.0002472843
20.00004,-0.0002468511
20.10004,-0.0002464622
20.20004,-0.0002459442
20.30004,-0.0002454366
20.40004,-0.0002450147
20.50004,-0.0002444808
20.60004,-0.0002440316
20.70004,-0.0002436492
20.80004,-0.000243168
20.90004,-0.0002425088
21.00004,-0.0002422451
21.10004,-0.0002417074
21.20004,-0.0002410821
21.30005,-0.0002406875
21.40005,-0.0002400914
21.50005,-0.0002395894
21.60005,-0.0002391073
21.70005,-0.0002386948
21.80005,-0.0002380271
21.90005,-0.0002375252
22.00005,-0.0002370891
22.10005,-0.0002365684
22.20005,-0.0002360429
22.30005,-0.0002355343
22.40005,-0.0002351454
22.50005,-0.0002346689
22.60005,-0.0002341509
22.70005,-0.0002337648
22.80005,-0.0002332864
22.90005,-0.0002327091
23.00005,-0.0002323522
23.10005,-0.000231903
23.20005,-0.0002314331
23.30005,-0.000230999
23.40005,-0.0002305469
23.50005,-0.0002300817
23.60005,-0.000229511
23.70005,-0.0002290863
23.80005,-0.0002285891
23.90005,-0.0002281597
24.00006,-0.0002277585
24.10006,-0.000227281
24.20006,-0.0002268704
24.30006,-0.000226328
24.40006,-0.0002260078
24.50006,-0.0002256207
24.60006,-0.0002250237
24.70006,-0.0002246809
24.80006,-0.0002243654
24.90006,-0.000223823
25.00006,-0.0002234623
25.10006,-0.0002230696
25.20006,-0.0002225724
25.30006,-0.0002222277
25.40006,-0.0002217013
25.50006,-0.0002211984
25.60006,-0.0002207369
25.70006,-0.0002204648
25.80006,-0.0002200146
25.90006,-0.0002196982
26.00006,-0.0002194618
26.10006,-0.000218974
26.20006,-0.0002184617
26.30006,-0.0002182564
26.40006,-0.0002178684
26.50006,-0.0002173514
26.60007,-0.0002169728
26.70007,-0.0002165726
26.80007,-0.000215951
26.90007,-0.0002156054
27.00007,-0.0002152918
27.10007,-0.0002148605
27.20007,-0.0002144461
27.30007,-0.0002141363
27.40007,-0.0002137304
27.50007,-0.0002133481
27.60007,-0.0002130703
27.70007,-0.000212639
27.80007,-0.0002122048
27.90007,-0.0002117095
28.00007,-0.0002113733
28.10007,-0.0002109222
28.20007,-0.0002104447
28.30007,-0.0002101217
28.40007,-0.0002097667
28.50007,-0.0002093749
28.60007,-0.0002090331
28.70007,-0.0002086065
28.80007,-0.0002081441
28.90007,-0.0002078248
29.00007,-0.0002075828
29.10007,-0.0002071958
29.20008,-0.0002067221
29.30008,-0.0002066119
29.40008,-0.0002063077
29.50008,-0.000205737
29.60008,-0.0002054874
29.70008,-0.0002051522
29.80008,-0.0002046154
29.90008,-0.0002042839
30.00008,-0.0002039609
30.10008,-0.0002036812
30.20008,-0.0002032273
30.30008,-0.0002029259
30.40008,-0.0002025106
30.50008,-0.000202149
30.60008,-0.0002018759
30.70008,-0.0002015218
30.80008,-0.0002011451
30.90008,-0.0002008664
31.00008,-0.0002004888
31.10008,-0.0002001704
31.20008,-0.0001997994
31.30008,-0.000199547
31.40008,-0.0001990799
31.50008,-0.0001988332
31.60008,-0.000198593
31.70008,-0.0001981551
31.80009,-0.0001979141
31.90009,-0.0001974536
32.00008,-0.000197156
32.10008,-0.00019688
32.20008,-0.0001964271
32.30008,-0.0001961267
32.40008,-0.0001958281
32.50008,-0.0001954354
32.60007,-0.0001951312
32.70007,-0.0001947998
32.80007,-0.000194392
32.90007,-0.0001941565
33.00007,-0.0001937224
33.10007,-0.0001934277
33.20007,-0.0001931206
33.30006,-0.0001926874
33.40006,-0.0001924473
33.50006,-0.0001922109
33.60006,-0.0001917118
33.70006,-0.0001914302
33.80006,-0.000191192
33.90005,-0.0001908059
34.00005,-0.0001904716
34.10005,-0.0001901796
34.20005,-0.0001898434
34.30005,-0.0001893904
34.40005,-0.0001891268
34.50005,-0.0001887284
34.60004,-0.0001884421
34.70004,-0.0001880824
34.80004,-0.000187863
34.90004,-0.0001874222
35.00004,-0.0001871632
35.10004,-0.0001868609
35.20004,-0.0001865427
35.30003,-0.0001862253
35.40003,-0.0001859531
35.50003,-0.0001856395
35.60003,-0.0001852798
35.70003,-0.0001850001
35.80003,-0.000184646
35.90002,-0.0001844106
36.00002,-0.0001840998
36.10002,-0.0001836817
36.20002,-0.0001835046
36.30002,-0.0001832306
36.40002,-0.0001829264
36.50002,-0.0001826703
36.60001,-0.0001823425
36.70001,-0.0001821834
36.80001,-0.0001819244
36.90001,-0.0001815006
37.00001,-0.0001812256
37.10001,-0.0001809271
37.2,-0.0001806126
37.3,-0.0001802443
37.4,-0.0001798959
37.5,-0.0001797047
37.6,-0.000179442
37.7,-0.0001791105
37.8,-0.0001790135
37.89999,-0.0001787865
37.99999,-0.0001786236
38.09999,-0.0001785351
38.19999,-0.0001781481
38.29999,-0.0001779475
38.39999,-0.000177584
38.49998,-0.000177276
38.59998,-0.0001770848
38.69998,-0.0001767496
38.79998,-0.0001765302
38.89998,-0.0001761827
38.99998,-0.0001759858
39.09998,-0.0001756581
39.19997,-0.0001753379
39.29997,-0.0001751176
39.39997,-0.0001748087
39.49997,-0.0001745337
39.59997,-0.0001742662
39.69997,-0.0001740063
39.79996,-0.0001737417
39.89996,-0.000173462
39.99996,-0.0001730542
40.09996,-0.0001728828
40.19996,-0.000172557
40.29996,-0.0001722123
40.39996,-0.0001719854
40.49995,-0.0001716972
40.59995,-0.0001715032
40.69995,-0.0001713742
40.79995,-0.0001709984
40.89995,-0.0001706434
40.99995,-0.0001704607
41.09995,-0.0001701659
41.19994,-0.0001698495
41.29994,-0.0001695689
41.39994,-0.0001693391
41.49994,-0.0001689323
41.59994,-0.0001687015
41.69994,-0.0001684868
41.79993,-0.0001682194
41.89993,-0.0001679868
41.99993,-0.0001680084
42.09993,-0.0001676534
42.19993,-0.0001672635
42.29993,-0.0001671524
42.39993,-0.000167029
42.49992,-0.0001665808
42.59992,-0.000166302
42.69992,-0.0001661146
42.79992,-0.0001658924
42.89992,-0.0001655665
42.99992,-0.0001651936
43.09991,-0.0001649996
43.19991,-0.0001648461
43.29991,-0.0001645909
43.39991,-0.0001645937
43.49991,-0.0001644628
43.59991,-0.0001641332
43.69991,-0.0001641841
43.7999,-0.0001640249
43.8999,-0.0001636991
43.9999,-0.0001634533
44.0999,-0.0001632122
44.1999,-0.0001629155
44.2999,-0.000162649
44.39989,-0.0001623769
44.49989,-0.0001621028
44.59989,-0.0001618476
44.69989,-0.0001617421
44.79989,-0.000161422
44.89989,-0.0001612044
44.99989,-0.0001610236
45.09988,-0.0001606799
45.19988,-0.0001604416
45.29988,-0.000160274
45.39988,-0.0001599943
45.49988,-0.0001597259
45.59988,-0.0001595263
45.69987,-0.0001592588
45.79987,-0.0001589019
45.89987,-0.0001586881
45.99987,-0.0001585214
46.09987,-0.000158206
46.19987,-0.0001580346
46.29987,-0.0001579074
46.39986,-0.0001576532
46.49986,-0.0001574356
46.59986,-0.0001572379
46.69986,-0.0001569958
46.79986,-0.0001568414
46.89986,-0.0001564553
46.99986,-0.0001562368
47.09985,-0.0001559571
47.19985,-0.0001556962
47.29985,-0.0001555569
47.39985,-0.0001552866
47.49985,-0.0001551321
47.59985,-0.000154957
47.69984,-0.0001547451
47.79984,-0.0001544682
47.89984,-0.0001542026
47.99984,-0.0001540717
48.09984,-0.0001539107
48.19984,-0.000153648
48.29984,-0.0001535227
48.39983,-0.0001532826
48.49983,-0.0001530952
48.59983,-0.000152904
48.69983,-0.000152645
48.79983,-0.000152532
48.89983,-0.0001522589
48.99982,-0.00015195
49.09982,-0.0001517645
49.19982,-0.0001514208
49.29982,-0.0001512974
49.39982,-0.0001511684
49.49982,-0.0001510478
49.59982,-0.0001510055
49.69981,-0.000150917
49.79981,-0.0001507813
49.89981,-0.0001505064
49.99981,-0.000150366
50.09981,-0.0001501466
50.19981,-0.0001498801
50.2998,-0.0001497115
50.3998,-0.0001494234
50.4998,-0.0001492746
50.5998,-0.0001491051
50.6998,-0.0001489045
50.7998,-0.0001486558
50.8998,-0.0001484364
50.99979,-0.0001483451
51.09979,-0.0001481285
51.19979,-0.0001478893
51.29979,-0.0001477499
51.39979,-0.0001475813
51.49979,-0.0001473233
51.59978,-0.00014715
51.69978,-0.0001469127
51.79978,-0.0001467027
51.89978,-0.0001465078
51.99978,-0.0001462657
52.09978,-0.0001460802
52.19978,-0.0001459898
52.29977,-0.0001457704
52.39977,-0.0001455105
52.49977,-0.0001453259
52.59977,-0.0001451583
52.69977,-0.0001448805
52.79977,-0.0001446912
52.89977,-0.0001445735
52.99976,-0.0001443069
53.09976,-0.0001440319
53.19976,-0.0001439463
53.29976,-0.0001438022
53.39976,-0.0001435959
53.49976,-0.0001434142
53.59975,-0.0001432409
53.69975,-0.0001430667
53.79975,-0.0001428783
53.89975,-0.0001427738
53.99975,-0.0001424856
54.09975,-0.0001423349
54.19975,-0.0001422502
54.29974,-0.0001419762
54.39974,-0.0001417793
54.49974,-0.0001415637
54.59974,-0.0001413019
54.69974,-0.0001411333
54.79974,-0.0001409647
54.89973,-0.000140977
54.99973,-0.000140928
55.09973,-0.0001406888
55.19973,-0.0001406135
55.29973,-0.0001404788
55.39973,-0.0001403583
55.49973,-0.000140104
55.59972,-0.0001399872
55.69972,-0.0001398309
55.79972,-0.0001396501
55.89972,-0.0001395616
55.99972,-0.0001393261
56.09972,-0.000139166
56.19971,-0.0001390615
56.29971,-0.0001388722
56.39971,-0.0001386839
56.49971,-0.0001385087
56.59971,-0.0001383881
56.69971,-0.0001382375
56.79971,-0.0001381254
56.8997,-0.0001380265
56.9997,-0.0001377996
57.0997,-0.0001376432
57.1997,-0.000137567
57.2997,-0.0001372807
57.3997,-0.000137179
57.49969,-0.0001369708
57.59969,-0.0001367693
57.69969,-0.0001366309
57.79969,-0.0001364426
57.89969,-0.0001361431
57.99969,-0.0001360263
58.09969,-0.000135773
58.19968,-0.000135578
58.29968,-0.0001354547
58.39968,-0.0001353539
58.49968,-0.0001352079
58.59968,-0.0001350092
58.69968,-0.0001348501
58.79967,-0.0001347634
58.89967,-0.0001345883
58.99967,-0.000134382
59.09967,-0.000134189
59.19967,-0.0001340647
59.29967,-0.0001338424
59.39967,-0.000133671
59.49966,-0.0001335204
59.59966,-0.0001333009
59.69966,-0.000133186
59.79966,-0.0001330212
59.89966,-0.000132798
59.99966,-0.0001326483
60.09966,-0.0001324797
60.19965,-0.0001323686
60.29965,-0.0001321247
60.39965,-0.0001317574
60.49965,-0.000131894
60.59965,-0.0001316924
60.69965,-0.0001315493
60.79964,-0.000131393
60.89964,-0.0001313111
60.99964,-0.0001311368
61.09964,-0.0001310417
61.19964,-0.0001310351
61.29964,-0.0001308147
61.39964,-0.0001307234
61.49963,-0.0001307281
61.59963,-0.0001305473
61.69963,-0.000130439
61.79963,-0.0001302337
61.89963,-0.0001301433
61.99963,-0.0001299653
62.09962,-0.0001296969
62.19962,-0.0001296121
62.29962,-0.0001295246
62.39962,-0.0001292939
62.49962,-0.0001291554
62.59962,-0.0001290415
62.69962,-0.0001288456
62.79961,-0.0001287477
62.89961,-0.0001285339
62.99961,-0.0001284416
63.09961,-0.0001282278
63.19961,-0.0001281242
63.29961,-0.0001278813
63.3996,-0.0001278003
63.4996,-0.0001277579
63.5996,-0.0001276345
63.6996,-0.0001274217
63.7996,-0.0001273831
63.8996,-0.0001272465
63.9996,-0.0001270572
64.09959,-0.0001270111
64.19959,-0.0001268425
64.29959,-0.0001265855
64.39959,-0.0001265299
64.49959,-0.0001264084
64.59959,-0.0001262521
64.69958,-0.0001261004
64.79958,-0.0001260383
64.89958,-0.0001258594
64.99958,-0.0001257059
65.09958,-0.0001255976
65.19958,-0.0001253932
65.29958,-0.000125348
65.39957,-0.0001251493
65.49957,-0.0001249826
65.59957,-0.000124815
65.69957,-0.0001246003
65.79957,-0.0001244863
65.89957,-0.0001244044
65.99957,-0.0001243017
66.09956,-0.0001243771
66.19956,-0.0001242904
66.29956,-0.0001242038
66.39956,-0.0001240946
66.49956,-0.0001240362
66.59956,-0.0001239043
66.69955,-0.0001236623
66.79955,-0.0001235672
66.89955,-0.0001235154
66.99955,-0.0001233591
67.09955,-0.0001233063
67.19955,-0.0001231651
67.29955,-0.000123005
67.39954,-0.0001229174
67.49954,-0.0001227677
67.59954,-0.0001226038
67.69954,-0.0001224748
67.79954,-0.0001223288
67.89954,-0.0001222883
67.99953,-0.0001221273
68.09953,-0.0001220557
68.19953,-0.0001219022
68.29953,-0.0001217157
68.39953,-0.0001216282
68.49953,-0.0001213861
68.59953,-0.000121291
68.69952,-0.0001211705
68.79952,-0.0001209049
68.89952,-0.0001208456
68.99952,-0.0001207184
69.09952,-0.0001204689
69.19952,-0.0001202561
69.29951,-0.0001201374
69.39951,-0.000120241
69.49951,-0.0001201026
69.59951,-0.0001200074
69.69951,-0.0001198831
69.79951,-0.0001198021
69.89951,-0.0001196609
69.9995,-0.0001195554
70.0995,-0.0001194735
70.1995,-0.0001192785
70.2995,-0.0001191392
70.3995,-0.0001190987
70.4995,-0.0001189489
70.59949,-0.0001187794
70.69949,-0.0001187361
70.79949,-0.0001185572
70.89949,-0.0001184743
70.99949,-0.0001182916
71.09949,-0.0001181739
71.19949,-0.0001179865
71.29948,-0.0001178782
71.39948,-0.0001178236
71.49948,-0.0001176889
71.59948,-0.0001176267
71.69948,-0.0001174252
71.79948,-0.0001173715
71.89948,-0.0001172792
71.99947,-0.0001170711
72.09947,-0.0001170203
72.19947,-0.0001168762
72.29947,-0.0001166756
72.39947,-0.0001166558
72.49947,-0.0001165899
72.59946,-0.0001164439
72.69946,-0.0001163799
72.79946,-0.000116217
72.89946,-0.0001160475
72.99946,-0.0001158808
73.09946,-0.0001157471
73.19946,-0.0001156614
73.29945,-0.0001155304
73.39945,-0.0001154184
73.49945,-0.0001152969
73.59945,-0.0001151792
73.69945,-0.0001151104
73.79945,-0.0001149165
73.89944,-0.0001147479
73.99944,-0.0001146933
74.09944,-0.000114503
74.19944,-0.0001143759
74.29944,-0.0001143665
74.39944,-0.000114212
74.49944,-0.0001140727
74.59943,-0.0001139822
74.69943,-0.0001138871
74.79943,-0.000113743
74.89943,-0.0001135754
74.99943,-0.0001135575
75.09943,-0.0001133861
75.19942,-0.0001131902
75.29942,-0.0001131676
75.39942,-0.0001129058
75.49942,-0.0001127523
75.59942,-0.0001127109
75.69942,-0.000112661
75.79942,-0.0001124538
75.89941,-0.000112337
75.99941,-0.0001122626
76.09941,-0.000112143
76.19941,-0.0001119905
76.29941,-0.0001120206
76.39941,-0.000111853
76.4994,-0.0001116562
76.5994,-0.0001116458
76.6994,-0.0001115158
76.7994,-0.0001112945
76.8994,-0.0001112352
76.9994,-0.0001111109
77.0994,-0.0001109725
77.19939,-0.0001108839
77.29939,-0.0001108152
77.39939,-0.0001105911
77.49939,-0.0001104912
77.59939,-0.0001105082
77.69939,-0.0001103575
77.79939,-0.0001102407
77.89938,-0.0001102492
77.99938,-0.0001100873
78.09938,-0.0001100354
78.19938,-0.0001099074
78.29938,-0.0001098885
78.39938,-0.0001097482
78.49937,-0.0001095975
78.59937,-0.0001095985
78.69937,-0.0001094949
78.79937,-0.0001093941
78.89937,-0.0001093216
78.99937,-0.0001092171
79.09937,-0.0001090382
79.19936,-0.0001089704
79.29936,-0.0001089176
79.39936,-0.0001087801
79.49936,-0.0001086342
79.59936,-0.0001086643
79.69936,-0.0001085833
79.79935,-0.0001084336
79.89935,-0.0001083771
79.99935,-0.0001082377
80.09935,-0.0001081106
80.19935,-0.0001081228
80.29935,-0.0001079665
80.39935,-0.0001078233
80.49934,-0.000107764
80.59934,-0.0001076114
80.69934,-0.000107392
80.79934,-0.0001072912
80.89934,-0.0001072621
80.99934,-0.0001071001
81.09933,-0.0001069513
81.19933,-0.0001069776
81.29933,-0.0001069127
81.39933,-0.00010681
81.49933,-0.0001067093
81.59933,-0.000106714
81.69933,-0.0001065784
81.79932,-0.0001064013
81.89932,-0.000106293
81.99932,-0.0001062196
82.09932,-0.0001060726
82.19932,-0.0001059577
82.29932,-0.0001058711
82.39931,-0.000105728
82.49931,-0.0001056856
82.59931,-0.0001055377
82.69931,-0.0001054228
82.79931,-0.0001054539
82.89931,-0.0001052731
82.99931,-0.0001051902
83.0993,-0.0001050791
83.1993,-0.0001050358
83.2993,-0.0001048814
83.3993,-0.0001048362
83.4993,-0.0001048248
83.5993,-0.0001048258
83.6993,-0.0001047599
83.79929,-0.0001048183
83.89929,-0.0001047504
83.99929,-0.0001047363
84.09929,-0.0001047599
84.19929,-0.0001046864
84.29929,-0.0001045555
84.39928,-0.0001045367
84.49928,-0.0001045357
84.59928,-0.0001044595
84.69928,-0.0001043578
84.79928,-0.0001043578
84.89928,-0.0001043182
84.99928,-0.0001042278
85.09927,-0.0001042024
85.19927,-0.0001040959
85.29927,-0.0001040121
85.39927,-0.0001039123
85.49927,-0.0001038756
85.59927,-0.0001037852
85.69926,-0.0001036693
85.79926,-0.0001037164
85.89926,-0.0001035582
85.99926,-0.0001034151
86.09926,-0.0001033915
86.19926,-0.0001032682
86.29926,-0.000103174
86.39925,-0.0001031005
86.49925,-0.0001029103
86.59925,-0.000102866
86.69925,-0.0001026994
86.79925,-0.0001025543
86.89925,-0.0001024602
86.99924,-0.0001023434
87.09924,-0.0001022718
87.19924,-0.0001021211
87.29924,-0.0001020825
87.39924,-0.0001020364
87.49924,-0.0001019064
87.59924,-0.0001017925
87.69923,-0.0001017623
87.79923,-0.0001016474
87.89923,-0.0001015702
87.99923,-0.000101429
88.09923,-0.0001014309
88.19923,-0.0001012595
88.29922,-0.0001010899
88.39922,-0.0001010419
88.49922,-0.0001009007
88.59922,-0.0001007735
88.69922,-0.0001006991
88.79922,-0.0001005475
88.89922,-0.0001004072
88.99921,-0.0001003102
89.09921,-0.000100232
89.19921,-0.0001001247
89.29921,-0.0001000493
89.39921,-9.997681E-05
89.49921,-9.98073E-05
89.59921,-9.976775E-05
89.6992,-9.963873E-05
89.7992,-9.950595E-05
89.8992,-9.9392E-05
89.9992,-9.937223E-05
90.0992,-9.917823E-05
90.1992,-9.911231E-05
90.29919,-9.902756E-05
90.39919,-9.889948E-05
90.49919,-9.879023E-05
90.59919,-9.873279E-05
90.69919,-9.862731E-05
90.79919,-9.850866E-05
90.89919,-9.83947E-05
90.99918,-9.834574E-05
91.09918,-9.819883E-05
91.19918,-9.811878E-05
91.29918,-9.801802E-05
91.39918,-9.786733E-05
91.49918,-9.78824E-05
91.59917,-9.774868E-05
91.69917,-9.764038E-05
91.79917,-9.757823E-05
91.89917,-9.753679E-05
91.99917,-9.7485E-05
92.09917,-9.732772E-05
92.19917,-9.72392E-05
92.29916,-9.720624E-05
92.39916,-9.706686E-05
92.49916,-9.701507E-05
92.59916,-9.689453E-05
92.69916,-9.685968E-05
92.79916,-9.678058E-05
92.89915,-9.663556E-05
92.99915,-9.666192E-05
93.09915,-9.662331E-05
93.19915,-9.657057E-05
93.29915,-9.654702E-05
93.39915,-9.646227E-05
93.49915,-9.643025E-05
93.59914,-9.635586E-05
93.69914,-9.634079E-05
93.79914,-9.629276E-05
93.89914,-9.618069E-05
93.99914,-9.615621E-05
94.09914,-9.616093E-05
94.19913,-9.612607E-05
94.29913,-9.611666E-05
94.39913,-9.601966E-05
94.49913,-9.597729E-05
94.59913,-9.586333E-05
94.69913,-9.578705E-05
94.79913,-9.576822E-05
94.89912,-9.561E-05
94.99912,-9.556762E-05
95.09912,-9.55262E-05
95.19912,-9.547063E-05
95.29912,-9.549417E-05
95.39912,-9.545651E-05
95.49911,-9.543674E-05
95.59911,-9.540283E-05
95.69911,-9.536422E-05
95.79911,-9.531148E-05
95.89911,-9.521355E-05
95.99911,-9.518717E-05
96.09911,-9.50525E-05
96.1991,-9.495268E-05
96.2991,-9.496586E-05
96.3991,-9.491501E-05
96.4991,-9.481989E-05
96.5991,-9.473891E-05
96.6991,-9.46306E-05
96.7991,-9.464002E-05
96.89909,-9.448746E-05
96.99909,-9.447617E-05
97.09909,-9.435374E-05
97.19909,-9.421718E-05
97.29909,-9.418705E-05
97.39909,-9.404955E-05
97.49908,-9.401754E-05
97.59908,-9.398269E-05
97.69908,-9.385745E-05
97.79908,-9.376421E-05
97.89908,-9.363238E-05
97.99908,-9.359941E-05
98.09908,-9.348452E-05
98.19907,-9.334797E-05
98.29907,-9.33282E-05
98.39907,-9.322649E-05
98.49907,-9.316339E-05
98.59907,-9.317846E-05
98.69907,-9.306357E-05
98.79906,-9.298445E-05
98.89906,-9.287334E-05
98.99906,-9.285544E-05
99.09906,-9.273209E-05
99.19906,-9.260118E-05
99.29906,-9.261342E-05
99.39906,-9.255503E-05
99.49905,-9.239776E-05
99.59905,-9.234879E-05
99.69905,-9.228852E-05
99.79905,-9.212372E-05
99.89905,-9.210582E-05
99.99905,-9.193914E-05
100.099,-9.18346E-05
100.199,-9.180164E-05
100.299,-9.162271E-05
100.399,-9.149841E-05
100.499,-9.13336E-05
100.599,-9.135526E-05
100.699,-9.126298E-05
100.799,-9.113114E-05
100.899,-9.112265E-05
100.999,-9.101153E-05
101.099,-9.094091E-05
101.199,-9.084861E-05
101.299,-9.076385E-05
101.399,-9.071112E-05
101.499,-9.064331E-05
101.599,-9.05482E-05
101.699,-9.049358E-05
101.799,-9.047098E-05
101.899,-9.035421E-05
101.999,-9.016774E-05
102.099,-9.022236E-05
102.199,-9.013102E-05
102.299,-9.002271E-05
102.399,-8.99775E-05
102.499,-8.986168E-05
102.599,-8.978164E-05
102.699,-8.971854E-05
102.799,-8.965638E-05
102.899,-8.961212E-05
102.999,-8.949816E-05
103.099,-8.940023E-05
103.199,-8.930888E-05
103.299,-8.918834E-05
103.399,-8.910735E-05
103.499,-8.903108E-05
103.599,-8.894255E-05
103.699,-8.885591E-05
103.799,-8.865532E-05
103.899,-8.865438E-05
103.999,-8.863931E-05
104.099,-8.856209E-05
104.199,-8.851688E-05
104.299,-8.844061E-05
104.399,-8.843307E-05
104.499,-8.826638E-05
104.599,-8.824002E-05
104.699,-8.817975E-05
104.799,-8.803472E-05
104.899,-8.800364E-05
104.999,-8.790947E-05
105.099,-8.785956E-05
105.199,-8.785768E-05
105.299,-8.774373E-05
105.399,-8.770041E-05
105.499,-8.760906E-05
105.599,-8.760529E-05
105.699,-8.749888E-05
105.799,-8.739906E-05
105.899,-8.74113E-05
105.999,-8.729735E-05
106.099,-8.725026E-05
106.199,-8.721918E-05
106.299,-8.71608E-05
106.3989,-8.704684E-05
106.4989,-8.702518E-05
106.5989,-8.698658E-05
106.6989,-8.688487E-05
106.7989,-8.679446E-05
106.8989,-8.683119E-05
106.9989,-8.677469E-05
107.0989,-8.664002E-05
107.1989,-8.668051E-05
107.2989,-8.662401E-05
107.3989,-8.647334E-05
107.4989,-8.643566E-05
107.5989,-8.639423E-05
107.6989,-8.627085E-05
107.7989,-8.621153E-05
107.8989,-8.613054E-05
107.9989,-8.603825E-05
108.0989,-8.597421E-05
108.1989,-8.587439E-05
108.2989,-8.580282E-05
108.3989,-8.568604E-05
108.4989,-8.56964E-05
108.5989,-8.565214E-05
108.6989,-8.558716E-05
108.7989,-8.556926E-05
108.8989,-8.544778E-05
108.9989,-8.5412E-05
109.0989,-8.531311E-05
109.1989,-8.521047E-05
109.2989,-8.512289E-05
109.3989,-8.508804E-05
109.4989,-8.504284E-05
109.5989,-8.495338E-05
109.6989,-8.486956E-05
109.7989,-8.48931E-05
109.8989,-8.476691E-05
109.9989,-8.470006E-05
110.0989,-8.46605E-05
110.1989,-8.455125E-05
110.2989,-8.448251E-05
110.3989,-8.440435E-05
110.4989,-8.438456E-05
110.5989,-8.429981E-05
110.6989,-8.424331E-05
110.7989,-8.427814E-05
110.8989,-8.415667E-05
110.9989,-8.402482E-05
111.0989,-8.403613E-05
111.1989,-8.393725E-05
111.2989,-8.3812E-05
111.3989,-8.378845E-05
111.4989,-8.372348E-05
111.5989,-8.374984E-05
111.6989,-8.361141E-05
111.7989,-8.354548E-05
111.8989,-8.34984E-05
111.9989,-8.343814E-05
112.0989,-8.341647E-05
112.1989,-8.324884E-05
112.2989,-8.323565E-05
112.3989,-8.315749E-05
112.4989,-8.314431E-05
112.5989,-8.301812E-05
112.6989,-8.296915E-05
112.7989,-8.300588E-05
112.8988,-8.296539E-05
112.9988,-8.293524E-05
113.0988,-8.292017E-05
113.1988,-8.287403E-05
113.2988,-8.280152E-05
113.3988,-8.27921E-05
113.4988,-8.273277E-05
113.5988,-8.263577E-05
113.6988,-8.26226E-05
113.7988,-8.255572E-05
113.8988,-8.248134E-05
113.9988,-8.240129E-05
114.0988,-8.237868E-05
114.1988,-8.227038E-05
114.2988,-8.215832E-05
114.3988,-8.206791E-05
114.4988,-8.201329E-05
114.5988,-8.191064E-05
114.6988,-8.18353E-05
114.7988,-8.177032E-05
114.8988,-8.168556E-05
114.9988,-8.161306E-05
115.0988,-8.160834E-05
115.1988,-8.158575E-05
115.2988,-8.147556E-05
115.3988,-8.139834E-05
115.4988,-8.14087E-05
115.5988,-8.124766E-05
115.6988,-8.119022E-05
115.7988,-8.114784E-05
115.8988,-8.111489E-05
115.9988,-8.100188E-05
116.0988,-8.093312E-05
116.1988,-8.092371E-05
116.2988,-8.081635E-05
116.3988,-8.078339E-05
116.4988,-8.068827E-05
116.5988,-8.062895E-05
116.6988,-8.062235E-05
116.7988,-8.049334E-05
116.8988,-8.039163E-05
116.9988,-8.038033E-05
117.0988,-8.029652E-05
117.1988,-8.02127E-05
117.2988,-8.015338E-05
117.3988,-8.007239E-05
117.4988,-8.006202E-05
117.5988,-8.00187E-05
117.6988,-8.005731E-05
117.7988,-8.01044E-05
117.8988,-8.004508E-05
117.9988,-8.007709E-05
118.0988,-8.00997E-05
118.1988,-8.007992E-05
118.2988,-8.00347E-05
118.3988,-8.006579E-05
118.4988,-8.00479E-05
118.5988,-8.005355E-05
118.6988,-8.00432E-05
118.7988,-7.999422E-05
118.8988,-7.991606E-05
118.9988,-7.996785E-05
119.0988,-7.990946E-05
119.1988,-7.987556E-05
119.2988,-7.982941E-05
119.3988,-7.975879E-05
119.4987,-7.968157E-05
119.5987,-7.968157E-05
119.6987,-7.966178E-05
119.7987,-7.960999E-05
119.8987,-7.950735E-05
119.9987,-7.954313E-05
120.0987,-7.949321E-05
120.1987,-7.943765E-05
120.2987,-7.9432E-05
120.3987,-7.936609E-05
120.4987,-7.92446E-05
120.5987,-7.929357E-05
120.6987,-7.923706E-05
120.7987,-7.917585E-05
120.8987,-7.910051E-05
120.9987,-7.912124E-05
121.0987,-7.900164E-05
121.1987,-7.894795E-05
121.2987,-7.886979E-05
121.3987,-7.877562E-05
121.4987,-7.872947E-05
121.5987,-7.864472E-05
121.6987,-7.856184E-05
121.7987,-7.847239E-05
121.8987,-7.838292E-05
121.9987,-7.835373E-05
122.0987,-7.82313E-05
122.1987,-7.817479E-05
122.2987,-7.808721E-05
122.3987,-7.79177E-05
122.4987,-7.789604E-05
122.5987,-7.795349E-05
122.6987,-7.782824E-05
122.7987,-7.772182E-05
122.8987,-7.774442E-05
122.9987,-7.771146E-05
123.0987,-7.767567E-05
123.1987,-7.764177E-05
123.2987,-7.765496E-05
123.3987,-7.749863E-05
123.4987,-7.745626E-05
123.5987,-7.744213E-05
123.6987,-7.730087E-05
123.7987,-7.726226E-05
123.8987,-7.720858E-05
123.9987,-7.706072E-05
124.0987,-7.697974E-05
124.1987,-7.691287E-05
124.2987,-7.695808E-05
124.3987,-7.689592E-05
124.4987,-7.683942E-05
124.5987,-7.680551E-05
124.6987,-7.67669E-05
124.7987,-7.672452E-05
124.8987,-7.661906E-05
124.9987,-7.659833E-05
125.0987,-7.648344E-05
125.1987,-7.643823E-05
125.2987,-7.643447E-05
125.3987,-7.634312E-05
125.4987,-7.629886E-05
125.5987,-7.620563E-05
125.6987,-7.622541E-05
125.7987,-7.615666E-05
125.8987,-7.609451E-05
125.9986,-7.607567E-05
126.0986,-7.601069E-05
126.1986,-7.5941E-05
126.2986,-7.590993E-05
126.3986,-7.584307E-05
126.4986,-7.576302E-05
126.5986,-7.574135E-05
126.6986,-7.565378E-05
126.7986,-7.551722E-05
126.8986,-7.548803E-05
126.9986,-7.544E-05
127.0986,-7.534867E-05
127.1986,-7.531758E-05
127.2986,-7.519234E-05
127.3986,-7.514242E-05
127.4986,-7.503977E-05
127.5986,-7.499645E-05
127.6986,-7.492959E-05
127.7986,-7.485614E-05
127.8986,-7.478079E-05
127.9986,-7.468004E-05
128.0986,-7.466496E-05
128.1986,-7.459528E-05
128.2986,-7.452087E-05
128.3986,-7.448132E-05
128.4986,-7.43862E-05
128.5986,-7.429957E-05
128.6987,-7.426472E-05
128.7987,-7.416678E-05
128.8987,-7.414325E-05
128.9987,-7.408109E-05
129.0987,-7.398503E-05
129.1987,-7.393041E-05
129.2987,-7.384284E-05
129.3987,-7.380233E-05
129.4987,-7.376372E-05
129.5987,-7.367144E-05
129.6987,-7.361775E-05
129.7987,-7.354524E-05
129.8987,-7.349438E-05
129.9987,-7.342941E-05
130.0987,-7.333994E-05
130.1987,-7.332487E-05
130.2988,-7.318643E-05
130.3988,-7.309227E-05
130.4988,-7.310075E-05
130.5988,-7.301976E-05
130.6988,-7.297361E-05
130.7988,-7.289073E-05
130.8988,-7.2822E-05
130.9988,-7.277961E-05
131.0988,-7.268544E-05
131.1988,-7.266473E-05
131.2988,-7.256584E-05
131.3988,-7.248674E-05
131.4988,-7.246979E-05
131.5988,-7.237562E-05
131.6988,-7.234642E-05
131.7988,-7.237467E-05
131.8988,-7.225601E-05
131.9989,-7.219574E-05
132.0989,-7.21609E-05
132.1989,-7.208838E-05
132.2989,-7.198762E-05
132.3989,-7.1933E-05
132.4989,-7.190758E-05
132.5989,-7.182658E-05
132.6989,-7.179645E-05
132.7989,-7.179833E-05
132.8989,-7.173147E-05
132.9989,-7.172111E-05
133.0989,-7.164012E-05
133.1989,-7.165707E-05
133.2989,-7.159398E-05
133.3989,-7.15064E-05
133.4989,-7.151958E-05
133.599,-7.145271E-05
133.699,-7.140563E-05
133.799,-7.143671E-05
133.899,-7.134536E-05
133.999,-7.130392E-05
134.099,-7.127096E-05
134.199,-7.126907E-05
134.299,-7.11928E-05
134.399,-7.117209E-05
134.499,-7.120222E-05
134.599,-7.11476E-05
134.699,-7.111275E-05
134.799,-7.116078E-05
134.899,-7.103553E-05
134.999,-7.102799E-05
135.099,-7.107602E-05
135.1991,-7.096019E-05
135.2991,-7.092157E-05
135.3991,-7.089804E-05
135.4991,-7.080104E-05
135.5991,-7.081045E-05
135.6991,-7.074831E-05
135.7991,-7.069368E-05
135.8991,-7.064095E-05
135.9991,-7.063058E-05
136.0991,-7.058444E-05
136.1991,-7.051852E-05
136.2991,-7.047803E-05
136.3991,-7.04187E-05
136.4991,-7.038197E-05
136.5991,-7.031039E-05
136.6991,-7.025766E-05
136.7991,-7.025389E-05
136.8992,-7.018043E-05
136.9992,-7.007402E-05
137.0992,-7.009097E-05
137.1992,-7.007214E-05
137.2992,-6.99563E-05
137.3992,-6.995347E-05
137.4992,-6.990451E-05
137.5992,-6.986025E-05
137.6992,-6.979245E-05
137.7992,-6.972181E-05
137.8992,-6.969451E-05
137.9992,-6.96267E-05
138.0992,-6.959185E-05
138.1992,-6.950709E-05
138.2992,-6.9444E-05
138.3992,-6.944118E-05
138.4993,-6.935642E-05
138.5993,-6.929615E-05
138.6993,-6.926131E-05
138.7993,-6.916525E-05
138.8993,-6.922269E-05
138.9993,-6.927073E-05
139.0993,-6.923494E-05
139.1993,-6.919538E-05
139.2993,-6.922835E-05
139.3993,-6.926225E-05
139.4993,-6.917185E-05
139.5993,-6.916431E-05
139.6993,-6.922552E-05
139.7993,-6.916431E-05
139.8993,-6.908143E-05
139.9993,-6.907861E-05
140.0993,-6.907578E-05
140.1994,-6.907861E-05
140.2994,-6.904565E-05
140.3994,-6.908332E-05
140.4994,-6.906637E-05
140.5994,-6.904565E-05
140.6994,-6.907202E-05
140.7994,-6.90287E-05
140.8994,-6.896465E-05
140.9994,-6.898632E-05
141.0994,-6.896372E-05
141.1994,-6.891098E-05
141.2994,-6.886954E-05
141.3994,-6.887708E-05
141.4994,-6.88074E-05
141.5994,-6.876219E-05
141.6994,-6.877915E-05
141.7995,-6.870192E-05
141.8995,-6.866614E-05
141.9995,-6.862564E-05
142.0995,-6.856725E-05
142.1995,-6.850698E-05
142.2995,-6.845142E-05
142.3995,-6.846554E-05
142.4995,-6.839963E-05
142.5995,-6.835253E-05
142.6995,-6.833747E-05
142.7995,-6.829226E-05
142.8995,-6.825648E-05
142.9995,-6.823105E-05
143.0995,-6.816984E-05
143.1995,-6.812275E-05
143.2995,-6.813405E-05
143.3996,-6.8038E-05
143.4996,-6.796549E-05
143.5996,-6.785436E-05
143.6996,-6.787696E-05
143.7996,-6.779974E-05
143.8996,-6.772063E-05
143.9996,-6.766131E-05
144.0996,-6.761987E-05
144.1996,-6.75304E-05
144.2996,-6.74852E-05
144.3996,-6.743623E-05
144.4996,-6.735524E-05
144.5996,-6.726861E-05
144.6996,-6.721116E-05
144.7996,-6.716313E-05
144.8996,-6.711981E-05
144.9996,-6.706048E-05
145.0997,-6.699644E-05
145.1997,-6.69211E-05
145.2997,-6.691639E-05
145.3997,-6.684765E-05
145.4997,-6.676007E-05
145.5997,-6.674029E-05
145.6997,-6.665366E-05
145.7997,-6.657172E-05
145.8997,-6.658585E-05
145.9997,-6.644364E-05
146.0997,-6.638149E-05
146.1997,-6.633723E-05
146.2997,-6.632687E-05
146.3997,-6.626189E-05
146.4997,-6.627884E-05
146.5997,-6.627131E-05
146.6998,-6.621952E-05
146.7998,-6.616583E-05
146.8998,-6.622233E-05
146.9998,-6.618279E-05
147.0998,-6.605565E-05
147.1998,-6.604906E-05
147.2998,-6.600574E-05
147.3998,-6.591817E-05
147.4998,-6.587861E-05
147.5998,-6.587955E-05
147.6998,-6.585412E-05
147.7998,-6.580421E-05
147.8998,-6.573828E-05
147.9998,-6.565542E-05
148.0998,-6.562246E-05
148.1998,-6.557255E-05
148.2999,-6.55603E-05
148.3999,-6.547273E-05
148.4999,-6.548496E-05
148.5999,-6.542093E-05
148.6999,-6.539832E-05
148.7999,-6.539549E-05
148.8999,-6.533993E-05
148.9999,-6.526741E-05
149.0999,-6.526271E-05
149.1999,-6.521375E-05
149.2999,-6.516007E-05
149.3999,-6.512239E-05
149.4999,-6.513182E-05
149.5999,-6.504988E-05
149.6999,-6.493781E-05
149.7999,-6.49849E-05
149.8999,-6.487943E-05
150,-6.479186E-05
150.1,-6.479562E-05
150.2,-6.475135E-05
150.3,-6.468073E-05
150.4,-6.46035E-05
150.5,-6.452816E-05
150.6,-6.450368E-05
150.7,-6.443305E-05
150.8,-6.4353E-05
150.9,-6.429085E-05
151,-6.422116E-05
151.1,-6.418632E-05
151.2,-6.410533E-05
151.3,-6.405918E-05
151.4,-6.404694E-05
151.5,-6.394146E-05
151.6001,-6.388967E-05
151.7001,-6.386331E-05
151.8001,-6.380492E-05
151.9001,-6.372581E-05
152.0001,-6.373334E-05
152.1001,-6.362505E-05
152.2001,-6.357324E-05
152.3001,-6.354029E-05
152.4001,-6.349602E-05
152.5001,-6.343105E-05
152.6001,-6.332745E-05
152.7001,-6.334441E-05
152.8001,-6.326248E-05
152.9001,-6.324458E-05
153.0001,-6.322764E-05
153.1001,-6.324553E-05
153.2001,-6.318055E-05
153.3002,-6.313629E-05
153.4002,-6.315512E-05
153.5002,-6.309861E-05
153.6002,-6.304117E-05
153.7002,-6.302611E-05
153.8002,-6.298372E-05
153.9002,-6.294135E-05
154.0002,-6.291216E-05
154.1002,-6.287637E-05
154.2002,-6.28566E-05
154.3002,-6.278031E-05
154.4002,-6.273323E-05
154.5002,-6.270403E-05
154.6002,-6.263999E-05
154.7002,-6.261456E-05
154.8002,-6.257596E-05
154.9003,-6.245353E-05
155.0003,-6.245541E-05
155.1003,-6.244129E-05
155.2003,-6.237348E-05
155.3003,-6.240173E-05
155.4003,-6.243846E-05
155.5003,-6.236124E-05
155.6003,-6.237066E-05
155.7003,-6.238007E-05
155.8003,-6.234806E-05
155.9003,-6.230285E-05
156.0003,-6.233581E-05
156.1003,-6.227931E-05
156.2003,-6.224446E-05
156.3003,-6.230285E-05
156.4003,-6.228213E-05
156.5004,-6.227648E-05
156.6004,-6.225012E-05
156.7004,-6.224259E-05
156.8004,-6.225765E-05
156.9004,-6.226142E-05
157.0004,-6.219832E-05
157.1004,-6.216065E-05
157.2004,-6.212675E-05
157.3004,-6.213522E-05
157.4004,-6.210039E-05
157.5004,-6.20646E-05
157.6004,-6.207213E-05
157.7004,-6.203917E-05
157.8004,-6.202787E-05
157.9004,-6.200715E-05
158.0004,-6.196101E-05
158.1004,-6.189132E-05
158.2005,-6.183857E-05
158.3005,-6.181786E-05
158.4005,-6.173969E-05
158.5005,-6.170109E-05
158.6005,-6.169826E-05
158.7005,-6.159749E-05
158.8005,-6.154099E-05
158.9005,-6.155323E-05
159.0005,-6.14779E-05
159.1005,-6.141386E-05
159.2005,-6.139691E-05
159.3005,-6.137336E-05
159.4005,-6.132345E-05
159.5005,-6.123681E-05
159.6005,-6.118407E-05
159.7005,-6.116524E-05
159.8006,-6.107672E-05
159.9006,-6.105317E-05
160.0006,-6.098537E-05
160.1006,-6.094865E-05
160.2006,-6.092698E-05
160.3006,-6.089308E-05
160.4006,-6.082904E-05
160.5006,-6.077536E-05
160.6006,-6.077066E-05
160.7006,-6.070285E-05
160.8006,-6.066047E-05
160.9006,-6.063034E-05
161.0006,-6.056536E-05
161.1006,-6.051639E-05
161.2006,-6.049755E-05
161.3006,-6.047212E-05
161.4007,-6.038925E-05
161.5007,-6.034782E-05
161.6007,-6.033464E-05
161.7007,-6.032145E-05
161.8007,-6.024988E-05
161.9007,-6.020091E-05
162.0007,-6.01623E-05
162.1007,-6.014158E-05
162.2007,-6.005871E-05
162.3007,-6.002669E-05
162.4007,-5.998431E-05
162.5007,-5.990709E-05
162.6007,-5.986188E-05
162.7007,-5.983175E-05
162.8007,-5.976018E-05
162.9007,-5.967542E-05
163.0007,-5.965188E-05
163.1008,-5.959632E-05
163.2008,-5.949367E-05
163.3008,-5.947201E-05
163.4008,-5.938348E-05
163.5008,-5.933169E-05
163.6008,-5.928366E-05
163.7008,-5.927519E-05
163.8008,-5.926012E-05
163.9008,-5.921492E-05
164.0008,-5.911792E-05
164.1008,-5.911604E-05
164.2008,-5.909626E-05
164.3008,-5.901809E-05
164.4008,-5.896912E-05
164.5008,-5.90002E-05
164.6008,-5.896253E-05
164.7009,-5.892769E-05
164.8009,-5.889755E-05
164.9009,-5.883634E-05
165.0009,-5.877324E-05
165.1009,-5.875817E-05
165.2009,-5.870073E-05
165.3009,-5.86866E-05
165.4009,-5.868001E-05
165.5009,-5.866118E-05
165.6009,-5.859054E-05
165.7009,-5.857454E-05
165.8009,-5.857831E-05
165.9009,-5.85397E-05
166.0009,-5.842198E-05
166.1009,-5.838148E-05
166.2009,-5.836642E-05
166.3009,-5.829296E-05
166.401,-5.827601E-05
166.501,-5.82534E-05
166.601,-5.818372E-05
166.701,-5.815358E-05
166.801,-5.809425E-05
166.901,-5.805753E-05
167.001,-5.801798E-05
167.101,-5.795205E-05
167.201,-5.792098E-05
167.301,-5.788613E-05
167.401,-5.78447E-05
167.501,-5.777312E-05
167.601,-5.76959E-05
167.701,-5.769025E-05
167.801,-5.760173E-05
167.901,-5.74859E-05
168.0011,-5.747554E-05
168.1011,-5.743505E-05
168.2011,-5.737383E-05
168.3011,-5.738136E-05
168.4011,-5.734841E-05
168.5011,-5.730885E-05
168.6011,-5.725988E-05
168.7011,-5.729944E-05
168.8011,-5.723916E-05
168.9011,-5.716477E-05
169.0011,-5.715723E-05
169.1011,-5.71271E-05
169.2011,-5.705458E-05
169.3011,-5.702445E-05
169.4011,-5.696324E-05
169.5011,-5.689261E-05
169.6012,-5.686718E-05
169.7012,-5.68022E-05
169.8012,-5.677677E-05
169.9012,-5.669955E-05
170.0012,-5.669767E-05
170.1012,-5.663269E-05
170.2012,-5.657148E-05
170.3012,-5.657807E-05
170.4012,-5.655076E-05
170.5012,-5.649708E-05
170.6012,-5.649708E-05
170.7012,-5.64726E-05
170.8012,-5.645094E-05
170.9012,-5.640291E-05
171.0012,-5.640479E-05
171.1012,-5.639914E-05
171.2012,-5.634829E-05
171.3013,-5.636147E-05
171.4013,-5.629837E-05
171.5013,-5.628896E-05
171.6013,-5.6256E-05
171.7013,-5.625411E-05
171.8013,-5.620703E-05
171.9013,-5.614393E-05
172.0013,-5.612227E-05
172.1013,-5.608837E-05
172.2013,-5.602339E-05
172.3013,-5.602245E-05
172.4013,-5.597536E-05
172.5013,-5.589531E-05
172.6013,-5.590567E-05
172.7013,-5.585011E-05
172.8013,-5.579549E-05
172.9014,-5.575405E-05
173.0014,-5.575217E-05
173.1014,-5.573522E-05
173.2014,-5.570697E-05
173.3014,-5.566271E-05
173.4014,-5.561939E-05
173.5014,-5.555629E-05
173.6014,-5.554499E-05
173.7014,-5.550544E-05
173.8014,-5.546494E-05
173.9014,-5.546588E-05
174.0014,-5.537925E-05
174.1014,-5.534064E-05
174.2014,-5.530202E-05
174.3014,-5.529543E-05
174.4014,-5.529166E-05
174.5014,-5.523799E-05
174.6015,-5.520785E-05
174.7015,-5.518054E-05
174.8015,-5.517771E-05
174.9015,-5.514663E-05
175.0015,-5.509296E-05
175.1015,-5.505435E-05
175.2015,-5.505529E-05
175.3015,-5.497336E-05
175.4015,-5.493381E-05
175.5015,-5.49225E-05
175.6015,-5.488013E-05
175.7015,-5.476994E-05
175.8015,-5.47464E-05
175.9015,-5.470967E-05
176.0015,-5.463151E-05
176.1015,-5.459761E-05
176.2016,-5.457406E-05
176.3016,-5.452133E-05
176.4016,-5.447424E-05
176.5016,-5.443469E-05
176.6016,-5.438384E-05
176.7016,-5.430473E-05
176.8016,-5.425953E-05
176.9016,-5.42341E-05
177.0016,-5.415782E-05
177.1016,-5.40806E-05
177.2016,-5.412674E-05
177.3016,-5.402127E-05
177.4016,-5.400996E-05
177.5016,-5.396006E-05
177.6016,-5.39205E-05
177.7016,-5.385176E-05
177.8017,-5.383293E-05
177.9017,-5.383575E-05
178.0017,-5.381315E-05
178.1017,-5.376041E-05
178.2017,-5.381126E-05
178.3017,-5.379525E-05
178.4017,-5.377736E-05
178.5017,-5.376512E-05
178.6017,-5.376041E-05
178.7017,-5.37218E-05
178.8017,-5.368036E-05
178.9017,-5.370014E-05
179.0017,-5.366812E-05
179.1017,-5.362103E-05
179.2017,-5.361538E-05
179.3017,-5.357206E-05
179.4017,-5.350614E-05
179.5018,-5.354663E-05
179.6018,-5.346564E-05
179.7018,-5.341856E-05
179.8018,-5.342138E-05
179.9018,-5.342986E-05
180.0018,-5.337053E-05
180.1018,-5.330743E-05
180.2018,-5.328295E-05
180.3018,-5.325093E-05
180.4018,-5.317936E-05
180.5018,-5.315393E-05
180.6018,-5.310779E-05
180.7018,-5.309837E-05
180.8018,-5.309743E-05
180.9018,-5.306165E-05
181.0018,-5.302586E-05
181.1019,-5.303716E-05
181.2019,-5.300137E-05
181.3019,-5.298818E-05
181.4019,-5.294392E-05
181.5019,-5.296559E-05
181.6019,-5.291379E-05
181.7019,-5.288271E-05
181.8019,-5.287047E-05
181.9019,-5.278101E-05
182.0019,-5.27537E-05
182.1019,-5.275558E-05
182.2019,-5.265764E-05
182.3019,-5.261526E-05
182.4019,-5.258984E-05
182.5019,-5.253522E-05
182.6019,-5.244198E-05
182.702,-5.237418E-05
182.802,-5.238548E-05
182.902,-5.229696E-05
183.002,-5.221879E-05
183.102,-5.219525E-05
183.202,-5.215476E-05
183.302,-5.208883E-05
183.402,-5.207E-05
183.502,-5.209072E-05
183.602,-5.201632E-05
183.702,-5.198054E-05
183.802,-5.192874E-05
183.902,-5.191085E-05
184.002,-5.186094E-05
184.102,-5.183457E-05
184.202,-5.177241E-05
184.302,-5.172815E-05
184.4021,-5.169896E-05
184.5021,-5.164716E-05
184.6021,-5.160102E-05
184.7021,-5.161232E-05
184.8021,-5.159254E-05
184.9021,-5.156617E-05
185.0021,-5.156617E-05
185.1021,-5.150685E-05
185.2021,-5.144469E-05
185.3021,-5.144563E-05
185.4021,-5.14381E-05
185.5021,-5.140514E-05
185.6021,-5.137029E-05
185.7021,-5.138442E-05
185.8021,-5.139195E-05
185.9021,-5.136841E-05
186.0022,-5.136182E-05
186.1022,-5.136558E-05
186.2022,-5.135052E-05
186.3022,-5.13298E-05
186.4022,-5.132227E-05
186.5022,-5.131379E-05
186.6022,-5.128742E-05
186.7022,-5.131002E-05
186.8022,-5.130814E-05
186.9022,-5.128931E-05
187.0022,-5.126482E-05
187.1022,-5.122621E-05
187.2022,-5.120455E-05
187.3022,-5.115087E-05
187.4022,-5.112639E-05
187.5022,-5.110755E-05
187.6022,-5.103975E-05
187.7023,-5.102374E-05
187.8023,-5.099454E-05
187.9023,-5.092486E-05
188.0023,-5.090319E-05
188.1023,-5.085988E-05
188.2023,-5.080525E-05
188.3023,-5.074122E-05
188.4023,-5.06687E-05
188.5023,-5.068094E-05
188.6023,-5.064516E-05
188.7023,-5.05896E-05
188.8023,-5.050955E-05
188.9023,-5.048507E-05
189.0023,-5.046153E-05
189.1023,-5.040502E-05
189.2023,-5.037582E-05
189.3024,-5.038336E-05
189.4024,-5.031085E-05
189.5024,-5.023833E-05
189.6024,-5.021102E-05
189.7024,-5.015075E-05
189.8024,-5.010272E-05
189.9024,-5.005187E-05
190.0024,-5.000761E-05
190.1024,-4.993886E-05
190.2024,-4.99172E-05
190.3024,-4.988895E-05
190.4024,-4.979383E-05
190.5024,-4.977029E-05
190.6024,-4.974204E-05
190.7024,-4.970532E-05
190.8024,-4.967423E-05
190.9025,-4.968836E-05
191.0025,-4.961397E-05
191.1025,-4.957724E-05
191.2025,-4.953957E-05
191.3025,-4.95471E-05
191.4025,-4.94567E-05
191.5025,-4.939643E-05
191.6025,-4.940302E-05
191.7025,-4.928624E-05
191.8025,-4.925611E-05
191.9025,-4.924669E-05
192.0025,-4.916664E-05
192.1025,-4.908471E-05
192.2025,-4.909225E-05
192.3025,-4.905458E-05
192.4025,-4.893875E-05
192.5025,-4.891237E-05
192.6026,-4.888884E-05
192.7026,-4.879748E-05
192.8026,-4.876264E-05
192.9026,-4.875793E-05
193.0026,-4.865999E-05
193.1026,-4.862797E-05
193.2026,-4.86534E-05
193.3026,-4.863456E-05
193.4026,-4.862138E-05
193.5026,-4.862797E-05
193.6026,-4.86082E-05
193.7026,-4.852815E-05
193.8026,-4.852909E-05
193.9026,-4.856111E-05
194.0026,-4.853192E-05
194.1026,-4.851685E-05
194.2027,-4.854133E-05
194.3027,-4.853662E-05
194.4027,-4.851496E-05
194.5027,-4.855358E-05
194.6027,-4.856017E-05
194.7027,-4.855075E-05
194.8027,-4.858371E-05
194.9027,-4.859124E-05
195.0027,-4.862703E-05
195.1027,-4.863268E-05
195.2027,-4.868636E-05
195.3027,-4.867883E-05
195.4027,-4.868918E-05
195.5027,-4.873062E-05
195.6027,-4.871838E-05
195.7027,-4.872403E-05
195.8027,-4.877959E-05
195.9028,-4.880972E-05
196.0028,-4.878618E-05
196.1028,-4.881067E-05
196.2028,-4.886058E-05
196.3028,-4.882762E-05
196.4028,-4.882385E-05
196.5028,-4.880878E-05
196.6028,-4.876829E-05
196.7028,-4.873721E-05
196.8028,-4.87391E-05
196.9028,-4.868353E-05
197.0028,-4.861479E-05
197.1028,-4.859784E-05
197.2028,-4.859124E-05
197.3028,-4.854133E-05
197.4028,-4.846411E-05
197.5029,-4.843491E-05
197.6029,-4.83963E-05
197.7029,-4.831814E-05
197.8029,-4.828801E-05
197.9029,-4.822114E-05
198.0029,-4.814486E-05
198.1029,-4.814298E-05
198.2029,-4.811284E-05
198.3029,-4.803562E-05
198.4029,-4.798006E-05
198.5029,-4.796217E-05
198.6029,-4.788495E-05
198.7029,-4.781055E-05
198.8029,-4.780772E-05
198.9029,-4.772391E-05
199.0029,-4.762597E-05
199.103,-4.763821E-05
199.203,-4.757512E-05
199.303,-4.749601E-05
199.403,-4.743762E-05
199.503,-4.740749E-05
199.603,-4.733968E-05
199.703,-4.728789E-05
199.803,-4.728789E-05
199.903,-4.722385E-05
200.003,-4.71551E-05
200.103,-4.71617E-05
200.203,-4.709201E-05
200.303,-4.701384E-05
200.403,-4.697523E-05
200.503,-4.698559E-05
200.603,-4.688577E-05
200.703,-4.681985E-05
200.8031,-4.680007E-05
200.9031,-4.675204E-05
201.0031,-4.667953E-05
201.1031,-4.665504E-05
201.2031,-4.659383E-05
201.3031,-4.651378E-05
201.4031,-4.648741E-05
201.5031,-4.642432E-05
201.6031,-4.634615E-05
201.7031,-4.629813E-05
201.8031,-4.628212E-05
201.9031,-4.623221E-05
202.0031,-4.615311E-05
202.1031,-4.612108E-05
202.2031,-4.6074E-05
202.3031,-4.600431E-05
202.4032,-4.592991E-05
202.5032,-4.589412E-05
202.6032,-4.584798E-05
202.7032,-4.576888E-05
202.8032,-4.572273E-05
202.9032,-4.568318E-05
203.0032,-4.559842E-05
203.1032,-4.556452E-05
203.2032,-4.552685E-05
203.3032,-4.550425E-05
203.4032,-4.547317E-05
203.5032,-4.538089E-05
203.6032,-4.53159E-05
203.7032,-4.53451E-05
203.8032,-4.528294E-05
203.9032,-4.524151E-05
204.0033,-4.519536E-05
204.1033,-4.520196E-05
204.2033,-4.51172E-05
204.3033,-4.504657E-05
204.4033,-4.503809E-05
204.5033,-4.497311E-05
204.6033,-4.490437E-05
204.7033,-4.488177E-05
204.8033,-4.484315E-05
204.9033,-4.483656E-05
205.0033,-4.480266E-05
205.1033,-4.475557E-05
205.2033,-4.47245E-05
205.3033,-4.468023E-05
205.4033,-4.466328E-05
205.5033,-4.462373E-05
205.6033,-4.461431E-05
205.7034,-4.461337E-05
205.8034,-4.456629E-05
205.9034,-4.450413E-05
206.0034,-4.450507E-05
206.1034,-4.446929E-05
206.2034,-4.44109E-05
206.3034,-4.437323E-05
206.4034,-4.436852E-05
206.5034,-4.43252E-05
206.6034,-4.427435E-05
206.7034,-4.426211E-05
206.8034,-4.424704E-05
206.9034,-4.416887E-05
207.0034,-4.415286E-05
207.1034,-4.413685E-05
207.2034,-4.407847E-05
207.3035,-4.402573E-05
207.4035,-4.401443E-05
207.5035,-4.394474E-05
207.6035,-4.388447E-05
207.7035,-4.392308E-05
207.8035,-4.383456E-05
207.9035,-4.378747E-05
208.0035,-4.38016E-05
208.1035,-4.377994E-05
208.2035,-4.374227E-05
208.3035,-4.370931E-05
208.4035,-4.366222E-05
208.5035,-4.359819E-05
208.6035,-4.355487E-05
208.7035,-4.352662E-05
208.8035,-4.347953E-05
208.9035,-4.344186E-05
209.0036,-4.342491E-05
209.1036,-4.343715E-05
209.2036,-4.338441E-05
209.3036,-4.335051E-05
209.4036,-4.334957E-05
209.5036,-4.3278E-05
209.6036,-4.324032E-05
209.7036,-4.325445E-05
209.8036,-4.318853E-05
209.9036,-4.316216E-05
210.0036,-4.31471E-05
210.1036,-4.311037E-05
210.2036,-4.307269E-05
210.3036,-4.311225E-05
210.4036,-4.305481E-05
210.5036,-4.298889E-05
210.6037,-4.298889E-05
210.7037,-4.299642E-05
210.8037,-4.294368E-05
210.9037,-4.29079E-05
211.0037,-4.290131E-05
211.1037,-4.28448E-05
211.2037,-4.280242E-05
211.3037,-4.285045E-05
211.4037,-4.279959E-05
211.5037,-4.272708E-05
211.6037,-4.271108E-05
211.7037,-4.270166E-05
211.8037,-4.263668E-05
211.9037,-4.262443E-05
212.0037,-4.259618E-05
212.1037,-4.255004E-05
212.2038,-4.250013E-05
212.3038,-4.249542E-05
212.4038,-4.242102E-05
212.5038,-4.239465E-05
212.6038,-4.240972E-05
212.7038,-4.235698E-05
212.8038,-4.229389E-05
212.9038,-4.225998E-05
213.0038,-4.222514E-05
213.1038,-4.218276E-05
213.2038,-4.213379E-05
213.3038,-4.210366E-05
213.4038,-4.204527E-05
213.5038,-4.202644E-05
213.6038,-4.200666E-05
213.7038,-4.194262E-05
213.8038,-4.192002E-05
213.9039,-4.189082E-05
214.0039,-4.18654E-05
214.1039,-4.184656E-05
214.2039,-4.18023E-05
214.3039,-4.178912E-05
214.4039,-4.174109E-05
214.5039,-4.172037E-05
214.6039,-4.172885E-05
214.7039,-4.168176E-05
214.8039,-4.163374E-05
214.9039,-4.161113E-05
215.0039,-4.158664E-05
215.1039,-4.153391E-05
215.2039,-4.150095E-05
215.3039,-4.152732E-05
215.4039,-4.145951E-05
215.504,-4.14209E-05
215.604,-4.145104E-05
215.704,-4.141243E-05
215.804,-4.135686E-05
215.904,-4.133991E-05
216.004,-4.130695E-05
216.104,-4.123915E-05
216.204,-4.12043E-05
216.304,-4.121278E-05
216.404,-4.116946E-05
216.504,-4.110825E-05
216.604,-4.112426E-05
216.704,-4.111672E-05
216.804,-4.103856E-05
216.904,-4.105551E-05
217.004,-4.109506E-05
217.104,-4.108847E-05
217.2041,-4.112237E-05
217.3041,-4.110542E-05
217.4041,-4.107152E-05
217.5041,-4.105834E-05
217.6041,-4.105363E-05
217.7041,-4.103762E-05
217.8041,-4.100278E-05
217.9041,-4.102349E-05
218.0041,-4.100936E-05
218.1041,-4.098111E-05
218.2041,-4.095004E-05
218.3041,-4.09312E-05
218.4041,-4.090578E-05
218.5041,-4.085116E-05
218.6041,-4.085963E-05
218.7041,-4.084362E-05
218.8042,-4.079747E-05
218.9042,-4.076169E-05
219.0042,-4.075227E-05
219.1042,-4.071366E-05
219.2042,-4.064397E-05
219.3042,-4.06355E-05
219.4042,-4.059877E-05
219.5042,-4.052155E-05
219.6042,-4.050083E-05
219.7042,-4.048106E-05
219.8042,-4.04189E-05
219.9042,-4.041325E-05
220.0042,-4.042455E-05
220.1042,-4.036899E-05
220.2042,-4.036522E-05
220.3042,-4.035298E-05
220.4043,-4.028706E-05
220.5043,-4.025127E-05
220.6043,-4.020795E-05
220.7043,-4.017311E-05
220.8043,-4.012414E-05
220.9043,-4.009306E-05
221.0043,-4.004126E-05
221.1043,-4.000548E-05
221.2043,-3.999418E-05
221.3043,-3.994332E-05
221.4043,-3.986516E-05
221.5043,-3.988211E-05
221.6043,-3.982467E-05
221.7043,-3.97691E-05
221.8043,-3.973991E-05
221.9043,-3.972296E-05
222.0043,-3.964103E-05
222.1044,-3.961278E-05
222.2044,-3.958359E-05
222.3044,-3.951107E-05
222.4044,-3.946869E-05
222.5044,-3.946304E-05
222.6044,-3.942066E-05
222.7044,-3.937075E-05
222.8044,-3.935663E-05
222.9044,-3.933308E-05
223.0044,-3.930295E-05
223.1044,-3.923044E-05
223.2044,-3.92116E-05
223.3044,-3.915509E-05
223.4044,-3.912778E-05
223.5044,-3.909671E-05
223.6044,-3.906187E-05
223.7045,-3.901761E-05
223.8045,-3.899123E-05
223.9045,-3.894603E-05
224.0045,-3.890365E-05
224.1045,-3.889141E-05
224.2045,-3.888859E-05
224.3045,-3.883208E-05
224.4045,-3.881137E-05
224.5045,-3.884433E-05
224.6045,-3.878876E-05
224.7045,-3.873885E-05
224.8045,-3.877464E-05
224.9045,-3.871907E-05
225.0045,-3.866257E-05
225.1045,-3.867858E-05
225.2045,-3.867858E-05
225.3046,-3.862773E-05
225.4046,-3.857405E-05
225.5046,-3.85684E-05
225.6046,-3.85166E-05
225.7046,-3.845633E-05
225.8046,-3.847328E-05
225.9046,-3.842431E-05
226.0046,-3.83631E-05
226.1046,-3.837063E-05
226.2046,-3.83744E-05
226.3046,-3.828023E-05
226.4046,-3.825668E-05
226.5046,-3.825198E-05
226.6046,-3.820772E-05
226.7046,-3.816345E-05
226.8046,-3.812955E-05
226.9046,-3.809847E-05
227.0047,-3.806458E-05
227.1047,-3.803538E-05
227.2047,-3.799017E-05
227.3047,-3.793744E-05
227.4047,-3.794685E-05
227.5047,-3.790165E-05
227.6047,-3.784232E-05
227.7047,-3.780183E-05
227.8047,-3.778205E-05
227.9047,-3.774062E-05
228.0047,-3.768411E-05
228.1047,-3.76681E-05
228.2047,-3.762855E-05
228.3047,-3.756639E-05
228.4047,-3.759841E-05
228.5047,-3.757769E-05
228.6048,-3.751366E-05
228.7048,-3.749388E-05
228.8048,-3.747317E-05
228.9048,-3.740536E-05
229.0048,-3.74063E-05
229.1048,-3.74063E-05
229.2048,-3.734697E-05
229.3048,-3.73093E-05
229.4048,-3.731966E-05
229.5048,-3.732343E-05
229.6048,-3.726975E-05
229.7048,-3.728952E-05
229.8048,-3.725562E-05
229.9048,-3.719818E-05
230.0048,-3.721795E-05
230.1048,-3.722173E-05
230.2048,-3.715297E-05
230.3049,-3.710872E-05
230.4049,-3.711248E-05
230.5049,-3.70701E-05
230.6049,-3.704185E-05
230.7049,-3.707199E-05
230.8049,-3.702867E-05
230.9049,-3.695992E-05
231.0049,-3.697122E-05
231.1049,-3.694391E-05
231.2049,-3.689965E-05
231.3049,-3.686951E-05
231.4049,-3.687987E-05
231.5049,-3.683279E-05
231.6049,-3.679135E-05
231.7049,-3.679135E-05
231.8049,-3.677534E-05
231.905,-3.672072E-05
232.005,-3.672449E-05
232.105,-3.66953E-05
232.205,-3.665668E-05
232.305,-3.665574E-05
232.405,-3.664727E-05
232.505,-3.657946E-05
232.605,-3.652484E-05
232.705,-3.654933E-05
232.805,-3.651825E-05
232.905,-3.646269E-05
233.005,-3.647587E-05
233.105,-3.643632E-05
233.205,-3.63751E-05
233.305,-3.635156E-05
233.405,-3.633461E-05
233.5051,-3.627999E-05
233.6051,-3.62395E-05
233.7051,-3.622349E-05
233.8051,-3.618582E-05
233.9051,-3.611048E-05
234.0051,-3.610765E-05
234.1051,-3.607657E-05
234.2051,-3.600877E-05
234.3051,-3.597864E-05
234.4051,-3.597016E-05
234.5051,-3.594474E-05
234.6051,-3.588164E-05
234.7051,-3.583361E-05
234.8051,-3.580159E-05
234.9051,-3.577711E-05
235.0051,-3.571966E-05
235.1051,-3.567069E-05
235.2052,-3.56302E-05
235.3052,-3.559818E-05
235.4052,-3.556428E-05
235.5052,-3.551154E-05
235.6052,-3.549365E-05
235.7052,-3.545315E-05
235.8052,-3.538911E-05
235.9052,-3.537969E-05
236.0052,-3.532508E-05
236.1052,-3.524879E-05
236.2052,-3.521112E-05
236.3052,-3.516215E-05
236.4052,-3.512826E-05
236.5052,-3.50887E-05
236.6052,-3.508776E-05
236.7052,-3.504538E-05
236.8053,-3.501619E-05
236.9053,-3.503314E-05
237.0053,-3.501901E-05
237.1053,-3.496345E-05
237.2053,-3.493143E-05
237.3053,-3.490224E-05
237.4053,-3.486269E-05
237.5053,-3.486362E-05
237.6053,-3.481654E-05
237.7053,-3.478358E-05
237.8053,-3.478452E-05
237.9053,-3.47751E-05
238.0053,-3.468752E-05
238.1053,-3.469977E-05
238.2053,-3.470824E-05
238.3053,-3.465362E-05
238.4053,-3.459617E-05
238.5054,-3.46555E-05
238.6054,-3.45877E-05
238.7054,-3.453496E-05
238.8054,-3.45538E-05
238.9054,-3.453214E-05
239.0054,-3.448599E-05
239.1054,-3.44568E-05
239.2054,-3.445492E-05
239.3054,-3.43824E-05
239.4054,-3.43598E-05
239.5054,-3.435321E-05
239.6054,-3.427787E-05
239.7054,-3.42581E-05
239.8054,-3.425715E-05
239.9054,-3.422137E-05
240.0054,-3.416109E-05
240.1055,-3.419406E-05
240.2055,-3.422042E-05
240.3055,-3.415544E-05
240.4055,-3.412625E-05
240.5055,-3.412437E-05
240.6055,-3.40914E-05
240.7055,-3.408105E-05
240.8055,-3.405562E-05
240.9055,-3.401983E-05
241.0055,-3.399441E-05
241.1055,-3.396522E-05
241.2055,-3.393131E-05
241.3055,-3.390871E-05
241.4055,-3.386728E-05
241.5055,-3.384185E-05
241.6055,-3.379853E-05
241.7056,-3.377593E-05
241.8056,-3.376839E-05
241.9056,-3.372696E-05
242.0056,-3.367893E-05
242.1056,-3.367422E-05
242.2056,-3.365162E-05
242.3056,-3.360171E-05
242.4056,-3.359417E-05
242.5056,-3.353767E-05
242.6056,-3.349811E-05
242.7056,-3.34774E-05
242.8056,-3.346798E-05
242.9056,-3.339076E-05
243.0056,-3.3403E-05
243.1056,-3.337004E-05
243.2056,-3.333614E-05
243.3056,-3.330789E-05
243.4057,-3.330695E-05
243.5057,-3.326174E-05
243.6057,-3.319206E-05
243.7057,-3.31751E-05
243.8057,-3.315438E-05
243.9057,-3.313744E-05
244.0057,-3.307905E-05
244.1057,-3.305456E-05
244.2057,-3.303949E-05
244.3057,-3.298676E-05
244.4057,-3.296886E-05
244.5057,-3.293873E-05
244.6057,-3.289447E-05
244.7057,-3.290294E-05
244.8057,-3.288128E-05
244.9057,-3.286244E-05
245.0058,-3.286527E-05
245.1058,-3.282666E-05
245.2058,-3.281442E-05
245.3058,-3.281536E-05
245.4058,-3.278805E-05
245.5058,-3.275415E-05
245.6058,-3.273437E-05
245.7058,-3.273155E-05
245.8058,-3.268634E-05
245.9058,-3.266468E-05
246.0058,-3.262607E-05
246.1058,-3.260535E-05
246.2058,-3.257334E-05
246.3058,-3.255733E-05
246.4058,-3.25319E-05
246.5058,-3.250176E-05
246.6059,-3.247257E-05
246.7059,-3.24754E-05
246.8059,-3.243302E-05
246.9059,-3.239817E-05
247.0059,-3.240194E-05
247.1059,-3.234826E-05
247.2059,-3.231624E-05
247.3059,-3.230589E-05
247.4059,-3.229364E-05
247.5059,-3.225126E-05
247.6059,-3.22136E-05
247.7059,-3.221548E-05
247.8059,-3.217969E-05
247.9059,-3.214297E-05
248.0059,-3.214485E-05
248.1059,-3.209776E-05
248.2059,-3.206386E-05
248.306,-3.20874E-05
248.406,-3.204785E-05
248.506,-3.200829E-05
248.606,-3.201206E-05
248.706,-3.199417E-05
248.806,-3.194708E-05
248.906,-3.193014E-05
249.006,-3.192354E-05
249.106,-3.187175E-05
249.206,-3.184444E-05
249.306,-3.184444E-05
249.406,-3.179358E-05
249.506,-3.175686E-05
249.606,-3.175591E-05
249.706,-3.171448E-05
249.806,-3.166174E-05
249.9061,-3.165797E-05
250.0061,-3.166457E-05
250.1061,-3.162219E-05
250.2061,-3.158452E-05
250.3061,-3.159959E-05
250.4061,-3.157981E-05
250.5061,-3.153555E-05
250.6061,-3.153555E-05
250.7061,-3.151954E-05
250.8061,-3.147621E-05
250.9061,-3.144796E-05
251.0061,-3.14668E-05
251.1061,-3.142819E-05
251.2061,-3.138393E-05
251.3061,-3.142442E-05
251.4061,-3.138864E-05
251.5061,-3.133307E-05
251.6062,-3.135002E-05
251.7062,-3.134344E-05
251.8062,-3.130388E-05
251.9062,-3.125774E-05
252.0062,-3.128505E-05
252.1062,-3.125209E-05
252.2062,-3.124173E-05
252.3062,-3.124832E-05
252.4062,-3.125585E-05
252.5062,-3.122478E-05
252.6062,-3.12681E-05
252.7062,-3.123419E-05
252.8062,-3.119747E-05
252.9062,-3.118993E-05
253.0062,-3.117204E-05
253.1062,-3.114755E-05
253.2063,-3.114755E-05
253.3063,-3.115791E-05
253.4063,-3.112966E-05
253.5063,-3.113155E-05
253.6063,-3.116356E-05
253.7063,-3.114661E-05
253.8063,-3.1108E-05
253.9063,-3.113343E-05
254.0063,-3.111177E-05
254.1063,-3.109953E-05
254.2063,-3.109105E-05
254.3063,-3.109199E-05
254.4063,-3.105621E-05
254.5063,-3.104208E-05
254.6063,-3.105056E-05
254.7063,-3.099217E-05
254.8064,-3.097239E-05
254.9064,-3.098275E-05
255.0064,-3.092342E-05
255.1064,-3.090741E-05
255.2064,-3.092342E-05
255.3064,-3.088293E-05
255.4064,-3.083302E-05
255.5064,-3.084714E-05
255.6064,-3.08462E-05
255.7064,-3.0801E-05
255.8064,-3.076804E-05
255.9064,-3.079723E-05
256.0064,-3.076804E-05
256.1064,-3.071813E-05
256.2064,-3.071247E-05
256.3064,-3.070494E-05
256.4064,-3.067857E-05
256.5064,-3.064749E-05
256.6064,-3.062018E-05
256.7065,-3.060229E-05
256.8065,-3.05505E-05
256.9065,-3.055615E-05
257.0065,-3.054767E-05
257.1065,-3.049682E-05
257.2065,-3.047233E-05
257.3065,-3.045821E-05
257.4065,-3.041206E-05
257.5065,-3.038193E-05
257.6065,-3.035462E-05
257.7065,-3.031601E-05
257.8065,-3.028116E-05
257.9065,-3.026139E-05
258.0065,-3.022371E-05
258.1065,-3.019923E-05
258.2065,-3.017757E-05
258.3065,-3.01738E-05
258.4066,-3.013519E-05
258.5066,-3.015309E-05
258.6066,-3.009281E-05
258.7066,-3.005703E-05
258.8066,-3.002407E-05
258.9066,-2.999393E-05
259.0066,-2.997604E-05
259.1066,-2.995156E-05
259.2066,-2.994025E-05
259.3066,-2.991954E-05
259.4066,-2.989976E-05
259.5066,-2.988375E-05
259.6066,-2.986774E-05
259.7066,-2.984796E-05
259.8066,-2.979335E-05
259.9066,-2.977828E-05
260.0067,-2.976321E-05
260.1067,-2.971801E-05
260.2067,-2.973213E-05
260.3067,-2.969069E-05
260.4067,-2.965868E-05
260.5067,-2.969258E-05
260.6067,-2.972177E-05
260.7067,-2.966715E-05
260.8067,-2.967751E-05
260.9067,-2.96728E-05
261.0067,-2.960029E-05
261.1067,-2.961818E-05
261.2067,-2.960029E-05
261.3067,-2.956356E-05
261.4067,-2.955226E-05
261.5067,-2.957109E-05
261.6068,-2.954284E-05
261.7068,-2.952872E-05
261.8068,-2.953625E-05
261.9068,-2.950423E-05
262.0068,-2.949105E-05
262.1068,-2.950894E-05
262.2068,-2.947221E-05
262.3068,-2.945056E-05
262.4068,-2.947221E-05
262.5068,-2.94562E-05
262.6068,-2.939688E-05
262.7068,-2.939123E-05
262.8068,-2.93884E-05
262.9068,-2.93366E-05
263.0068,-2.933472E-05
263.1068,-2.93206E-05
263.2068,-2.928198E-05
263.3069,-2.924902E-05
263.4069,-2.916333E-05
263.5069,-2.905785E-05
263.6069,-2.899287E-05
263.7069,-2.896368E-05
263.8069,-2.898911E-05
263.9069,-2.895144E-05
264.0069,-2.890529E-05
264.1069,-2.894579E-05
264.2069,-2.893354E-05
264.3069,-2.887233E-05
264.4069,-2.884691E-05
264.5069,-2.881865E-05
264.6069,-2.880641E-05
264.7069,-2.876874E-05
264.8069,-2.876027E-05
264.907,-2.875462E-05
265.007,-2.871789E-05
265.107,-2.869905E-05
265.207,-2.866609E-05
265.307,-2.862277E-05
265.407,-2.863784E-05
265.507,-2.858699E-05
265.607,-2.853802E-05
265.707,-2.852295E-05
265.807,-2.853613E-05
265.907,-2.846833E-05
266.007,-2.841371E-05
266.107,-2.843254E-05
266.207,-2.842878E-05
266.307,-2.837698E-05
266.407,-2.835532E-05
266.507,-2.832895E-05
266.6071,-2.828375E-05
266.7071,-2.827056E-05
266.8071,-2.825173E-05
266.9071,-2.822913E-05
267.0071,-2.822819E-05
267.1071,-2.822724E-05
267.2071,-2.818299E-05
267.3071,-2.814343E-05
267.4071,-2.813213E-05
267.5071,-2.810199E-05
267.6071,-2.808128E-05
267.7071,-2.80841E-05
267.8071,-2.803796E-05
267.9071,-2.801442E-05
268.0071,-2.79758E-05
268.1071,-2.798993E-05
268.2072,-2.797957E-05
268.3072,-2.793813E-05
268.4072,-2.794567E-05
268.5072,-2.7908E-05
268.6072,-2.785149E-05
268.7072,-2.78449E-05
268.8072,-2.781853E-05
268.9072,-2.779122E-05
269.0072,-2.776109E-05
269.1072,-2.775356E-05
269.2072,-2.771589E-05
269.3072,-2.767633E-05
269.4072,-2.768104E-05
269.5072,-2.764431E-05
269.6072,-2.762265E-05
269.7072,-2.761135E-05
269.8073,-2.760193E-05
269.9073,-2.758687E-05
270.0073,-2.755862E-05
270.1073,-2.754355E-05
270.2073,-2.755579E-05
270.3073,-2.750211E-05
270.4073,-2.750682E-05
270.5073,-2.748705E-05
270.6073,-2.744938E-05
270.7073,-2.745032E-05
270.8073,-2.743713E-05
270.9073,-2.737215E-05
271.0073,-2.734578E-05
271.1073,-2.732507E-05
271.2073,-2.731942E-05
271.3073,-2.727986E-05
271.4073,-2.726951E-05
271.5074,-2.724125E-05
271.6074,-2.721018E-05
271.7074,-2.71904E-05
271.8074,-2.717062E-05
271.9074,-2.713578E-05
272.0074,-2.713766E-05
272.1074,-2.709152E-05
272.2074,-2.705856E-05
272.3074,-2.705856E-05
272.4074,-2.704255E-05
272.5074,-2.69964E-05
272.6074,-2.697851E-05
272.7074,-2.698981E-05
272.8074,-2.692954E-05
272.9074,-2.689093E-05
273.0074,-2.690505E-05
273.1075,-2.688528E-05
273.2075,-2.684384E-05
273.3075,-2.684196E-05
273.4075,-2.680806E-05
273.5075,-2.675815E-05
273.6075,-2.675815E-05
273.7075,-2.673648E-05
273.8075,-2.669599E-05
273.9075,-2.665455E-05
274.0075,-2.668657E-05
274.1075,-2.664419E-05
274.2075,-2.659617E-05
274.3075,-2.660087E-05
274.4075,-2.656697E-05
274.5075,-2.652271E-05
274.6075,-2.654531E-05
274.7076,-2.65067E-05
274.8076,-2.645302E-05
274.9076,-2.644455E-05
275.0076,-2.643795E-05
275.1076,-2.641065E-05
275.2076,-2.637486E-05
275.3076,-2.640123E-05
275.4076,-2.637863E-05
275.5076,-2.631647E-05
275.6076,-2.633154E-05
275.7076,-2.633248E-05
275.8076,-2.62788E-05
275.9076,-2.626279E-05
276.0076,-2.627221E-05
276.1076,-2.625243E-05
276.2076,-2.622041E-05
276.3076,-2.628069E-05
276.4077,-2.624961E-05
276.5077,-2.61884E-05
276.6077,-2.622041E-05
276.7077,-2.621288E-05
276.8077,-2.614696E-05
276.9077,-2.613754E-05
277.0077,-2.614413E-05
277.1077,-2.608952E-05
277.2077,-2.60914E-05
277.3077,-2.60914E-05
277.4077,-2.604431E-05
277.5077,-2.600382E-05
277.6077,-2.604054E-05
277.7077,-2.605467E-05
277.8077,-2.601229E-05
277.9077,-2.599817E-05
278.0078,-2.597557E-05
278.1078,-2.592942E-05
278.2078,-2.590023E-05
278.3078,-2.590588E-05
278.4078,-2.589552E-05
278.5078,-2.584561E-05
278.6078,-2.588422E-05
278.7078,-2.583996E-05
278.8078,-2.580134E-05
278.9078,-2.579381E-05
279.0078,-2.576462E-05
279.1078,-2.572318E-05
279.2078,-2.570717E-05
279.3078,-2.571659E-05
279.4078,-2.567421E-05
279.5078,-2.563748E-05
279.6078,-2.567515E-05
279.7079,-2.565161E-05
279.8079,-2.559134E-05
279.9079,-2.560641E-05
280.0079,-2.559228E-05
280.1079,-2.552636E-05
280.2079,-2.550941E-05
280.3079,-2.552448E-05
280.4079,-2.548304E-05
280.5079,-2.543595E-05
280.6079,-2.545291E-05
280.7079,-2.541053E-05
280.8079,-2.53559E-05
280.9079,-2.535873E-05
281.0079,-2.534931E-05
281.1079,-2.528151E-05
281.2079,-2.528245E-05
281.308,-2.528904E-05
281.408,-2.52203E-05
281.508,-2.520146E-05
281.608,-2.521182E-05
281.708,-2.518074E-05
281.808,-2.511859E-05
281.908,-2.511859E-05
282.008,-2.511953E-05
282.108,-2.505267E-05
282.208,-2.506397E-05
282.308,-2.502442E-05
282.408,-2.499616E-05
282.508,-2.497827E-05
282.608,-2.496132E-05
282.708,-2.490764E-05
282.808,-2.488504E-05
282.9081,-2.487186E-05
283.0081,-2.484266E-05
283.1081,-2.479463E-05
283.2081,-2.478333E-05
283.3081,-2.475979E-05
283.4081,-2.471082E-05
283.5081,-2.468351E-05
283.6081,-2.465902E-05
283.7081,-2.466373E-05
283.8081,-2.464396E-05
283.9081,-2.461382E-05
284.0081,-2.45705E-05
284.1081,-2.453095E-05
284.2081,-2.450647E-05
284.3081,-2.448951E-05
284.4081,-2.446126E-05
284.5081,-2.442642E-05
284.6082,-2.440476E-05
284.7082,-2.437839E-05
284.8082,-2.437086E-05
284.9082,-2.430493E-05
285.0082,-2.427762E-05
285.1082,-2.428233E-05
285.2082,-2.42635E-05
285.3082,-2.420793E-05
285.4082,-2.42004E-05
285.5082,-2.41778E-05
285.6082,-2.415049E-05
285.7082,-2.412036E-05
285.8082,-2.411282E-05
285.9082,-2.406668E-05
286.0082,-2.405537E-05
286.1082,-2.405632E-05
286.2083,-2.402524E-05
286.3083,-2.397062E-05
286.4083,-2.397156E-05
286.5083,-2.394237E-05
286.6083,-2.393012E-05
286.7083,-2.391412E-05
286.8083,-2.389905E-05
286.9083,-2.387268E-05
287.0083,-2.385667E-05
287.1083,-2.383595E-05
287.2083,-2.379357E-05
287.3083,-2.380299E-05
287.4083,-2.376626E-05
287.5083,-2.374084E-05
287.6083,-2.372577E-05
287.7083,-2.373613E-05
287.8083,-2.376344E-05
287.9084,-2.373801E-05
288.0084,-2.375779E-05
288.1084,-2.375779E-05
288.2084,-2.371353E-05
288.3084,-2.368433E-05
288.4084,-2.371258E-05
288.5084,-2.370411E-05
288.6084,-2.367492E-05
288.7084,-2.368057E-05
288.8084,-2.366079E-05
288.9084,-2.363348E-05
289.0084,-2.361935E-05
289.1084,-2.36137E-05
289.2084,-2.360805E-05
289.3084,-2.358545E-05
289.4084,-2.358828E-05
289.5085,-2.355532E-05
289.6085,-2.35346E-05
289.7085,-2.354778E-05
289.8085,-2.354496E-05
289.9085,-2.348657E-05
290.0085,-2.348469E-05
290.1085,-2.348563E-05
290.2085,-2.346114E-05
290.3085,-2.345549E-05
290.4085,-2.348657E-05
290.5085,-2.345643E-05
290.6085,-2.341406E-05
290.7085,-2.346208E-05
290.8085,-2.343477E-05
290.9085,-2.338486E-05
291.0085,-2.339051E-05
291.1086,-2.340276E-05
291.2086,-2.332647E-05
291.3086,-2.333401E-05
291.4086,-2.333778E-05
291.5086,-2.328881E-05
291.6086,-2.328692E-05
291.7086,-2.3318E-05
291.8086,-2.326715E-05
291.9086,-2.323042E-05
292.0086,-2.32728E-05
292.1086,-2.328881E-05
292.2086,-2.323042E-05
292.3086,-2.322477E-05
292.4086,-2.321158E-05
292.5086,-2.319181E-05
292.6086,-2.318239E-05
292.7086,-2.317956E-05
292.8087,-2.317956E-05
292.9087,-2.315979E-05
293.0087,-2.31871E-05
293.1087,-2.318522E-05
293.2087,-2.317297E-05
293.3087,-2.315696E-05
293.4087,-2.316073E-05
293.5087,-2.312495E-05
293.6087,-2.31306E-05
293.7087,-2.317392E-05
293.8087,-2.315226E-05
293.9087,-2.312118E-05
294.0087,-2.313907E-05
294.1087,-2.313813E-05
294.2087,-2.309481E-05
294.3087,-2.310423E-05
294.4088,-2.309293E-05
294.5088,-2.306938E-05
294.6088,-2.30675E-05
294.7088,-2.308728E-05
294.8088,-2.307503E-05
294.9088,-2.303266E-05
295.0088,-2.310046E-05
295.1088,-2.304113E-05
295.2088,-2.302135E-05
295.3088,-2.301288E-05
295.4088,-2.300346E-05
295.5088,-2.297238E-05
295.6088,-2.295826E-05
295.7088,-2.297709E-05
295.8088,-2.294319E-05
295.9088,-2.290835E-05
296.0089,-2.296202E-05
296.1089,-2.293566E-05
296.2089,-2.288104E-05
296.3089,-2.287727E-05
296.4089,-2.287162E-05
296.5089,-2.283301E-05
296.6089,-2.280852E-05
296.7089,-2.282736E-05
296.8089,-2.277556E-05
296.9089,-2.277274E-05
297.0089,-2.275955E-05
297.1089,-2.273601E-05
297.2089,-2.270022E-05
297.3089,-2.271623E-05
297.4089,-2.267574E-05
297.5089,-2.264466E-05
297.6089,-2.263807E-05
297.709,-2.264184E-05
297.809,-2.259381E-05
297.909,-2.258439E-05
298.009,-2.255237E-05
298.109,-2.254013E-05
298.209,-2.252224E-05
298.309,-2.250434E-05
298.409,-2.247798E-05
298.509,-2.248268E-05
298.609,-2.250623E-05
298.709,-2.243842E-05
298.809,-2.23904E-05
298.909,-2.241676E-05
299.009,-2.240075E-05
299.109,-2.235273E-05
299.209,-2.234237E-05
299.3091,-2.23499E-05
299.4091,-2.230187E-05
299.5091,-2.225573E-05
299.6091,-2.228209E-05
299.7091,-2.226985E-05
299.8091,-2.22303E-05
299.9091,-2.222088E-05
300.0091,-2.224066E-05
300.1091,-2.218133E-05
300.2091,-2.219357E-05
300.3091,-2.218039E-05
300.4091,-2.215873E-05
300.5091,-2.214649E-05
300.6091,-2.218321E-05
300.7091,-2.216626E-05
300.8091,-2.212294E-05
300.9091,-2.212859E-05
301.0092,-2.211164E-05
301.1092,-2.207115E-05
301.2092,-2.209563E-05
301.3092,-2.209092E-05
301.4092,-2.201935E-05
301.5092,-2.201088E-05
301.6092,-2.200617E-05
301.7092,-2.196944E-05
301.8092,-2.195155E-05
301.9092,-2.195908E-05
302.0092,-2.192894E-05
302.1092,-2.188374E-05
302.2092,-2.18828E-05
302.3092,-2.189222E-05
302.4092,-2.183477E-05
302.5092,-2.186208E-05
302.6093,-2.183477E-05
302.7093,-2.177921E-05
302.8093,-2.175472E-05
302.9093,-2.173401E-05
303.0093,-2.173966E-05
303.1093,-2.170764E-05
303.2093,-2.1718E-05
303.3093,-2.171235E-05
303.4093,-2.164925E-05
303.5093,-2.164643E-05
303.6093,-2.164454E-05
303.7093,-2.162194E-05
303.8093,-2.160311E-05
303.9093,-2.160687E-05
304.0093,-2.160311E-05
304.1093,-2.157015E-05
304.2094,-2.165019E-05
304.3094,-2.160876E-05
304.4094,-2.153718E-05
304.5094,-2.158992E-05
304.6094,-2.159275E-05
304.7094,-2.153718E-05
304.8094,-2.150799E-05
304.9094,-2.154754E-05
305.0094,-2.151082E-05
305.1094,-2.147974E-05
305.2094,-2.154189E-05
305.3094,-2.149858E-05
305.4094,-2.146561E-05
305.5094,-2.149104E-05
305.6094,-2.150234E-05
305.7094,-2.144678E-05
305.8094,-2.141853E-05
305.9095,-2.144301E-05
306.0095,-2.141476E-05
306.1095,-2.140252E-05
306.2095,-2.142606E-05
306.3095,-2.142983E-05
306.4095,-2.141099E-05
306.5095,-2.145337E-05
306.6095,-2.14383E-05
306.7095,-2.139969E-05
306.8095,-2.142135E-05
306.9095,-2.139687E-05
307.0095,-2.138368E-05
307.1095,-2.136861E-05
307.2095,-2.136391E-05
307.3095,-2.136296E-05
307.4095,-2.135731E-05
307.5096,-2.142041E-05
307.6096,-2.144019E-05
307.7096,-2.140252E-05
307.8096,-2.142889E-05
307.9096,-2.142135E-05
308.0096,-2.139498E-05
308.1096,-2.139027E-05
308.2096,-2.138463E-05
308.3096,-2.136673E-05
308.4096,-2.137709E-05
308.5096,-2.139969E-05
308.6096,-2.137898E-05
308.7096,-2.135543E-05
308.8096,-2.140628E-05
308.9096,-2.136108E-05
309.0096,-2.135449E-05
309.1096,-2.138086E-05
309.2097,-2.13818E-05
309.3097,-2.134507E-05
309.4097,-2.134319E-05
309.5097,-2.136767E-05
309.6097,-2.13187E-05
309.7097,-2.131023E-05
309.8097,-2.134978E-05
309.9097,-2.131776E-05
310.0097,-2.129704E-05
310.1097,-2.132435E-05
310.2097,-2.133001E-05
310.3097,-2.129328E-05
310.4097,-2.129893E-05
310.5097,-2.132059E-05
310.6097,-2.128857E-05
310.7097,-2.127068E-05
310.8098,-2.129799E-05
310.9098,-2.128668E-05
311.0098,-2.128574E-05
311.1098,-2.12961E-05
311.2098,-2.127915E-05
311.3098,-2.124525E-05
311.4098,-2.123677E-05
311.5098,-2.12396E-05
311.6098,-2.124054E-05
311.7098,-2.122171E-05
311.8098,-2.124431E-05
311.9098,-2.122924E-05
312.0098,-2.120852E-05
312.1098,-2.123395E-05
312.2098,-2.123301E-05
312.3098,-2.121511E-05
312.4099,-2.119157E-05
312.5099,-2.118309E-05
312.6099,-2.115579E-05
312.7099,-2.114448E-05
312.8099,-2.113695E-05
312.9099,-2.112377E-05
313.0099,-2.110116E-05
313.1099,-2.110587E-05
313.2099,-2.111058E-05
313.3099,-2.109363E-05
313.4099,-2.110399E-05
313.5099,-2.108704E-05
313.6099,-2.107668E-05
313.7099,-2.10456E-05
313.8099,-2.104184E-05
313.9099,-2.102017E-05
314.0099,-2.103242E-05
314.11,-2.098816E-05
314.21,-2.098156E-05
314.31,-2.096273E-05
314.41,-2.096838E-05
314.51,-2.092223E-05
314.61,-2.090999E-05
314.71,-2.090999E-05
314.81,-2.088457E-05
314.91,-2.08516E-05
315.01,-2.086196E-05
315.11,-2.082712E-05
315.21,-2.081299E-05
315.31,-2.081299E-05
315.41,-2.080169E-05
315.51,-2.077438E-05
315.61,-2.075837E-05
315.7101,-2.075272E-05
315.8101,-2.071505E-05
315.9101,-2.071035E-05
316.0101,-2.071788E-05
316.1101,-2.067173E-05
316.2101,-2.066043E-05
316.3101,-2.063406E-05
316.4101,-2.061994E-05
316.5101,-2.058133E-05
316.6101,-2.059734E-05
316.7101,-2.055119E-05
316.8101,-2.053895E-05
316.9101,-2.05446E-05
317.0101,-2.053048E-05
317.1101,-2.048433E-05
317.2101,-2.050222E-05
317.3102,-2.048998E-05
317.4102,-2.04589E-05
317.5102,-2.043442E-05
317.6102,-2.048716E-05
317.7102,-2.04476E-05
317.8102,-2.042783E-05
317.9102,-2.043254E-05
318.0102,-2.041841E-05
318.1102,-2.036755E-05
318.2102,-2.035814E-05
318.3102,-2.035908E-05
318.4102,-2.03393E-05
318.5102,-2.030069E-05
318.6102,-2.034966E-05
318.7102,-2.033083E-05
318.8102,-2.028939E-05
318.9102,-2.03054E-05
319.0103,-2.028751E-05
319.1103,-2.025455E-05
319.2103,-2.024607E-05
319.3103,-2.023948E-05
319.4103,-2.025266E-05
319.5103,-2.022535E-05
319.6103,-2.021123E-05
319.7103,-2.021311E-05
319.8103,-2.019239E-05
319.9103,-2.019522E-05
320.0103,-2.018109E-05
320.1103,-2.015472E-05
320.2103,-2.017921E-05
320.3103,-2.015755E-05
320.4103,-2.016414E-05
320.5103,-2.015001E-05
320.6104,-2.016226E-05
320.7104,-2.014531E-05
320.8104,-2.011894E-05
320.9104,-2.010858E-05
321.0104,-2.008786E-05
321.1104,-2.005396E-05
321.2104,-2.008786E-05
321.3104,-2.006997E-05
321.4104,-2.004643E-05
321.5104,-2.004737E-05
321.6104,-2.004643E-05
321.7104,-1.999745E-05
321.8104,-1.99984E-05
321.9104,-2.002194E-05
322.0104,-1.999745E-05
322.1104,-1.994566E-05
322.2104,-2.000216E-05
322.3105,-1.996544E-05
322.4105,-1.992023E-05
322.5105,-1.994755E-05
322.6105,-1.994001E-05
322.7105,-1.991176E-05
322.8105,-1.988445E-05
322.9105,-1.988633E-05
323.0105,-1.986938E-05
323.1105,-1.985526E-05
323.2105,-1.985337E-05
323.3105,-1.982229E-05
323.4105,-1.981287E-05
323.5105,-1.981099E-05
323.6105,-1.979592E-05
323.7105,-1.976673E-05
323.8105,-1.976296E-05
323.9106,-1.974695E-05
324.0106,-1.973471E-05
324.1106,-1.971776E-05
324.2106,-1.968574E-05
324.3106,-1.966879E-05
324.4106,-1.969704E-05
324.5106,-1.965655E-05
324.6106,-1.964242E-05
324.7106,-1.964713E-05
324.8106,-1.962359E-05
324.9106,-1.958498E-05
325.0106,-1.958121E-05
325.1106,-1.960381E-05
325.2106,-1.956143E-05
325.3106,-1.953789E-05
325.4106,-1.956708E-05
325.5107,-1.953412E-05
325.6107,-1.950775E-05
325.7107,-1.953695E-05
325.8107,-1.947668E-05
325.9107,-1.946067E-05
326.0107,-1.946726E-05
326.1107,-1.947197E-05
326.2107,-1.943524E-05
326.3107,-1.939569E-05
326.4107,-1.940699E-05
326.5107,-1.938345E-05
326.6107,-1.935614E-05
326.7107,-1.935614E-05
326.8107,-1.935708E-05
326.9107,-1.934766E-05
327.0107,-1.933636E-05
327.1107,-1.932223E-05
327.2108,-1.928927E-05
327.3108,-1.929963E-05
327.4108,-1.929304E-05
327.5108,-1.924784E-05
327.6108,-1.926008E-05
327.7108,-1.924407E-05
327.8108,-1.922618E-05
327.9108,-1.920357E-05
328.0108,-1.919227E-05
328.1108,-1.916779E-05
328.2108,-1.915461E-05
328.3108,-1.917438E-05
328.4108,-1.915084E-05
328.5108,-1.913577E-05
328.6108,-1.915743E-05
328.7108,-1.915649E-05
328.8109,-1.914425E-05
328.9109,-1.922712E-05
329.0109,-1.921864E-05
329.1109,-1.919793E-05
329.2109,-1.919604E-05
329.3109,-1.921205E-05
329.4109,-1.916308E-05
329.5109,-1.915272E-05
329.6109,-1.917061E-05
329.7109,-1.915837E-05
329.8109,-1.912918E-05
329.9109,-1.921393E-05
330.0109,-1.915272E-05
330.1109,-1.912447E-05
330.2109,-1.918286E-05
330.3109,-1.91951E-05
330.4109,-1.912541E-05
330.511,-1.912259E-05
330.611,-1.911505E-05
330.711,-1.90981E-05
330.811,-1.904725E-05
330.911,-1.909151E-05
331.011,-1.906137E-05
331.111,-1.904348E-05
331.211,-1.903971E-05
331.311,-1.903689E-05
331.411,-1.901617E-05
331.511,-1.898886E-05
331.611,-1.900958E-05
331.711,-1.897285E-05
331.811,-1.895496E-05
331.911,-1.893518E-05
332.011,-1.895307E-05
332.1111,-1.891823E-05
332.2111,-1.890128E-05
332.3111,-1.88928E-05
332.4111,-1.889469E-05
332.5111,-1.892482E-05
332.6111,-1.890034E-05
332.7111,-1.88815E-05
332.8111,-1.890693E-05
332.9111,-1.886173E-05
333.0111,-1.886267E-05
333.1111,-1.88815E-05
333.2111,-1.886361E-05
333.3111,-1.885043E-05
333.4111,-1.882876E-05
333.5111,-1.883818E-05
333.6111,-1.882876E-05
333.7112,-1.878545E-05
333.8112,-1.880616E-05
333.9112,-1.87911E-05
334.0112,-1.87619E-05
334.1112,-1.875531E-05
334.2112,-1.875249E-05
334.3112,-1.874495E-05
334.4112,-1.873271E-05
334.5112,-1.872612E-05
334.6112,-1.870728E-05
334.7112,-1.868751E-05
334.8112,-1.869033E-05
334.9112,-1.865926E-05
335.0112,-1.864984E-05
335.1112,-1.868845E-05
335.2112,-1.866396E-05
335.3112,-1.862535E-05
335.4113,-1.86423E-05
335.5113,-1.863948E-05
335.6113,-1.860181E-05
335.7113,-1.858486E-05
335.8113,-1.860746E-05
335.9113,-1.858957E-05
336.0113,-1.858203E-05
336.1113,-1.860652E-05
336.2113,-1.856791E-05
336.3113,-1.853589E-05
336.4113,-1.854625E-05
336.5113,-1.856131E-05
336.6113,-1.852647E-05
336.7113,-1.852176E-05
336.8113,-1.852459E-05
336.9113,-1.85001E-05
337.0114,-1.849634E-05
337.1114,-1.850669E-05
337.2114,-1.850952E-05
337.3114,-1.848127E-05
337.4114,-1.847562E-05
337.5114,-1.847468E-05
337.6114,-1.845396E-05
337.7114,-1.844454E-05
337.8114,-1.843324E-05
337.9114,-1.843889E-05
338.0114,-1.841158E-05
338.1114,-1.841911E-05
338.2114,-1.841252E-05
338.3114,-1.839274E-05
338.4114,-1.839086E-05
338.5114,-1.837108E-05
338.6115,-1.839651E-05
338.7115,-1.838804E-05
338.8115,-1.837956E-05
338.9115,-1.837768E-05
339.0115,-1.838521E-05
339.1115,-1.835037E-05
339.2115,-1.836449E-05
339.3115,-1.837391E-05
339.4115,-1.83805E-05
339.5115,-1.837956E-05
339.6115,-1.837297E-05
339.7115,-1.83579E-05
339.8115,-1.833342E-05
339.9115,-1.833624E-05
340.0115,-1.832588E-05
340.1115,-1.829951E-05
340.2115,-1.830328E-05
340.3116,-1.829198E-05
340.4116,-1.828068E-05
340.5116,-1.82722E-05
340.6116,-1.826561E-05
340.7116,-1.825996E-05
340.8116,-1.82496E-05
340.9116,-1.827785E-05
341.0116,-1.828821E-05
341.1116,-1.824583E-05
341.2116,-1.82496E-05
341.3116,-1.827315E-05
341.4116,-1.823642E-05
341.5116,-1.821947E-05
341.6116,-1.821099E-05
341.7116,-1.82383E-05
341.8116,-1.820911E-05
341.9117,-1.820251E-05
342.0117,-1.825054E-05
342.1117,-1.822041E-05
342.2117,-1.820817E-05
342.3117,-1.821005E-05
342.4117,-1.820534E-05
342.5117,-1.818651E-05
342.6117,-1.819121E-05
342.7117,-1.817144E-05
342.8117,-1.817144E-05
342.9117,-1.815637E-05
343.0117,-1.816296E-05
343.1117,-1.814036E-05
343.2117,-1.812341E-05
343.3117,-1.815637E-05
343.4117,-1.813E-05
343.5117,-1.809045E-05
343.6118,-1.811117E-05
343.7118,-1.809986E-05
343.8118,-1.806502E-05
343.9118,-1.807444E-05
344.0118,-1.808668E-05
344.1118,-1.802547E-05
344.2118,-1.804995E-05
344.3118,-1.806031E-05
344.4118,-1.802829E-05
344.5118,-1.800852E-05
344.6118,-1.803018E-05
344.7118,-1.802924E-05
344.8118,-1.800287E-05
344.9118,-1.801888E-05
345.0118,-1.799816E-05
345.1118,-1.795578E-05
345.2119,-1.798592E-05
345.3119,-1.799533E-05
345.4119,-1.793977E-05
345.5119,-1.793977E-05
345.6119,-1.79539E-05
345.7119,-1.793318E-05
345.8119,-1.791058E-05
345.9119,-1.794354E-05
346.0119,-1.793977E-05
346.1119,-1.792094E-05
346.2119,-1.793318E-05
346.3119,-1.792565E-05
346.4119,-1.791058E-05
346.5119,-1.79765E-05
346.6119,-1.793224E-05
346.7119,-1.792471E-05
346.812,-1.791152E-05
346.912,-1.790681E-05
347.012,-1.791058E-05
347.112,-1.788421E-05
347.212,-1.791434E-05
347.312,-1.791717E-05
347.412,-1.788515E-05
347.512,-1.787668E-05
347.612,-1.787762E-05
347.712,-1.786349E-05
347.812,-1.789269E-05
347.912,-1.784937E-05
348.012,-1.784183E-05
348.112,-1.785596E-05
348.212,-1.788798E-05
348.312,-1.784277E-05
348.412,-1.78569E-05
348.5121,-1.786161E-05
348.6121,-1.784183E-05
348.7121,-1.781923E-05
348.8121,-1.785407E-05
348.9121,-1.783524E-05
349.0121,-1.781546E-05
349.1121,-1.784842E-05
349.2121,-1.782111E-05
349.3121,-1.780134E-05
349.4121,-1.78051E-05
349.5121,-1.780605E-05
349.6121,-1.780134E-05
349.7121,-1.777685E-05
349.8121,-1.779098E-05
349.9121,-1.778909E-05
350.0121,-1.776743E-05
350.1122,-1.778439E-05
350.2122,-1.776838E-05
350.3122,-1.775708E-05
350.4122,-1.775896E-05
350.5122,-1.773824E-05
350.6122,-1.771752E-05
350.7122,-1.77486E-05
350.8122,-1.773259E-05
350.9122,-1.770434E-05
351.0122,-1.770057E-05
351.1122,-1.772694E-05
351.2122,-1.76968E-05
351.3122,-1.766478E-05
351.4122,-1.770528E-05
351.5122,-1.771658E-05
351.6122,-1.767232E-05
351.7122,-1.771658E-05
351.8123,-1.769492E-05
351.9123,-1.769304E-05
352.0123,-1.771187E-05
352.1123,-1.772882E-05
352.2123,-1.770622E-05
352.3123,-1.771752E-05
352.4123,-1.775613E-05
352.5123,-1.775802E-05
352.6123,-1.7726E-05
352.7123,-1.775143E-05
352.8123,-1.775613E-05
352.9123,-1.77373E-05
353.0123,-1.776084E-05
353.1123,-1.774389E-05
353.2123,-1.772317E-05
353.3123,-1.772977E-05
353.4124,-1.772223E-05
353.5124,-1.772223E-05
353.6124,-1.773071E-05
353.7124,-1.774954E-05
353.8124,-1.771093E-05
353.9124,-1.773353E-05
354.0124,-1.773071E-05
354.1124,-1.770905E-05
354.2124,-1.768645E-05
354.3124,-1.771093E-05
354.4124,-1.773542E-05
354.5124,-1.769586E-05
354.6124,-1.76968E-05
354.7124,-1.771376E-05
354.8124,-1.769304E-05
354.9124,-1.76742E-05
355.0125,-1.769492E-05
355.1125,-1.77147E-05
355.2125,-1.770152E-05
355.3125,-1.771376E-05
355.4125,-1.769775E-05
355.5125,-1.76808E-05
355.6125,-1.76808E-05
355.7125,-1.770057E-05
355.8125,-1.76808E-05
355.9125,-1.768739E-05
356.0125,-1.771846E-05
356.1125,-1.769963E-05
356.2125,-1.769869E-05
356.3125,-1.773071E-05
356.4125,-1.769586E-05
356.5125,-1.766384E-05
356.6125,-1.770999E-05
356.7126,-1.770434E-05
356.8126,-1.766761E-05
356.9126,-1.767326E-05
357.0126,-1.766102E-05
357.1126,-1.767138E-05
357.2126,-1.765066E-05
357.3126,-1.766667E-05
357.4126,-1.766384E-05
357.5126,-1.764689E-05
357.6126,-1.766478E-05
357.7126,-1.765066E-05
357.8126,-1.764501E-05
357.9126,-1.765443E-05
358.0126,-1.76742E-05
358.1126,-1.76403E-05
358.2126,-1.762618E-05
358.3127,-1.766573E-05
358.4127,-1.765066E-05
358.5127,-1.763653E-05
358.6127,-1.763842E-05
358.7127,-1.765537E-05
358.8127,-1.763559E-05
358.9127,-1.76403E-05
359.0127,-1.763559E-05
359.1127,-1.7629E-05
359.2127,-1.763465E-05
359.3127,-1.76403E-05
359.4127,-1.761488E-05
359.5127,-1.760169E-05
359.6127,-1.762241E-05
359.7127,-1.763465E-05
359.8127,-1.759886E-05
359.9128,-1.760169E-05
360.0128,-1.76064E-05
360.1128,-1.759227E-05
360.2128,-1.757438E-05
360.3128,-1.76177E-05
360.4128,-1.761676E-05
360.5128,-1.75838E-05
360.6128,-1.764689E-05
360.7128,-1.761205E-05
360.8128,-1.758568E-05
360.9128,-1.759133E-05
361.0128,-1.760357E-05
361.1128,-1.758662E-05
361.2128,-1.75838E-05
361.3128,-1.762523E-05
361.4128,-1.759981E-05
361.5128,-1.758945E-05
361.6129,-1.764878E-05
361.7129,-1.76064E-05
361.8129,-1.758286E-05
361.9129,-1.762052E-05
362.0129,-1.761864E-05
362.1129,-1.75659E-05
362.2129,-1.757909E-05
362.3129,-1.760734E-05
362.4129,-1.758851E-05
362.5129,-1.758662E-05
362.6129,-1.7629E-05
362.7129,-1.759604E-05
362.8129,-1.759039E-05
362.9129,-1.760263E-05
363.0129,-1.761393E-05
363.1129,-1.757626E-05
363.213,-1.757155E-05
363.313,-1.759321E-05
363.413,-1.758097E-05
363.513,-1.75725E-05
363.613,-1.760546E-05
363.713,-1.757721E-05
363.813,-1.756402E-05
363.913,-1.758474E-05
364.013,-1.761017E-05
364.113,-1.757815E-05
364.213,-1.759698E-05
364.313,-1.760075E-05
364.413,-1.756025E-05
364.513,-1.758568E-05
364.613,-1.758662E-05
364.713,-1.755837E-05
364.813,-1.75546E-05
364.9131,-1.757344E-05
365.0131,-1.754801E-05
365.1131,-1.753295E-05
365.2131,-1.760263E-05
365.3131,-1.759227E-05
365.4131,-1.758568E-05
365.5131,-1.75838E-05
365.6131,-1.757815E-05
365.7131,-1.754895E-05
365.8131,-1.753765E-05
365.9131,-1.756685E-05
366.0131,-1.755555E-05
366.1131,-1.753106E-05
366.2131,-1.754989E-05
366.3131,-1.754895E-05
366.4131,-1.751693E-05
366.5132,-1.754424E-05
366.6132,-1.754801E-05
366.7132,-1.751034E-05
366.8132,-1.752164E-05
366.9132,-1.752918E-05
367.0132,-1.751882E-05
367.1132,-1.751223E-05
367.2132,-1.757061E-05
367.3132,-1.75207E-05
367.4132,-1.750281E-05
367.5132,-1.75386E-05
367.6132,-1.752541E-05
367.7132,-1.749527E-05
367.8132,-1.750657E-05
367.9132,-1.754048E-05
368.0132,-1.750846E-05
368.1133,-1.750375E-05
368.2133,-1.754707E-05
368.3133,-1.753106E-05
368.4133,-1.7532E-05
368.5133,-1.754895E-05
368.6133,-1.753483E-05
368.7133,-1.754048E-05
368.8133,-1.752447E-05
368.9133,-1.755178E-05
369.0133,-1.756685E-05
369.1133,-1.752353E-05
369.2133,-1.755272E-05
369.3133,-1.754801E-05
369.4133,-1.752164E-05
369.5133,-1.75207E-05
369.6133,-1.751505E-05
369.7133,-1.750846E-05
369.8134,-1.750563E-05
369.9134,-1.753577E-05
370.0134,-1.752353E-05
370.1134,-1.751034E-05
370.2134,-1.753012E-05
370.3134,-1.753577E-05
370.4134,-1.752164E-05
370.5134,-1.750093E-05
370.6134,-1.751129E-05
370.7134,-1.750563E-05
370.8134,-1.749339E-05
370.9134,-1.749527E-05
371.0134,-1.749998E-05
371.1134,-1.746891E-05
371.2134,-1.749245E-05
371.3134,-1.749527E-05
371.4135,-1.746326E-05
371.5135,-1.748021E-05
371.6135,-1.747173E-05
371.7135,-1.744348E-05
371.8135,-1.746326E-05
371.9135,-1.74642E-05
372.0135,-1.744725E-05
372.1135,-1.74529E-05
372.2135,-1.746137E-05
372.3135,-1.743689E-05
372.4135,-1.744254E-05
372.5135,-1.746796E-05
372.6135,-1.745007E-05
372.7135,-1.743689E-05
372.8135,-1.747267E-05
372.9135,-1.744442E-05
373.0135,-1.74237E-05
373.1136,-1.744819E-05
373.2136,-1.744348E-05
373.3136,-1.741429E-05
373.4136,-1.741146E-05
373.5136,-1.743783E-05
373.6136,-1.741052E-05
373.7136,-1.74011E-05
373.8136,-1.74463E-05
373.9136,-1.741994E-05
374.0136,-1.73898E-05
374.1136,-1.74124E-05
374.2136,-1.741899E-05
374.3136,-1.737756E-05
374.4136,-1.738415E-05
374.5136,-1.739545E-05
374.6136,-1.735873E-05
374.7137,-1.735967E-05
374.8137,-1.740298E-05
374.9137,-1.736626E-05
375.0137,-1.732576E-05
375.1137,-1.735967E-05
375.2137,-1.735873E-05
375.3137,-1.730787E-05
375.4137,-1.732859E-05
375.5137,-1.733706E-05
375.6137,-1.729657E-05
375.7137,-1.730504E-05
375.8137,-1.732294E-05
375.9137,-1.72589E-05
376.0137,-1.727867E-05
376.1137,-1.730222E-05
376.2137,-1.729845E-05
376.3138,-1.728056E-05
376.4138,-1.730787E-05
376.5138,-1.729092E-05
376.6138,-1.724948E-05
376.7138,-1.725796E-05
376.8138,-1.726832E-05
376.9138,-1.72589E-05
377.0138,-1.723442E-05
377.1138,-1.724477E-05
377.2138,-1.724854E-05
377.3138,-1.723724E-05
377.4138,-1.724383E-05
377.5138,-1.725137E-05
377.6138,-1.723253E-05
377.7138,-1.722971E-05
377.8138,-1.723065E-05
377.9138,-1.724572E-05
378.0139,-1.723065E-05
378.1139,-1.724383E-05
378.2139,-1.7225E-05
378.3139,-1.719015E-05
378.4139,-1.719204E-05
378.5139,-1.720334E-05
378.6139,-1.717226E-05
378.7139,-1.717979E-05
378.8139,-1.717038E-05
378.9139,-1.717038E-05
379.0139,-1.715813E-05
379.1139,-1.71619E-05
379.2139,-1.716378E-05
379.3139,-1.714589E-05
379.4139,-1.717885E-05
379.5139,-1.718544E-05
379.614,-1.715625E-05
379.714,-1.71685E-05
379.814,-1.719015E-05
379.914,-1.715625E-05
380.014,-1.714401E-05
380.114,-1.71619E-05
380.214,-1.716096E-05
380.314,-1.714778E-05
380.414,-1.718733E-05
380.514,-1.717414E-05
380.614,-1.714024E-05
380.714,-1.717509E-05
380.814,-1.718827E-05
380.914,-1.714118E-05
381.014,-1.713553E-05
381.114,-1.715248E-05
381.2141,-1.711293E-05
381.3141,-1.709975E-05
381.4141,-1.712706E-05
381.5141,-1.710352E-05
381.6141,-1.706302E-05
381.7141,-1.710163E-05
381.8141,-1.710163E-05
381.9141,-1.706302E-05
382.0141,-1.710163E-05
382.1141,-1.710917E-05
382.2141,-1.707526E-05
382.3141,-1.708939E-05
382.4141,-1.705455E-05
382.5141,-1.705266E-05
382.6141,-1.706679E-05
382.7141,-1.705737E-05
382.8141,-1.701123E-05
382.9142,-1.701499E-05
383.0142,-1.701028E-05
383.1142,-1.699333E-05
383.2142,-1.698015E-05
383.3142,-1.704889E-05
383.4142,-1.700558E-05
383.5142,-1.697921E-05
383.6142,-1.701123E-05
383.7142,-1.698674E-05
383.8142,-1.694813E-05
383.9142,-1.696696E-05
384.0142,-1.695849E-05
384.1142,-1.691988E-05
384.2142,-1.691517E-05
384.3142,-1.693212E-05
384.4142,-1.689068E-05
384.5143,-1.686431E-05
384.6143,-1.69114E-05
384.7143,-1.691988E-05
384.8143,-1.68709E-05
384.9143,-1.686902E-05
385.0143,-1.687279E-05
385.1143,-1.683795E-05
385.2143,-1.682099E-05
385.3143,-1.684736E-05
385.4143,-1.68549E-05
385.5143,-1.682005E-05
385.6143,-1.683795E-05
385.7143,-1.68436E-05
385.8143,-1.681064E-05
385.9143,-1.682476E-05
386.0143,-1.682099E-05
386.1143,-1.679651E-05
386.2144,-1.677956E-05
386.3144,-1.677862E-05
386.4144,-1.676826E-05
386.5144,-1.67466E-05
386.6144,-1.674848E-05
386.7144,-1.673906E-05
386.8144,-1.673812E-05
386.9144,-1.670893E-05
387.0144,-1.670422E-05
387.1144,-1.667597E-05
387.2144,-1.667314E-05
387.3144,-1.668162E-05
387.4144,-1.667126E-05
387.5144,-1.664583E-05
387.6144,-1.664112E-05
387.7144,-1.660722E-05
387.8145,-1.662794E-05
387.9145,-1.661852E-05
388.0145,-1.659686E-05
388.1145,-1.662888E-05
388.2145,-1.658462E-05
388.3145,-1.65526E-05
388.4145,-1.656013E-05
388.5145,-1.657897E-05
388.6145,-1.653377E-05
388.7145,-1.654507E-05
388.8145,-1.654601E-05
388.9145,-1.653471E-05
389.0145,-1.650269E-05
389.1145,-1.652341E-05
389.2145,-1.651022E-05
389.3145,-1.64782E-05
389.4146,-1.649327E-05
389.5146,-1.64848E-05
389.6146,-1.646314E-05
389.7146,-1.64622E-05
389.8146,-1.648009E-05
389.9146,-1.644807E-05
390.0146,-1.6433E-05
390.1146,-1.645278E-05
390.2146,-1.645184E-05
390.3146,-1.640193E-05
390.4146,-1.639345E-05
390.5146,-1.640569E-05
390.6146,-1.638121E-05
390.7146,-1.637461E-05
390.8146,-1.639156E-05
390.9146,-1.638309E-05
391.0146,-1.636237E-05
391.1147,-1.640193E-05
391.2147,-1.641793E-05
391.3147,-1.638591E-05
391.4147,-1.635672E-05
391.5147,-1.635484E-05
391.6147,-1.634259E-05
391.7147,-1.63247E-05
391.8147,-1.635013E-05
391.9147,-1.634731E-05
392.0147,-1.632188E-05
392.1147,-1.63539E-05
392.2147,-1.636331E-05
392.3147,-1.633694E-05
392.4147,-1.636331E-05
392.5147,-1.634165E-05
392.6147,-1.633035E-05
392.7148,-1.63247E-05
392.8148,-1.631999E-05
392.9148,-1.632753E-05
393.0148,-1.628703E-05
393.1148,-1.629362E-05
393.2148,-1.631999E-05
393.3148,-1.630493E-05
393.4148,-1.629362E-05
393.5148,-1.627385E-05
393.6148,-1.624277E-05
393.7148,-1.628327E-05
393.8148,-1.624277E-05
393.9148,-1.623147E-05
394.0148,-1.623241E-05
394.1148,-1.624748E-05
394.2148,-1.619851E-05
394.3148,-1.620134E-05
394.4149,-1.620981E-05
394.5149,-1.618815E-05
394.6149,-1.618533E-05
394.7149,-1.620134E-05
394.8149,-1.618439E-05
394.9149,-1.616367E-05
395.0149,-1.621546E-05
395.1149,-1.61825E-05
395.2149,-1.61373E-05
395.3149,-1.618062E-05
395.4149,-1.617497E-05
395.5149,-1.613541E-05
395.6149,-1.61486E-05
395.7149,-1.614106E-05
395.8149,-1.61373E-05
395.9149,-1.610245E-05
396.015,-1.614295E-05
396.115,-1.612505E-05
396.215,-1.608739E-05
396.315,-1.610057E-05
396.415,-1.611281E-05
396.515,-1.607985E-05
396.615,-1.607797E-05
396.715,-1.608927E-05
396.815,-1.606102E-05
396.915,-1.609115E-05
397.015,-1.60403E-05
397.115,-1.605725E-05
397.215,-1.605066E-05
397.315,-1.605066E-05
397.415,-1.602712E-05
397.515,-1.603371E-05
397.6151,-1.600357E-05
397.7151,-1.602052E-05
397.8151,-1.601487E-05
397.9151,-1.600357E-05
398.0151,-1.598662E-05
398.1151,-1.598285E-05
398.2151,-1.59772E-05
398.3151,-1.595366E-05
398.4151,-1.594236E-05
398.5151,-1.593671E-05
398.6151,-1.594424E-05
398.7151,-1.592729E-05
398.8151,-1.589904E-05
398.9151,-1.5932E-05
399.0151,-1.591128E-05
399.1151,-1.591128E-05
399.2151,-1.592823E-05
399.3152,-1.592823E-05
399.4152,-1.587455E-05
399.5152,-1.591599E-05
399.6152,-1.589151E-05
399.7152,-1.588491E-05
399.8152,-1.585101E-05
399.9152,-1.586231E-05
400.0152,-1.586796E-05
400.1152,-1.583689E-05
400.2152,-1.586985E-05
400.3152,-1.585666E-05
400.4152,-1.582088E-05
400.5152,-1.58463E-05
400.6152,-1.583783E-05
400.7152,-1.580204E-05
400.8152,-1.58237E-05
400.9153,-1.581523E-05
401.0153,-1.577191E-05
401.1153,-1.579357E-05
401.2153,-1.580581E-05
401.3153,-1.575966E-05
401.4153,-1.578697E-05
401.5153,-1.580581E-05
401.6153,-1.575872E-05
401.7153,-1.577002E-05
401.8153,-1.579922E-05
401.9153,-1.575684E-05
402.0153,-1.57672E-05
402.1153,-1.575401E-05
402.2153,-1.571634E-05
402.3153,-1.569939E-05
402.4153,-1.571729E-05
402.5154,-1.571069E-05
402.6154,-1.564571E-05
402.7154,-1.564383E-05
402.8154,-1.567679E-05
402.9154,-1.561841E-05
403.0154,-1.560145E-05
403.1154,-1.562688E-05
403.2154,-1.563347E-05
403.3154,-1.561935E-05
403.4154,-1.562688E-05
403.5154,-1.560899E-05
403.6154,-1.56137E-05
403.7154,-1.560616E-05
403.8154,-1.560616E-05
403.9154,-1.56137E-05
404.0154,-1.560334E-05
404.1154,-1.559769E-05
404.2155,-1.559015E-05
404.3155,-1.560145E-05
404.4155,-1.558356E-05
404.5155,-1.556755E-05
404.6155,-1.555625E-05
404.7155,-1.557603E-05
404.8155,-1.55506E-05
404.9155,-1.554872E-05
405.0155,-1.555813E-05
405.1155,-1.554966E-05
405.2155,-1.553647E-05
405.3155,-1.554589E-05
405.4155,-1.552706E-05
405.5155,-1.55167E-05
405.6155,-1.5528E-05
405.7155,-1.552894E-05
405.8156,-1.550822E-05
405.9156,-1.54875E-05
406.0156,-1.551293E-05
406.1156,-1.55054E-05
406.2156,-1.546584E-05
406.3156,-1.551952E-05
406.4156,-1.548845E-05
406.5156,-1.546302E-05
406.6156,-1.548656E-05
406.7156,-1.548374E-05
406.8156,-1.545925E-05
406.9156,-1.545548E-05
407.0156,-1.546396E-05
407.1156,-1.54536E-05
407.2156,-1.544042E-05
407.3156,-1.543665E-05
407.4156,-1.544607E-05
407.5157,-1.543194E-05
407.6157,-1.542723E-05
407.7157,-1.543194E-05
407.8157,-1.543288E-05
407.9157,-1.545925E-05
408.0157,-1.542912E-05
408.1157,-1.540275E-05
408.2157,-1.542817E-05
408.3157,-1.542158E-05
408.4157,-1.539992E-05
408.5157,-1.54197E-05
408.6157,-1.540934E-05
408.7157,-1.540086E-05
408.8157,-1.538862E-05
408.9157,-1.539992E-05
409.0157,-1.539427E-05
409.1158,-1.535284E-05
409.2158,-1.54084E-05
409.3158,-1.538486E-05
409.4158,-1.535189E-05
409.5158,-1.537732E-05
409.6158,-1.537073E-05
409.7158,-1.533965E-05
409.8158,-1.535849E-05
409.9158,-1.537167E-05
410.0158,-1.534907E-05
410.1158,-1.535943E-05
410.2158,-1.537638E-05
410.3158,-1.538297E-05
410.4158,-1.537826E-05
410.5158,-1.539804E-05
410.6158,-1.540369E-05
410.7159,-1.539804E-05
410.8159,-1.541687E-05
410.9159,-1.53792E-05
411.0159,-1.538109E-05
411.1159,-1.539145E-05
411.2159,-1.536696E-05
411.3159,-1.535189E-05
411.4159,-1.536037E-05
411.5159,-1.534624E-05
411.6159,-1.533871E-05
411.7159,-1.532835E-05
411.8159,-1.532929E-05
411.9159,-1.531987E-05
412.0159,-1.531611E-05
412.1159,-1.530481E-05
412.2159,-1.53001E-05
412.3159,-1.531705E-05
412.416,-1.530857E-05
412.516,-1.530669E-05
412.616,-1.530293E-05
412.716,-1.529822E-05
412.816,-1.527938E-05
412.916,-1.526714E-05
413.016,-1.527938E-05
413.116,-1.525772E-05
413.216,-1.525207E-05
413.316,-1.527185E-05
413.416,-1.526431E-05
413.516,-1.525395E-05
413.616,-1.525866E-05
413.716,-1.525866E-05
413.816,-1.524925E-05
413.916,-1.52483E-05
414.0161,-1.526055E-05
414.1161,-1.522853E-05
414.2161,-1.522664E-05
414.3161,-1.524925E-05
414.4161,-1.521817E-05
414.5161,-1.520216E-05
414.6161,-1.520687E-05
414.7161,-1.520781E-05
414.8161,-1.520122E-05
414.9161,-1.518898E-05
415.0161,-1.520969E-05
415.1161,-1.518144E-05
415.2161,-1.516637E-05
415.3161,-1.51918E-05
415.4161,-1.517297E-05
415.5161,-1.515978E-05
415.6161,-1.518144E-05
415.7162,-1.517108E-05
415.8162,-1.514283E-05
415.9162,-1.514095E-05
416.0162,-1.514942E-05
416.1162,-1.515507E-05
416.2162,-1.511175E-05
416.3162,-1.513153E-05
416.4162,-1.512211E-05
416.5162,-1.511175E-05
416.6162,-1.512117E-05
416.7162,-1.513059E-05
416.8162,-1.510045E-05
416.9162,-1.510234E-05
417.0162,-1.510139E-05
417.1162,-1.511646E-05
417.2162,-1.510234E-05
417.3163,-1.510799E-05
417.4163,-1.51061E-05
417.5163,-1.511081E-05
417.6163,-1.509198E-05
417.7163,-1.509198E-05
417.8163,-1.510045E-05
417.9163,-1.507502E-05
418.0163,-1.507502E-05
418.1163,-1.508162E-05
418.2163,-1.509763E-05
418.3163,-1.506655E-05
418.4163,-1.505807E-05
418.5163,-1.507597E-05
418.6163,-1.505619E-05
418.7163,-1.503641E-05
418.8163,-1.508256E-05
418.9164,-1.506843E-05
419.0164,-1.503265E-05
419.1164,-1.504301E-05
419.2164,-1.502794E-05
419.3164,-1.501005E-05
419.4164,-1.501099E-05
419.5164,-1.501852E-05
419.6164,-1.502323E-05
419.7164,-1.503453E-05
419.8164,-1.501381E-05
419.9164,-1.501099E-05
420.0164,-1.499404E-05
420.1164,-1.502135E-05
420.2164,-1.500345E-05
420.3164,-1.496955E-05
420.4164,-1.498556E-05
420.5164,-1.497897E-05
420.6165,-1.496108E-05
420.7165,-1.498085E-05
420.8165,-1.496767E-05
420.9165,-1.497144E-05
421.0165,-1.495072E-05
421.1165,-1.496013E-05
421.2165,-1.496296E-05
421.3165,-1.494036E-05
421.4165,-1.494695E-05
421.5165,-1.495637E-05
421.6165,-1.492717E-05
421.7165,-1.493282E-05
421.8165,-1.494601E-05
421.9165,-1.490457E-05
422.0165,-1.492529E-05
422.1165,-1.491776E-05
422.2166,-1.492623E-05
422.3166,-1.491964E-05
422.4166,-1.492341E-05
422.5166,-1.491681E-05
422.6166,-1.489798E-05
422.7166,-1.489327E-05
422.8166,-1.490551E-05
422.9166,-1.489045E-05
423.0166,-1.491964E-05
423.1166,-1.490551E-05
423.2166,-1.488009E-05
423.3166,-1.489233E-05
423.4166,-1.488574E-05
423.5166,-1.486879E-05
423.6166,-1.488668E-05
423.7166,-1.488009E-05
423.8167,-1.486502E-05
423.9167,-1.487067E-05
424.0167,-1.487726E-05
424.1167,-1.48556E-05
424.2167,-1.483488E-05
424.3167,-1.486314E-05
424.4167,-1.484713E-05
424.5167,-1.484148E-05
424.6167,-1.485654E-05
424.7167,-1.484713E-05
424.8167,-1.483017E-05
424.9167,-1.484807E-05
425.0167,-1.488762E-05
425.1167,-1.484524E-05
425.2167,-1.486219E-05
425.3167,-1.487538E-05
425.4167,-1.485843E-05
425.5168,-1.487632E-05
425.6168,-1.487914E-05
425.7168,-1.485843E-05
425.8168,-1.485748E-05
425.9168,-1.484901E-05
426.0168,-1.48556E-05
426.1168,-1.486596E-05
426.2168,-1.48443E-05
426.3168,-1.485372E-05
426.4168,-1.485278E-05
426.5168,-1.485372E-05
426.6168,-1.485183E-05
426.7168,-1.485654E-05
426.8168,-1.486973E-05
426.9168,-1.483582E-05
427.0168,-1.484807E-05
427.1169,-1.488103E-05
427.2169,-1.488103E-05
427.3169,-1.483206E-05
427.4169,-1.483959E-05
427.5169,-1.485183E-05
427.6169,-1.483206E-05
427.7169,-1.481982E-05
427.8169,-1.483206E-05
427.9169,-1.482264E-05
428.0169,-1.47991E-05
428.1169,-1.483771E-05
428.2169,-1.4833E-05
428.3169,-1.480004E-05
428.4169,-1.480569E-05
428.5169,-1.482923E-05
428.6169,-1.479533E-05
428.7169,-1.479722E-05
428.817,-1.481699E-05
428.917,-1.47991E-05
429.017,-1.478403E-05
429.117,-1.480004E-05
429.217,-1.481699E-05
429.317,-1.480757E-05
429.417,-1.482076E-05
429.517,-1.483017E-05
429.617,-1.480946E-05
429.717,-1.480098E-05
429.817,-1.48217E-05
429.917,-1.480757E-05
430.017,-1.47652E-05
430.117,-1.478968E-05
430.217,-1.477932E-05
430.317,-1.479251E-05
430.4171,-1.478309E-05
430.5171,-1.480286E-05
430.6171,-1.477744E-05
430.7171,-1.479816E-05
430.8171,-1.478215E-05
430.9171,-1.476614E-05
431.0171,-1.477838E-05
431.1171,-1.477085E-05
431.2171,-1.474071E-05
431.3171,-1.477179E-05
431.4171,-1.477085E-05
431.5171,-1.476143E-05
431.6171,-1.480192E-05
431.7171,-1.480004E-05
431.8171,-1.478309E-05
431.9171,-1.480381E-05
432.0172,-1.480192E-05
432.1172,-1.477838E-05
432.2172,-1.478121E-05
432.3172,-1.478215E-05
432.4172,-1.479062E-05
432.5172,-1.478121E-05
432.6172,-1.481982E-05
432.7172,-1.482264E-05
432.8172,-1.479816E-05
432.9172,-1.484995E-05
433.0172,-1.486408E-05
433.1172,-1.484995E-05
433.2172,-1.487349E-05
433.3172,-1.486502E-05
433.4172,-1.485183E-05
433.5172,-1.485372E-05
433.6172,-1.483488E-05
433.7173,-1.483677E-05
433.8173,-1.481793E-05
433.9173,-1.484713E-05
434.0173,-1.483206E-05
434.1173,-1.481699E-05
434.2173,-1.485278E-05
434.3173,-1.483582E-05
434.4173,-1.479156E-05
434.5173,-1.482735E-05
434.6173,-1.482923E-05
434.7173,-1.481228E-05
434.8173,-1.479816E-05
434.9173,-1.481134E-05
435.0173,-1.479722E-05
435.1173,-1.477085E-05
435.2173,-1.480286E-05
435.3174,-1.481322E-05
435.4174,-1.47586E-05
435.5174,-1.477932E-05
435.6174,-1.478215E-05
435.7174,-1.47878E-05
435.8174,-1.478309E-05
435.9174,-1.476802E-05
436.0174,-1.473129E-05
436.1174,-1.478403E-05
436.2174,-1.47878E-05
436.3174,-1.4736E-05
436.4174,-1.475107E-05
436.5174,-1.477838E-05
436.6174,-1.473129E-05
436.7174,-1.474919E-05
436.8174,-1.477273E-05
436.9174,-1.473412E-05
437.0175,-1.47134E-05
437.1175,-1.478121E-05
437.2175,-1.47652E-05
437.3175,-1.474259E-05
437.4175,-1.47699E-05
437.5175,-1.476896E-05
437.6175,-1.4736E-05
437.7175,-1.469362E-05
437.8175,-1.468232E-05
437.9175,-1.465878E-05
438.0175,-1.463241E-05
438.1175,-1.46503E-05
438.2175,-1.462959E-05
438.3175,-1.463241E-05
438.4175,-1.462488E-05
438.5175,-1.461358E-05
438.6176,-1.462017E-05
438.7176,-1.462394E-05
438.8176,-1.46164E-05
438.9176,-1.460698E-05
439.0176,-1.463147E-05
439.1176,-1.462017E-05
439.2176,-1.46277E-05
439.3176,-1.468232E-05
439.4176,-1.465313E-05
439.5176,-1.462017E-05
439.6176,-1.464371E-05
439.7176,-1.465972E-05
439.8176,-1.461075E-05
439.9176,-1.462017E-05
440.0176,-1.4639E-05
440.1176,-1.461169E-05
440.2177,-1.461358E-05
440.3177,-1.463994E-05
440.4177,-1.46277E-05
440.5177,-1.458815E-05
440.6177,-1.460887E-05
440.7177,-1.460698E-05
440.8177,-1.460322E-05
440.9177,-1.461358E-05
441.0177,-1.464089E-05
441.1177,-1.460981E-05
441.2177,-1.462488E-05
441.3177,-1.461075E-05
441.4177,-1.46051E-05
441.5177,-1.459474E-05
441.6177,-1.458627E-05
441.7177,-1.460981E-05
441.8177,-1.460228E-05
441.9178,-1.45938E-05
442.0178,-1.458815E-05
442.1178,-1.457026E-05
442.2178,-1.459568E-05
442.3178,-1.458721E-05
442.4178,-1.455048E-05
442.5178,-1.456932E-05
442.6178,-1.457873E-05
442.7178,-1.455707E-05
442.8178,-1.456367E-05
442.9178,-1.456178E-05
443.0178,-1.455425E-05
443.1178,-1.454201E-05
443.2178,-1.455802E-05
443.3178,-1.454012E-05
443.4178,-1.451658E-05
443.5179,-1.457308E-05
443.6179,-1.457497E-05
443.7179,-1.453447E-05
443.8179,-1.456178E-05
443.9179,-1.456084E-05
444.0179,-1.454577E-05
444.1179,-1.454201E-05
444.2179,-1.454954E-05
444.3179,-1.454012E-05
444.4179,-1.453635E-05
444.5179,-1.45194E-05
444.6179,-1.454295E-05
444.7179,-1.454106E-05
444.8179,-1.453353E-05
444.9179,-1.449963E-05
445.0179,-1.451093E-05
445.118,-1.452788E-05
445.218,-1.448833E-05
445.318,-1.452882E-05
445.418,-1.456084E-05
445.518,-1.454483E-05
445.618,-1.451752E-05
445.718,-1.456178E-05
445.818,-1.452976E-05
445.918,-1.452882E-05
446.018,-1.453259E-05
446.118,-1.455802E-05
446.218,-1.452411E-05
446.318,-1.454012E-05
446.418,-1.457402E-05
446.518,-1.453824E-05
446.618,-1.452505E-05
446.718,-1.458156E-05
446.8181,-1.454577E-05
446.9181,-1.454106E-05
447.0181,-1.456178E-05
447.1181,-1.456932E-05
447.2181,-1.452694E-05
447.3181,-1.454389E-05
447.4181,-1.456743E-05
447.5181,-1.451658E-05
447.6181,-1.451281E-05
447.7181,-1.455331E-05
447.8181,-1.452129E-05
447.9181,-1.449492E-05
448.0181,-1.454577E-05
448.1181,-1.455802E-05
448.2181,-1.452505E-05
448.3181,-1.454201E-05
448.4182,-1.454012E-05
448.5182,-1.452882E-05
448.6182,-1.455802E-05
448.7182,-1.453824E-05
448.8182,-1.451375E-05
448.9182,-1.45373E-05
449.0182,-1.453918E-05
449.1182,-1.451375E-05
449.2182,-1.451658E-05
449.3182,-1.453259E-05
449.4182,-1.450057E-05
449.5182,-1.45194E-05
449.6182,-1.454295E-05
449.7182,-1.452035E-05
449.8182,-1.449115E-05
449.9182,-1.456367E-05
450.0182,-1.453353E-05
450.1183,-1.450528E-05
450.2183,-1.454671E-05
450.3183,-1.453918E-05
450.4183,-1.451658E-05
450.5183,-1.4526E-05
450.6183,-1.450904E-05
450.7183,-1.449586E-05
450.8183,-1.450716E-05
450.9183,-1.450904E-05
451.0183,-1.449209E-05
451.1183,-1.449115E-05
451.2183,-1.451375E-05
451.3183,-1.448738E-05
451.4183,-1.44742E-05
451.5183,-1.452505E-05
451.6183,-1.449303E-05
451.7184,-1.44629E-05
451.8184,-1.450528E-05
451.9184,-1.448644E-05
452.0184,-1.444689E-05
452.1184,-1.44742E-05
452.2184,-1.449303E-05
452.3184,-1.447326E-05
452.4184,-1.445725E-05
452.5184,-1.446761E-05
452.6184,-1.446855E-05
452.7184,-1.447043E-05
452.8184,-1.446196E-05
452.9184,-1.444877E-05
453.0184,-1.447043E-05
453.1184,-1.446196E-05
453.2184,-1.444783E-05
453.3185,-1.445631E-05
453.4185,-1.446384E-05
453.5185,-1.44742E-05
453.6185,-1.447608E-05
453.7185,-1.446761E-05
453.8185,-1.446667E-05
453.9185,-1.446478E-05
454.0185,-1.447985E-05
454.1185,-1.446384E-05
454.2185,-1.445537E-05
454.3185,-1.446667E-05
454.4185,-1.448173E-05
454.5185,-1.444972E-05
454.6185,-1.444218E-05
454.7185,-1.445819E-05
454.8185,-1.444972E-05
454.9185,-1.442146E-05
455.0186,-1.447985E-05
455.1186,-1.447326E-05
455.2186,-1.444406E-05
455.3186,-1.444501E-05
455.4186,-1.444218E-05
455.5186,-1.443559E-05
455.6186,-1.442523E-05
455.7186,-1.445254E-05
455.8186,-1.444124E-05
455.9186,-1.441581E-05
456.0186,-1.447608E-05
456.1186,-1.444877E-05
456.2186,-1.44064E-05
456.3186,-1.443747E-05
456.4186,-1.44516E-05
456.5186,-1.440734E-05
456.6187,-1.440828E-05
456.7187,-1.443747E-05
456.8187,-1.439133E-05
456.9187,-1.439321E-05
457.0187,-1.442994E-05
457.1187,-1.44064E-05
457.2187,-1.43772E-05
457.3187,-1.441676E-05
457.4187,-1.442617E-05
457.5187,-1.439039E-05
457.6187,-1.441299E-05
457.7187,-1.440451E-05
457.8187,-1.438285E-05
457.9187,-1.437814E-05
458.0187,-1.439792E-05
458.1187,-1.438944E-05
458.2188,-1.43772E-05
458.3188,-1.437626E-05
458.4188,-1.437532E-05
458.5188,-1.434707E-05
458.6188,-1.436025E-05
458.7188,-1.436025E-05
458.8188,-1.437814E-05
458.9188,-1.437908E-05
459.0188,-1.437344E-05
459.1188,-1.436873E-05
459.2188,-1.433577E-05
459.3188,-1.433106E-05
459.4188,-1.433388E-05
459.5188,-1.434047E-05
459.6188,-1.432823E-05
459.7188,-1.430092E-05
459.8188,-1.431693E-05
459.9189,-1.433765E-05
460.0189,-1.429056E-05
460.1189,-1.428397E-05
460.2189,-1.430281E-05
460.3189,-1.428397E-05
460.4189,-1.425289E-05
460.5189,-1.427738E-05
460.6189,-1.428209E-05
460.7189,-1.425195E-05
460.8189,-1.429056E-05
460.9189,-1.42802E-05
461.0189,-1.426231E-05
461.1189,-1.427455E-05
461.2189,-1.428397E-05
461.3189,-1.425383E-05
461.4189,-1.424724E-05
461.519,-1.422464E-05
461.619,-1.424159E-05
461.719,-1.421052E-05
461.819,-1.42237E-05
461.919,-1.422464E-05
462.019,-1.418415E-05
462.119,-1.422182E-05
462.219,-1.420863E-05
462.319,-1.418226E-05
462.419,-1.419451E-05
462.519,-1.41785E-05
462.619,-1.416437E-05
462.719,-1.415684E-05
462.819,-1.416814E-05
462.919,-1.413894E-05
463.019,-1.413235E-05
463.119,-1.41606E-05
463.2191,-1.412953E-05
463.3191,-1.41041E-05
463.4191,-1.411917E-05
463.5191,-1.412293E-05
463.6191,-1.410316E-05
463.7191,-1.412953E-05
463.8191,-1.409468E-05
463.9191,-1.408903E-05
464.0191,-1.409186E-05
464.1191,-1.408997E-05
464.2191,-1.407585E-05
464.3191,-1.407396E-05
464.4191,-1.409468E-05
464.5191,-1.408432E-05
464.6191,-1.40476E-05
464.7191,-1.411823E-05
464.8192,-1.406078E-05
464.9192,-1.404571E-05
465.0192,-1.408432E-05
465.1192,-1.406078E-05
465.2192,-1.405419E-05
465.3192,-1.403347E-05
465.4192,-1.403912E-05
465.5192,-1.403253E-05
465.6192,-1.403159E-05
465.7192,-1.406078E-05
465.8192,-1.406549E-05
465.9192,-1.403912E-05
466.0192,-1.406172E-05
466.1192,-1.405796E-05
466.2192,-1.404665E-05
466.3192,-1.405701E-05
466.4193,-1.403441E-05
466.5193,-1.402594E-05
466.6193,-1.402499E-05
466.7193,-1.402688E-05
466.8193,-1.404383E-05
466.9193,-1.40476E-05
467.0193,-1.403159E-05
467.1193,-1.404006E-05
467.2193,-1.401463E-05
467.3193,-1.4041E-05
467.4193,-1.402688E-05
467.5193,-1.399957E-05
467.6193,-1.400616E-05
467.7193,-1.403818E-05
467.8193,-1.400333E-05
467.9193,-1.396661E-05
468.0193,-1.401463E-05
468.1194,-1.39958E-05
468.2194,-1.397414E-05
468.3194,-1.399957E-05
468.4194,-1.401181E-05
468.5194,-1.397791E-05
468.6194,-1.398167E-05
468.7194,-1.400993E-05
468.8194,-1.398638E-05
468.9194,-1.396566E-05
469.0194,-1.396849E-05
469.1194,-1.39845E-05
469.2194,-1.394683E-05
469.3194,-1.395248E-05
469.4194,-1.396284E-05
469.5194,-1.395437E-05
469.6194,-1.395154E-05
469.7195,-1.393836E-05
469.8195,-1.395342E-05
469.9195,-1.39506E-05
470.0195,-1.394024E-05
470.1195,-1.395154E-05
470.2195,-1.396661E-05
470.3195,-1.392988E-05
470.4195,-1.393741E-05
470.5195,-1.399674E-05
470.6195,-1.394118E-05
470.7195,-1.393836E-05
470.8195,-1.395719E-05
470.9195,-1.396284E-05
471.0195,-1.392988E-05
471.1195,-1.393271E-05
471.2195,-1.39619E-05
471.3195,-1.39214E-05
471.4196,-1.392988E-05
471.5196,-1.394683E-05
471.6196,-1.393176E-05
471.7196,-1.39214E-05
471.8196,-1.394683E-05
471.9196,-1.395719E-05
472.0196,-1.393271E-05
472.1196,-1.395342E-05
472.2196,-1.396566E-05
472.3196,-1.394683E-05
472.4196,-1.399298E-05
472.5196,-1.399015E-05
472.6196,-1.399015E-05
472.7196,-1.399957E-05
472.8196,-1.402499E-05
472.9196,-1.401746E-05
473.0197,-1.399015E-05
473.1197,-1.398262E-05
473.2197,-1.400522E-05
473.3197,-1.395154E-05
473.4197,-1.398356E-05
473.5197,-1.399109E-05
473.6197,-1.395625E-05
473.7197,-1.396096E-05
473.8197,-1.395342E-05
473.9197,-1.393836E-05
474.0197,-1.395342E-05
474.1197,-1.394118E-05
474.2197,-1.391575E-05
474.3197,-1.393365E-05
474.4197,-1.392611E-05
474.5197,-1.390257E-05
474.6198,-1.390822E-05
474.7198,-1.394118E-05
474.8198,-1.391858E-05
474.9198,-1.390539E-05
475.0198,-1.394118E-05
475.1198,-1.390916E-05
475.2198,-1.388938E-05
475.3198,-1.391575E-05
475.4198,-1.393647E-05
475.5198,-1.38649E-05
475.6198,-1.389786E-05
475.7198,-1.3928E-05
475.8198,-1.387903E-05
475.9198,-1.389786E-05
476.0198,-1.392988E-05
476.1198,-1.390163E-05
476.2198,-1.386961E-05
476.3199,-1.391105E-05
476.4199,-1.392988E-05
476.5199,-1.389598E-05
476.6199,-1.392705E-05
476.7199,-1.393082E-05
476.8199,-1.391575E-05
476.9199,-1.394024E-05
477.0199,-1.393459E-05
477.1199,-1.391199E-05
477.2199,-1.391858E-05
477.3199,-1.393459E-05
477.4199,-1.393553E-05
477.5199,-1.391105E-05
477.6199,-1.392423E-05
477.7199,-1.391952E-05
477.8199,-1.390822E-05
477.92,-1.391764E-05
478.02,-1.391952E-05
478.12,-1.390539E-05
478.22,-1.390257E-05
478.32,-1.390069E-05
478.42,-1.390163E-05
478.52,-1.388938E-05
478.62,-1.390822E-05
478.72,-1.3928E-05
478.82,-1.388938E-05
478.92,-1.389598E-05
479.02,-1.389033E-05
479.12,-1.388373E-05
479.22,-1.390539E-05
479.32,-1.387338E-05
479.42,-1.385831E-05
479.5201,-1.390539E-05
479.6201,-1.389786E-05
479.7201,-1.387997E-05
479.8201,-1.388844E-05
479.9201,-1.389598E-05
480.0201,-1.387243E-05
480.1201,-1.385548E-05
480.2201,-1.390351E-05
480.3201,-1.389598E-05
480.4201,-1.384983E-05
480.5201,-1.392423E-05
480.6201,-1.391293E-05
480.7201,-1.387243E-05
480.8201,-1.390822E-05
480.9201,-1.389974E-05
481.0201,-1.386019E-05
481.1201,-1.390163E-05
481.2202,-1.389974E-05
481.3202,-1.384512E-05
481.4202,-1.388279E-05
481.5202,-1.389127E-05
481.6202,-1.38536E-05
481.7202,-1.389127E-05
481.8202,-1.389692E-05
481.9202,-1.385454E-05
482.0202,-1.384418E-05
482.1202,-1.389786E-05
482.2202,-1.386396E-05
482.3202,-1.382723E-05
482.4202,-1.386867E-05
482.5202,-1.388656E-05
482.6202,-1.383382E-05
482.7202,-1.386019E-05
482.8203,-1.38762E-05
482.9203,-1.383665E-05
483.0203,-1.382535E-05
483.1203,-1.387055E-05
483.2203,-1.389221E-05
483.3203,-1.384607E-05
483.4203,-1.389127E-05
483.5203,-1.38988E-05
483.6203,-1.385925E-05
483.7203,-1.389315E-05
483.8203,-1.391764E-05
483.9203,-1.388844E-05
484.0203,-1.389315E-05
484.1203,-1.389033E-05
484.2203,-1.386584E-05
484.3203,-1.388844E-05
484.4203,-1.386584E-05
484.5204,-1.385548E-05
484.6204,-1.388373E-05
484.7204,-1.386678E-05
484.8204,-1.385266E-05
484.9204,-1.386773E-05
485.0204,-1.386773E-05
485.1204,-1.38536E-05
485.2204,-1.383477E-05
485.3204,-1.387714E-05
485.4204,-1.385077E-05
485.5204,-1.383571E-05
485.6204,-1.384418E-05
485.7204,-1.386961E-05
485.8204,-1.381687E-05
485.9204,-1.382064E-05
486.0204,-1.385266E-05
486.1205,-1.384324E-05
486.2205,-1.382064E-05
486.3205,-1.386208E-05
486.4205,-1.386396E-05
486.5205,-1.383947E-05
486.6205,-1.387338E-05
486.7205,-1.386678E-05
486.8205,-1.382723E-05
486.9205,-1.385077E-05
487.0205,-1.384607E-05
487.1205,-1.383571E-05
487.2205,-1.382817E-05
487.3205,-1.384701E-05
487.4205,-1.379521E-05
487.5205,-1.384607E-05
487.6205,-1.384889E-05
487.7206,-1.378109E-05
487.8206,-1.380369E-05
487.9206,-1.384512E-05
488.0206,-1.38197E-05
488.1206,-1.379615E-05
488.2206,-1.384324E-05
488.3206,-1.382346E-05
488.4206,-1.379144E-05
488.5206,-1.382441E-05
488.6206,-1.382346E-05
488.7206,-1.38084E-05
488.8206,-1.381405E-05
488.9206,-1.382064E-05
489.0206,-1.38018E-05
489.1206,-1.379521E-05
489.2206,-1.37971E-05
489.3206,-1.380651E-05
489.4207,-1.379239E-05
489.5207,-1.383194E-05
489.6207,-1.384701E-05
489.7207,-1.380275E-05
489.8207,-1.383006E-05
489.9207,-1.383853E-05
490.0207,-1.381122E-05
490.1207,-1.381499E-05
490.2207,-1.380934E-05
490.3207,-1.380557E-05
490.4207,-1.380369E-05
490.5207,-1.378014E-05
490.6207,-1.37971E-05
490.7207,-1.379898E-05
490.8207,-1.379239E-05
490.9207,-1.375848E-05
491.0208,-1.378485E-05
491.1208,-1.380934E-05
491.2208,-1.376225E-05
491.3208,-1.375095E-05
491.4208,-1.382346E-05
491.5208,-1.382629E-05
491.6208,-1.379333E-05
491.7208,-1.384041E-05
491.8208,-1.381122E-05
491.9208,-1.380086E-05
492.0208,-1.383382E-05
492.1208,-1.382158E-05
492.2208,-1.379427E-05
492.3208,-1.381028E-05
492.4208,-1.38197E-05
492.5208,-1.379521E-05
492.6208,-1.377544E-05
492.7209,-1.382629E-05
492.8209,-1.379144E-05
492.9209,-1.375472E-05
493.0209,-1.380275E-05
493.1209,-1.379898E-05
493.2209,-1.376978E-05
493.3209,-1.378203E-05
493.4209,-1.380557E-05
493.5209,-1.376414E-05
493.6209,-1.374718E-05
493.7209,-1.378768E-05
493.8209,-1.378579E-05
493.9209,-1.376037E-05
494.0209,-1.377261E-05
494.1209,-1.379521E-05
494.2209,-1.375284E-05
494.321,-1.374153E-05
494.421,-1.377167E-05
494.521,-1.37679E-05
494.621,-1.37566E-05
494.721,-1.376131E-05
494.821,-1.374813E-05
494.921,-1.376225E-05
495.021,-1.37453E-05
495.121,-1.373683E-05
495.221,-1.376696E-05
495.321,-1.376602E-05
495.421,-1.374342E-05
495.521,-1.37566E-05
495.621,-1.376602E-05
495.721,-1.374248E-05
495.821,-1.375472E-05
495.9211,-1.375001E-05
496.0211,-1.374248E-05
496.1211,-1.375378E-05
496.2211,-1.373965E-05
496.3211,-1.373777E-05
496.4211,-1.376978E-05
496.5211,-1.376508E-05
496.6211,-1.376319E-05
496.7211,-1.37792E-05
496.8211,-1.376884E-05
496.9211,-1.378768E-05
497.0211,-1.377638E-05
497.1211,-1.375943E-05
497.2211,-1.382252E-05
497.3211,-1.382817E-05
497.4211,-1.380369E-05
497.5211,-1.382817E-05
497.6212,-1.383194E-05
497.7212,-1.381687E-05
497.8212,-1.379992E-05
497.9212,-1.381028E-05
498.0212,-1.381499E-05
498.1212,-1.378768E-05
498.2212,-1.380369E-05
498.3212,-1.380934E-05
498.4212,-1.382346E-05
498.5212,-1.383006E-05
498.6212,-1.381122E-05
498.7212,-1.381593E-05
498.8212,-1.382629E-05
498.9212,-1.37905E-05
499.0212,-1.380651E-05
499.1212,-1.382911E-05
499.2213,-1.380086E-05
499.3213,-1.381028E-05
499.4213,-1.381122E-05
499.5213,-1.380463E-05
499.6213,-1.382064E-05
499.7213,-1.381876E-05
499.8213,-1.384418E-05
499.9213,-1.383194E-05
500.0213,-1.382817E-05
500.1213,-1.383194E-05
500.2213,-1.381687E-05
500.3213,-1.38197E-05
500.4213,-1.382252E-05
500.5213,-1.382252E-05
500.6213,-1.382064E-05
500.7213,-1.382064E-05
500.8214,-1.3831E-05
500.9214,-1.380463E-05
501.0214,-1.381593E-05
501.1214,-1.382064E-05
501.2214,-1.379521E-05
501.3214,-1.378203E-05
501.4214,-1.38084E-05
501.5214,-1.381593E-05
501.6214,-1.377355E-05
501.7214,-1.381028E-05
501.8214,-1.380086E-05
501.9214,-1.378956E-05
502.0214,-1.378579E-05
502.1214,-1.380463E-05
502.2214,-1.37792E-05
502.3214,-1.376602E-05
502.4214,-1.380651E-05
502.5215,-1.381216E-05
502.6215,-1.377261E-05
502.7215,-1.380745E-05
502.8215,-1.380651E-05
502.9215,-1.378297E-05
503.0215,-1.37905E-05
503.1215,-1.377732E-05
503.2215,-1.378391E-05
503.3215,-1.375848E-05
503.4215,-1.375754E-05
503.5215,-1.378485E-05
503.6215,-1.376696E-05
503.7215,-1.376037E-05
503.8215,-1.378768E-05
503.9215,-1.376696E-05
504.0215,-1.373871E-05
504.1216,-1.376319E-05
504.2216,-1.376884E-05
504.3216,-1.37566E-05
504.4216,-1.37679E-05
504.5216,-1.376978E-05
504.6216,-1.376131E-05
504.7216,-1.377073E-05
504.8216,-1.377732E-05
504.9216,-1.376508E-05
505.0216,-1.377544E-05
505.1216,-1.377732E-05
505.2216,-1.375472E-05
505.3216,-1.377449E-05
505.4216,-1.375472E-05
505.5216,-1.37453E-05
505.6216,-1.375378E-05
505.7216,-1.376131E-05
505.8217,-1.372458E-05
505.9217,-1.374248E-05
506.0217,-1.37566E-05
506.1217,-1.374059E-05
506.2217,-1.373117E-05
506.3217,-1.373494E-05
506.4217,-1.374624E-05
506.5217,-1.373777E-05
506.6217,-1.372835E-05
506.7217,-1.373871E-05
506.8217,-1.37453E-05
506.9217,-1.375378E-05
507.0217,-1.371422E-05
507.1217,-1.372929E-05
507.2217,-1.373683E-05
507.3217,-1.37114E-05
507.4218,-1.371611E-05
507.5218,-1.373494E-05
507.6218,-1.373306E-05
507.7218,-1.370386E-05
507.8218,-1.369916E-05
507.9218,-1.37227E-05
508.0218,-1.370669E-05
508.1218,-1.366337E-05
508.2218,-1.370951E-05
508.3218,-1.370104E-05
508.4218,-1.367655E-05
508.5218,-1.371987E-05
508.6218,-1.370386E-05
508.7218,-1.369445E-05
508.8218,-1.370763E-05
508.9218,-1.368126E-05
509.0219,-1.369539E-05
509.1219,-1.367844E-05
509.2219,-1.368315E-05
509.3219,-1.368974E-05
509.4219,-1.366243E-05
509.5219,-1.367561E-05
509.6219,-1.367467E-05
509.7219,-1.363983E-05
509.8219,-1.368409E-05
509.9219,-1.36709E-05
510.0219,-1.363983E-05
510.1219,-1.367561E-05
510.2219,-1.366808E-05
510.3219,-1.365113E-05
510.4219,-1.363229E-05
510.5219,-1.364171E-05
510.6219,-1.363794E-05
510.722,-1.362664E-05
510.822,-1.364736E-05
510.922,-1.364454E-05
511.022,-1.361722E-05
511.122,-1.362947E-05
511.222,-1.36144E-05
511.322,-1.358991E-05
511.422,-1.362099E-05
511.522,-1.362099E-05
511.622,-1.357485E-05
511.722,-1.358615E-05
511.822,-1.359933E-05
511.922,-1.356825E-05
512.022,-1.358144E-05
512.122,-1.361911E-05
512.222,-1.358615E-05
512.322,-1.358426E-05
512.4219,-1.363512E-05
512.5219,-1.359651E-05
512.6219,-1.357014E-05
512.7219,-1.36031E-05
512.8218,-1.360687E-05
512.9218,-1.357108E-05
513.0218,-1.357391E-05
513.1218,-1.360969E-05
513.2217,-1.357767E-05
513.3217,-1.36031E-05
513.4217,-1.363041E-05
513.5217,-1.361157E-05
513.6216,-1.358991E-05
513.7216,-1.363512E-05
513.8216,-1.363512E-05
513.9216,-1.360593E-05
514.0215,-1.364171E-05
514.1215,-1.365113E-05
514.2215,-1.362664E-05
514.3215,-1.363512E-05
514.4214,-1.366808E-05
514.5214,-1.363888E-05
514.6214,-1.363983E-05
514.7214,-1.366619E-05
514.8214,-1.367184E-05
514.9213,-1.365866E-05
515.0213,-1.366619E-05
515.1213,-1.365301E-05
515.2213,-1.364924E-05
515.3212,-1.368126E-05
515.4212,-1.366619E-05
515.5212,-1.364736E-05
515.6212,-1.367373E-05
515.7211,-1.36483E-05
515.8211,-1.363794E-05
515.9211,-1.365678E-05
516.0211,-1.363135E-05
516.121,-1.3637E-05
516.221,-1.364265E-05
516.321,-1.364642E-05
516.421,-1.363983E-05
516.5209,-1.361157E-05
516.6209,-1.363512E-05
516.7209,-1.362758E-05
516.8209,-1.361911E-05
516.9208,-1.362382E-05
517.0208,-1.362664E-05
517.1208,-1.359462E-05
517.2208,-1.361817E-05
517.3207,-1.361063E-05
517.4207,-1.359651E-05
517.5207,-1.359933E-05
517.6207,-1.360687E-05
517.7206,-1.360593E-05
517.8206,-1.358521E-05
517.9206,-1.359368E-05
518.0206,-1.358803E-05
518.1205,-1.359557E-05
518.2205,-1.358991E-05
518.3205,-1.358803E-05
518.4205,-1.356731E-05
518.5204,-1.361722E-05
518.6204,-1.35579E-05
518.7204,-1.360781E-05
518.8204,-1.360781E-05
518.9203,-1.359557E-05
519.0203,-1.358897E-05
519.1203,-1.362193E-05
519.2203,-1.358144E-05
519.3203,-1.358803E-05
519.4202,-1.360121E-05
519.5202,-1.359557E-05
519.6202,-1.356072E-05
519.7202,-1.356825E-05
519.8201,-1.358803E-05
519.9201,-1.357202E-05
520.0201,-1.353529E-05
520.1201,-1.361157E-05
520.22,-1.357391E-05
520.32,-1.35513E-05
520.42,-1.357579E-05
520.52,-1.359933E-05
520.6199,-1.356072E-05
520.7199,-1.35466E-05
520.8199,-1.357956E-05
520.9199,-1.357014E-05
521.0198,-1.355036E-05
521.1198,-1.356731E-05
521.2198,-1.356825E-05
521.3198,-1.354283E-05
521.4197,-1.355507E-05
521.5197,-1.35692E-05
521.6197,-1.354848E-05
521.7197,-1.355978E-05
521.8196,-1.35805E-05
521.9196,-1.355884E-05
522.0196,-1.356166E-05
522.1196,-1.356166E-05
522.2195,-1.354E-05
522.3195,-1.352117E-05
522.4195,-1.353529E-05
522.5195,-1.356449E-05
522.6194,-1.353812E-05
522.7194,-1.354942E-05
522.8194,-1.357861E-05
522.9194,-1.355695E-05
523.0193,-1.35579E-05
523.1193,-1.357108E-05
523.2193,-1.356637E-05
523.3193,-1.355978E-05
523.4193,-1.35579E-05
523.5192,-1.35513E-05
523.6192,-1.35579E-05
523.7192,-1.357014E-05
523.8192,-1.355884E-05
523.9191,-1.356543E-05
524.0191,-1.356543E-05
524.1191,-1.35513E-05
524.2191,-1.356449E-05
524.319,-1.356072E-05
524.419,-1.355601E-05
524.519,-1.355884E-05
524.619,-1.358803E-05
524.7189,-1.356355E-05
524.8189,-1.353153E-05
524.9189,-1.36031E-05
525.0189,-1.355319E-05
525.1188,-1.354189E-05
525.2188,-1.356825E-05
525.3188,-1.358615E-05
525.4188,-1.355036E-05
525.5187,-1.35513E-05
525.6187,-1.35626E-05
525.7187,-1.355319E-05
525.8187,-1.355978E-05
525.9186,-1.354E-05
526.0186,-1.354754E-05
526.1186,-1.354848E-05
526.2186,-1.353624E-05
526.3185,-1.357108E-05
526.4185,-1.357296E-05
526.5185,-1.356449E-05
526.6185,-1.355695E-05
526.7184,-1.355884E-05
526.8184,-1.355225E-05
526.9184,-1.353624E-05
527.0184,-1.356637E-05
527.1183,-1.355884E-05
527.2183,-1.354754E-05
527.3183,-1.357108E-05
527.4183,-1.356072E-05
527.5182,-1.357391E-05
527.6182,-1.354848E-05
527.7182,-1.355884E-05
527.8182,-1.356825E-05
527.9182,-1.354377E-05
528.0181,-1.354094E-05
528.1181,-1.356166E-05
528.2181,-1.355507E-05
528.3181,-1.355225E-05
528.418,-1.355695E-05
528.518,-1.353153E-05
528.618,-1.354189E-05
528.718,-1.352305E-05
528.8179,-1.353059E-05
528.9179,-1.352211E-05
529.0179,-1.353341E-05
529.1179,-1.354754E-05
529.2178,-1.352776E-05
529.3178,-1.35174E-05
529.4178,-1.353812E-05
529.5178,-1.352494E-05
529.6177,-1.351269E-05
529.7177,-1.352399E-05
529.8177,-1.352964E-05
529.9177,-1.351175E-05
530.0176,-1.351928E-05
530.1176,-1.353624E-05
530.2176,-1.350704E-05
530.3176,-1.347785E-05
530.4175,-1.352682E-05
530.5175,-1.350893E-05
530.6175,-1.349386E-05
530.7175,-1.351646E-05
530.8174,-1.352494E-05
530.9174,-1.348256E-05
531.0174,-1.35061E-05
531.1174,-1.350704E-05
531.2173,-1.349009E-05
531.3173,-1.346278E-05
531.4173,-1.35174E-05
531.5173,-1.351458E-05
531.6172,-1.347032E-05
531.7172,-1.354565E-05
531.8172,-1.351646E-05
531.9172,-1.349197E-05
532.0172,-1.351458E-05
532.1171,-1.352305E-05
532.2171,-1.350798E-05
532.3171,-1.350987E-05
532.4171,-1.350987E-05
532.517,-1.35061E-05
532.617,-1.349009E-05
532.717,-1.351081E-05
532.817,-1.352305E-05
532.9169,-1.348067E-05
533.0169,-1.349951E-05
533.1169,-1.350893E-05
533.2169,-1.349857E-05
533.3168,-1.348444E-05
533.4168,-1.350328E-05
533.5168,-1.348538E-05
533.6168,-1.347032E-05
533.7167,-1.347502E-05
533.8167,-1.349386E-05
533.9167,-1.347785E-05
534.0167,-1.347126E-05
534.1166,-1.347973E-05
534.2166,-1.348444E-05
534.3166,-1.34722E-05
534.4166,-1.348632E-05
534.5165,-1.348727E-05
534.6165,-1.348632E-05
534.7165,-1.347502E-05
534.8165,-1.348538E-05
534.9164,-1.348444E-05
535.0164,-1.348632E-05
535.1164,-1.348915E-05
535.2164,-1.34722E-05
535.3163,-1.346278E-05
535.4163,-1.347126E-05
535.5163,-1.346278E-05
535.6163,-1.347408E-05
535.7162,-1.347879E-05
535.8162,-1.345242E-05
535.9162,-1.350233E-05
536.0162,-1.349197E-05
536.1161,-1.347032E-05
536.2161,-1.348067E-05
536.3161,-1.34835E-05
536.4161,-1.347597E-05
536.5161,-1.344771E-05
536.616,-1.347973E-05
536.716,-1.350139E-05
536.816,-1.345807E-05
536.916,-1.352117E-05
537.0159,-1.348821E-05
537.1159,-1.348256E-05
537.2159,-1.350422E-05
537.3159,-1.349292E-05
537.4158,-1.346561E-05
537.5158,-1.347785E-05
537.6158,-1.349857E-05
537.7158,-1.34383E-05
537.8157,-1.344677E-05
537.9157,-1.34722E-05
538.0157,-1.346184E-05
538.1157,-1.343924E-05
538.2156,-1.344866E-05
538.3156,-1.345336E-05
538.4156,-1.342794E-05
538.5156,-1.347973E-05
538.6155,-1.346561E-05
538.7155,-1.344018E-05
538.8155,-1.347126E-05
538.9155,-1.34609E-05
539.0154,-1.344489E-05
539.1154,-1.343735E-05
539.2154,-1.343735E-05
539.3154,-1.345807E-05
539.4153,-1.341004E-05
539.5153,-1.344395E-05
539.6153,-1.344583E-05
539.7153,-1.343076E-05
539.8152,-1.343453E-05
539.9152,-1.3443E-05
540.0152,-1.342605E-05
540.1152,-1.342794E-05
540.2151,-1.341852E-05
540.3151,-1.341664E-05
540.4151,-1.342699E-05
540.5151,-1.341852E-05
540.6151,-1.338744E-05
540.715,-1.341004E-05
540.815,-1.3443E-05
540.915,-1.340063E-05
541.015,-1.337238E-05
541.1149,-1.33978E-05
541.2149,-1.341569E-05
541.3149,-1.339403E-05
541.4149,-1.342982E-05
541.5148,-1.341287E-05
541.6148,-1.340345E-05
541.7148,-1.341193E-05
541.8148,-1.340439E-05
541.9147,-1.340157E-05
542.0147,-1.339027E-05
542.1147,-1.341004E-05
542.2147,-1.342511E-05
542.3146,-1.338273E-05
542.4146,-1.343924E-05
542.5146,-1.339686E-05
542.6146,-1.33639E-05
542.7145,-1.338839E-05
542.8145,-1.33865E-05
542.9145,-1.336107E-05
543.0145,-1.337426E-05
543.1144,-1.340251E-05
543.2144,-1.337332E-05
543.3144,-1.334789E-05
543.4144,-1.340063E-05
543.5143,-1.337991E-05
543.6143,-1.335448E-05
543.7143,-1.338085E-05
543.8143,-1.336861E-05
543.9142,-1.334601E-05
544.0142,-1.334789E-05
544.1142,-1.336955E-05
544.2142,-1.333282E-05
544.3141,-1.335542E-05
544.4141,-1.336861E-05
544.5141,-1.335072E-05
544.6141,-1.333941E-05
544.7141,-1.335448E-05
544.814,-1.335637E-05
544.914,-1.334789E-05
545.014,-1.336578E-05
545.114,-1.336202E-05
545.2139,-1.334601E-05
545.3139,-1.339309E-05
545.4139,-1.337332E-05
545.5139,-1.335354E-05
545.6138,-1.337332E-05
545.7138,-1.335825E-05
545.8138,-1.334695E-05
545.9138,-1.334412E-05
546.0137,-1.335072E-05
546.1137,-1.333659E-05
546.2137,-1.332623E-05
546.3137,-1.33526E-05
546.4136,-1.334695E-05
546.5136,-1.333282E-05
546.6136,-1.336578E-05
546.7136,-1.332717E-05
546.8135,-1.332435E-05
546.9135,-1.334883E-05
547.0135,-1.334883E-05
547.1135,-1.332058E-05
547.2134,-1.33121E-05
547.3134,-1.333565E-05
547.4134,-1.332906E-05
547.5134,-1.331305E-05
547.6133,-1.332529E-05
547.7133,-1.332623E-05
547.8133,-1.33234E-05
547.9133,-1.333282E-05
548.0132,-1.332623E-05
548.1132,-1.334883E-05
548.2132,-1.331493E-05
548.3132,-1.333E-05
548.4131,-1.331964E-05
548.5131,-1.331964E-05
548.6131,-1.331493E-05
548.7131,-1.331116E-05
548.813,-1.331587E-05
548.913,-1.33234E-05
549.013,-1.331116E-05
549.113,-1.330551E-05
549.213,-1.329421E-05
549.3129,-1.329044E-05
549.4129,-1.328197E-05
549.5129,-1.329327E-05
549.6129,-1.329704E-05
549.7128,-1.329421E-05
549.8128,-1.33008E-05
549.9128,-1.328573E-05
550.0128,-1.329044E-05
550.1127,-1.326973E-05
550.2127,-1.327538E-05
550.3127,-1.328856E-05
550.4127,-1.325372E-05
550.5126,-1.329421E-05
550.6126,-1.328009E-05
550.7126,-1.327538E-05
550.8126,-1.328291E-05
550.9125,-1.32782E-05
551.0125,-1.326973E-05
551.1125,-1.325372E-05
551.2125,-1.326313E-05
551.3124,-1.327726E-05
551.4124,-1.324524E-05
551.5124,-1.329044E-05
551.6124,-1.32782E-05
551.7123,-1.323017E-05
551.8123,-1.326784E-05
551.9123,-1.326878E-05
552.0123,-1.323582E-05
552.1122,-1.323206E-05
552.2122,-1.326596E-05
552.3122,-1.325277E-05
552.4122,-1.32443E-05
552.5121,-1.325843E-05
552.6121,-1.324242E-05
552.7121,-1.323206E-05
552.8121,-1.322264E-05
552.912,-1.323582E-05
553.012,-1.321981E-05
553.112,-1.323582E-05
553.212,-1.323017E-05
553.312,-1.320663E-05
553.4119,-1.323488E-05
553.5119,-1.321793E-05
553.6119,-1.320098E-05
553.7119,-1.321511E-05
553.8118,-1.322076E-05
553.9118,-1.320569E-05
554.0118,-1.321793E-05
554.1118,-1.32556E-05
554.2117,-1.324147E-05
554.3117,-1.321699E-05
554.4117,-1.325466E-05
554.5117,-1.321511E-05
554.6116,-1.32038E-05
554.7116,-1.321605E-05
554.8116,-1.32104E-05
554.9116,-1.319721E-05
555.0115,-1.317273E-05
555.1115,-1.319062E-05
555.2115,-1.319815E-05
555.3115,-1.314542E-05
555.4114,-1.320569E-05
555.5114,-1.318403E-05
555.6114,-1.314165E-05
555.7114,-1.317367E-05
555.8113,-1.317179E-05
555.9113,-1.313883E-05
556.0113,-1.314259E-05
556.1113,-1.316143E-05
556.2112,-1.312941E-05
556.3112,-1.311717E-05
556.4112,-1.315295E-05
556.5112,-1.313129E-05
556.6111,-1.310492E-05
556.7111,-1.312187E-05
556.8111,-1.313977E-05
556.9111,-1.311057E-05
557.011,-1.315766E-05
557.111,-1.312282E-05
557.211,-1.313129E-05
557.311,-1.312376E-05
557.4109,-1.312376E-05
557.5109,-1.311528E-05
557.6109,-1.311717E-05
557.7109,-1.31247E-05
557.8109,-1.31134E-05
557.9108,-1.310492E-05
558.0108,-1.314353E-05
558.1108,-1.314636E-05
558.2108,-1.309456E-05
558.3107,-1.313506E-05
558.4107,-1.313883E-05
558.5107,-1.310587E-05
558.6107,-1.312093E-05
558.7106,-1.312752E-05
558.8106,-1.31021E-05
558.9106,-1.310869E-05
559.0106,-1.311622E-05
559.1105,-1.313129E-05
559.2105,-1.307761E-05
559.3105,-1.313506E-05
559.4105,-1.311999E-05
559.5104,-1.308232E-05
559.6104,-1.311999E-05
559.7104,-1.310775E-05
559.8104,-1.307667E-05
559.9103,-1.308044E-05
560.0103,-1.31021E-05
560.1103,-1.308609E-05
560.2103,-1.30908E-05
560.3102,-1.30908E-05
560.4102,-1.308797E-05
560.5102,-1.30729E-05
560.6102,-1.309174E-05
560.7101,-1.307102E-05
560.8101,-1.306725E-05
560.9101,-1.308138E-05
561.0101,-1.30842E-05
561.11,-1.305689E-05
561.21,-1.308891E-05
561.31,-1.308515E-05
561.41,-1.306066E-05
561.5099,-1.309833E-05
561.6099,-1.30682E-05
561.7099,-1.30616E-05
561.8099,-1.30729E-05
561.9099,-1.307385E-05
562.0098,-1.30503E-05
562.1098,-1.305501E-05
562.2098,-1.308232E-05
562.3098,-1.305407E-05
562.4097,-1.303994E-05
562.5097,-1.30908E-05
562.6097,-1.305878E-05
562.7097,-1.303712E-05
562.8096,-1.305972E-05
562.9096,-1.304936E-05
563.0096,-1.301734E-05
563.1096,-1.304089E-05
563.2095,-1.305784E-05
563.3095,-1.304465E-05
563.4095,-1.303429E-05
563.5095,-1.305972E-05
563.6094,-1.304748E-05
563.7094,-1.300981E-05
563.8094,-1.306914E-05
563.9094,-1.302864E-05
564.0093,-1.302488E-05
564.1093,-1.303712E-05
564.2093,-1.304559E-05
564.3093,-1.302299E-05
564.4092,-1.303523E-05
564.5092,-1.303523E-05
564.6092,-1.300887E-05
564.7092,-1.303053E-05
564.8091,-1.306914E-05
564.9091,-1.3039E-05
565.0091,-1.300604E-05
565.1091,-1.308044E-05
565.209,-1.302864E-05
565.309,-1.301546E-05
565.409,-1.305784E-05
565.509,-1.302488E-05
565.6089,-1.302017E-05
565.7089,-1.302299E-05
565.8089,-1.303053E-05
565.9089,-1.302488E-05
566.0089,-1.300133E-05
566.1088,-1.303429E-05
566.2088,-1.302393E-05
566.3088,-1.29825E-05
566.4088,-1.304936E-05
566.5087,-1.301828E-05
566.6087,-1.29825E-05
566.7087,-1.301546E-05
566.8087,-1.302205E-05
566.9086,-1.299662E-05
567.0086,-1.299003E-05
567.1086,-1.301734E-05
567.2086,-1.30051E-05
567.3085,-1.298815E-05
567.4085,-1.301828E-05
567.5085,-1.301357E-05
567.6085,-1.299286E-05
567.7084,-1.302393E-05
567.8084,-1.299945E-05
567.9084,-1.298721E-05
568.0084,-1.301923E-05
568.1083,-1.301734E-05
568.2083,-1.301075E-05
568.3083,-1.300604E-05
568.4083,-1.299474E-05
568.5082,-1.299474E-05
568.6082,-1.298438E-05
568.7082,-1.301075E-05
568.8082,-1.298438E-05
568.9081,-1.298344E-05
569.0081,-1.301828E-05
569.1081,-1.296931E-05
569.2081,-1.29712E-05
569.308,-1.300133E-05
569.408,-1.298626E-05
569.508,-1.296178E-05
569.608,-1.298721E-05
569.7079,-1.300322E-05
569.8079,-1.296366E-05
569.9079,-1.297308E-05
570.0079,-1.299097E-05
570.1078,-1.296178E-05
570.2078,-1.294295E-05
570.3078,-1.297308E-05
570.4078,-1.298156E-05
570.5078,-1.296837E-05
570.6077,-1.297967E-05
570.7077,-1.298156E-05
570.8077,-1.297779E-05
570.9077,-1.295613E-05
571.0076,-1.295142E-05
571.1076,-1.295519E-05
571.2076,-1.294765E-05
571.3076,-1.294765E-05
571.4075,-1.296084E-05
571.5075,-1.292882E-05
571.6075,-1.296555E-05
571.7075,-1.295236E-05
571.8074,-1.293729E-05
571.9074,-1.29486E-05
572.0074,-1.295613E-05
572.1074,-1.293729E-05
572.2073,-1.292129E-05
572.3073,-1.296461E-05
572.4073,-1.295707E-05
572.5073,-1.292599E-05
572.6072,-1.300698E-05
572.7072,-1.296649E-05
572.8072,-1.293447E-05
572.9072,-1.296272E-05
573.0071,-1.297026E-05
573.1071,-1.294012E-05
573.2071,-1.292976E-05
573.3071,-1.29533E-05
573.407,-1.295613E-05
573.507,-1.291752E-05
573.607,-1.296272E-05
573.707,-1.295801E-05
573.8069,-1.292505E-05
573.9069,-1.294954E-05
574.0069,-1.296178E-05
574.1069,-1.293259E-05
574.2068,-1.29307E-05
574.3068,-1.295707E-05
574.4068,-1.295142E-05
574.5068,-1.290998E-05
574.6068,-1.293635E-05
574.7067,-1.293447E-05
574.8067,-1.290716E-05
574.9067,-1.291752E-05
575.0067,-1.292223E-05
575.1066,-1.289868E-05
575.2066,-1.287985E-05
575.3066,-1.288927E-05
575.4066,-1.290151E-05
575.5065,-1.288644E-05
575.6065,-1.288832E-05
575.7065,-1.288173E-05
575.8065,-1.287797E-05
575.9064,-1.289868E-05
576.0064,-1.288079E-05
576.1064,-1.287514E-05
576.2064,-1.287137E-05
576.3063,-1.286761E-05
576.4063,-1.286667E-05
576.5063,-1.286478E-05
576.6063,-1.285913E-05
576.7062,-1.284877E-05
576.8062,-1.28516E-05
576.9062,-1.286384E-05
577.0062,-1.28629E-05
577.1061,-1.284689E-05
577.2061,-1.284124E-05
577.3061,-1.283935E-05
577.4061,-1.284124E-05
577.506,-1.283841E-05
577.606,-1.284406E-05
577.706,-1.283653E-05
577.806,-1.284124E-05
577.9059,-1.282523E-05
578.0059,-1.282711E-05
578.1059,-1.283465E-05
578.2059,-1.282429E-05
578.3058,-1.281958E-05
578.4058,-1.282146E-05
578.5058,-1.281204E-05
578.6058,-1.281581E-05
578.7057,-1.281769E-05
578.8057,-1.280169E-05
578.9057,-1.280169E-05
579.0057,-1.279698E-05
579.1057,-1.279792E-05
579.2056,-1.280357E-05
579.3056,-1.277438E-05
579.4056,-1.284218E-05
579.5056,-1.280545E-05
579.6055,-1.278191E-05
579.7055,-1.281958E-05
579.8055,-1.280357E-05
579.9055,-1.28111E-05
580.0054,-1.280074E-05
580.1054,-1.27998E-05
580.2054,-1.281958E-05
580.3054,-1.279415E-05
580.4053,-1.280263E-05
580.5053,-1.280169E-05
580.6053,-1.276684E-05
580.7053,-1.27998E-05
580.8052,-1.27885E-05
580.9052,-1.277908E-05
581.0052,-1.279509E-05
581.1052,-1.277814E-05
581.2051,-1.276967E-05
581.3051,-1.275272E-05
581.4051,-1.276496E-05
581.5051,-1.279038E-05
581.605,-1.274047E-05
581.705,-1.27546E-05
581.805,-1.276402E-05
581.905,-1.276402E-05
582.0049,-1.276778E-05
582.1049,-1.275272E-05
582.2049,-1.275648E-05
582.3049,-1.274801E-05
582.4048,-1.273953E-05
582.5048,-1.272823E-05
582.6048,-1.27207E-05
582.7048,-1.271505E-05
582.8047,-1.273671E-05
582.9047,-1.273576E-05
583.0047,-1.271787E-05
583.1047,-1.270657E-05
583.2047,-1.269998E-05
583.3046,-1.272635E-05
583.4046,-1.271034E-05
583.5046,-1.269904E-05
583.6046,-1.271881E-05
583.7045,-1.272446E-05
583.8045,-1.270186E-05
583.9045,-1.271787E-05
584.0045,-1.27207E-05
584.1044,-1.270092E-05
584.2044,-1.270092E-05
584.3044,-1.273482E-05
584.4044,-1.271975E-05
584.5043,-1.270469E-05
584.6043,-1.274518E-05
584.7043,-1.27028E-05
584.8043,-1.269244E-05
584.9042,-1.27141E-05
585.0042,-1.27094E-05
585.1042,-1.269244E-05
585.2042,-1.268774E-05
585.3041,-1.270469E-05
585.4041,-1.269904E-05
585.5041,-1.26689E-05
585.6041,-1.274142E-05
585.704,-1.267644E-05
585.804,-1.266984E-05
585.904,-1.270469E-05
586.004,-1.271128E-05
586.1039,-1.268868E-05
586.2039,-1.27094E-05
586.3039,-1.275931E-05
586.4039,-1.276119E-05
586.5038,-1.278002E-05
586.6038,-1.282146E-05
586.7038,-1.284595E-05
586.8038,-1.284218E-05
586.9037,-1.286855E-05
587.0037,-1.289303E-05
587.1037,-1.292411E-05
587.2037,-1.294012E-05
587.3036,-1.297873E-05
587.4036,-1.298532E-05
587.5036,-1.297402E-05
587.6036,-1.301923E-05
587.7036,-1.304183E-05
587.8035,-1.304183E-05
587.9035,-1.30616E-05
588.0035,-1.311057E-05
588.1035,-1.309268E-05
588.2034,-1.31473E-05
588.3034,-1.31586E-05
588.4034,-1.314636E-05
588.5034,-1.318685E-05
588.6033,-1.320569E-05
588.7033,-1.32104E-05
588.8033,-1.323017E-05
588.9033,-1.32556E-05
589.0032,-1.324712E-05
589.1032,-1.324053E-05
589.2032,-1.327632E-05
589.3032,-1.329704E-05
589.4031,-1.325654E-05
589.5031,-1.329421E-05
589.6031,-1.33234E-05
589.7031,-1.329327E-05
589.803,-1.332246E-05
589.903,-1.336578E-05
590.003,-1.332529E-05
590.103,-1.333376E-05
590.2029,-1.337332E-05
590.3029,-1.334036E-05
590.4029,-1.33526E-05
590.5029,-1.338744E-05
590.6028,-1.33639E-05
590.7028,-1.336955E-05
590.8028,-1.33865E-05
590.9028,-1.337426E-05
591.0027,-1.336673E-05
591.1027,-1.338556E-05
591.2027,-1.339874E-05
591.3027,-1.338556E-05
591.4026,-1.339874E-05
591.5026,-1.339874E-05
591.6026,-1.340157E-05
591.7026,-1.338839E-05
591.8026,-1.339121E-05
591.9025,-1.341381E-05
592.0025,-1.337802E-05
592.1025,-1.340628E-05
592.2025,-1.341569E-05
592.3024,-1.339121E-05
592.4024,-1.343735E-05
592.5024,-1.341664E-05
592.6024,-1.34091E-05
592.7023,-1.342605E-05
592.8023,-1.34204E-05
592.9023,-1.34091E-05
593.0023,-1.33978E-05
593.1022,-1.342511E-05
593.2022,-1.343453E-05
593.3022,-1.340345E-05
593.4022,-1.342417E-05
593.5021,-1.342511E-05
593.6021,-1.339498E-05
593.7021,-1.342417E-05
593.8021,-1.342699E-05
593.902,-1.340816E-05
594.002,-1.339686E-05
594.102,-1.340816E-05
594.202,-1.341287E-05
594.3019,-1.336013E-05
594.4019,-1.339874E-05
594.5019,-1.339874E-05
594.6019,-1.336673E-05
594.7018,-1.339121E-05
594.8018,-1.338085E-05
594.9018,-1.336955E-05
595.0018,-1.33752E-05
595.1017,-1.339027E-05
595.2017,-1.336296E-05
595.3017,-1.337049E-05
595.4017,-1.335448E-05
595.5016,-1.337991E-05
595.6016,-1.339874E-05
595.7016,-1.335919E-05
595.8016,-1.334789E-05
595.9016,-1.334224E-05
596.0015,-1.334601E-05
596.1015,-1.335072E-05
596.2015,-1.333659E-05
596.3015,-1.335825E-05
596.4014,-1.333282E-05
596.5014,-1.333941E-05
596.6014,-1.336767E-05
596.7014,-1.334036E-05
596.8013,-1.332623E-05
596.9013,-1.336767E-05
597.0013,-1.33526E-05
597.1013,-1.33187E-05
597.2012,-1.332906E-05
597.3012,-1.334789E-05
597.4012,-1.33234E-05
597.5012,-1.333565E-05
597.6011,-1.335542E-05
597.7011,-1.331022E-05
597.8011,-1.330645E-05
597.9011,-1.335731E-05
598.001,-1.333659E-05
598.101,-1.32895E-05
598.201,-1.331587E-05
598.301,-1.333188E-05
598.4009,-1.328762E-05
598.5009,-1.328103E-05
598.6009,-1.331116E-05
598.7009,-1.330457E-05
598.8008,-1.327161E-05
598.9008,-1.330928E-05
599.0008,-1.331964E-05
599.1008,-1.329609E-05
599.2007,-1.331399E-05
599.3007,-1.332152E-05
599.4007,-1.329704E-05
599.5007,-1.330363E-05
599.6006,-1.329327E-05
599.7006,-1.329044E-05
599.8006,-1.326125E-05
599.9006,-1.328668E-05
600.0005,-1.331022E-05
