EXPID. 0255
[电化学]: i-t : @ 0(V) X 600(sec)
起始电位 (V),0
静置时间 (秒),0
运行时间 (秒),600
记录间隔,0.1
电解液 信息:
HNO3,0.4
0.1,-0.01005814
0.2,-0.01005814
0.3,-0.006249902
0.4,0.0005807208
0.5,-0.000376828
0.6,-0.001736115
0.7,-0.002598512
0.8000001,-0.002806967
0.9000001,-0.002731072
1,-0.002593085
1.1,-0.002420714
1.2,-0.002258579
1.3,-0.002124593
1.4,-0.002004266
1.5,-0.001901356
1.6,-0.001816522
1.7,-0.001742858
1.8,-0.001679182
1.9,-0.001624125
2,-0.001574414
2.1,-0.001530899
2.2,-0.001491371
2.3,-0.001455535
2.4,-0.001423343
2.5,-0.001393049
2.6,-0.001365606
2.7,-0.001339469
2.799999,-0.001316137
2.899999,-0.001293633
2.999999,-0.001273114
3.099999,-0.00125363
3.199999,-0.001234846
3.299999,-0.001217901
3.399999,-0.001201085
3.499999,-0.001185153
3.599999,-0.00117
3.699999,-0.001155668
3.799999,-0.001142111
3.899998,-0.001128899
3.999998,-0.001116352
4.099998,-0.001104443
4.199998,-0.001092572
4.299998,-0.00108202
4.399998,-0.001072268
4.499998,-0.001062269
4.599998,-0.00105278
4.699998,-0.001044141
4.799998,-0.001034955
4.899998,-0.001025933
4.999998,-0.00101744
5.099998,-0.001009018
5.199997,-0.001000712
5.299997,-0.0009930942
5.399997,-0.0009854943
5.499997,-0.0009781535
5.599997,-0.0009710256
5.699997,-0.0009638006
5.799997,-0.0009570578
5.899997,-0.0009501625
5.999997,-0.0009437804
6.099997,-0.0009374585
6.199996,-0.0009310152
6.299996,-0.0009247941
6.399996,-0.0009187087
6.499996,-0.0009128248
6.599996,-0.0009069691
6.699996,-0.0009014157
6.799996,-0.0008958623
6.899996,-0.0008903475
6.999996,-0.000885102
7.099996,-0.0008799564
7.199996,-0.0008748117
7.299995,-0.0008697565
7.399995,-0.000864916
7.499995,-0.0008600802
7.599995,-0.0008554356
7.699995,-0.0008509671
7.799995,-0.00084641
7.899995,-0.0008420235
7.999995,-0.0008377791
8.099995,-0.0008335432
8.199995,-0.00082936
8.299995,-0.0008253728
8.399996,-0.0008215201
8.499996,-0.0008175827
8.599997,-0.0008140004
8.699997,-0.0008103079
8.799997,-0.0008064411
8.899998,-0.000803032
8.999998,-0.0007993706
9.099998,-0.0007957449
9.199999,-0.0007921776
9.299999,-0.0007887553
9.4,-0.0007853755
9.5,-0.0007818497
9.6,-0.0007786007
9.700001,-0.0007753329
9.800001,-0.0007720105
9.900002,-0.0007689592
10,-0.0007657866
10.1,-0.0007625715
10.2,-0.0007593282
10.3,-0.0007561733
10.4,-0.0007531457
10.5,-0.0007500304
10.6,-0.0007470404
10.7,-0.0007440081
10.8,-0.0007410237
10.90001,-0.0007381514
11.00001,-0.0007352858
11.10001,-0.0007323852
11.20001,-0.0007295996
11.30001,-0.0007268186
11.40001,-0.0007240537
11.50001,-0.0007214046
11.60001,-0.00071865
11.70001,-0.0007159369
11.80001,-0.0007132831
11.90001,-0.0007107329
12.00001,-0.0007081177
12.10001,-0.0007055327
12.20001,-0.0007030541
12.30001,-0.0007006187
12.40001,-0.0006981212
12.50001,-0.0006957066
12.60001,-0.0006933599
12.70001,-0.0006910875
12.80001,-0.0006886625
12.90001,-0.000686439
13.00001,-0.0006842081
13.10001,-0.0006818802
13.20001,-0.0006797038
13.30001,-0.0006775068
13.40001,-0.0006752815
13.50002,-0.0006729977
13.60002,-0.0006707705
13.70002,-0.0006685603
13.80002,-0.0006663906
13.90002,-0.0006642905
14.00002,-0.0006621132
14.10002,-0.0006599934
14.20002,-0.0006578491
14.30002,-0.0006558046
14.40002,-0.000653761
14.50002,-0.0006517146
14.60002,-0.0006497041
14.70002,-0.0006476774
14.80002,-0.000645679
14.90002,-0.0006437325
15.00002,-0.0006417125
15.10002,-0.0006396746
15.20002,-0.0006377346
15.30002,-0.0006357476
15.40002,-0.0006337897
15.50002,-0.0006319119
15.60002,-0.0006300275
15.70002,-0.0006281129
15.80002,-0.0006262012
15.90002,-0.0006243724
16.00002,-0.000622488
16.10003,-0.0006206544
16.20003,-0.0006188416
16.30003,-0.0006170316
16.40003,-0.0006152131
16.50003,-0.0006134465
16.60003,-0.0006116552
16.70003,-0.0006098603
16.80003,-0.0006080964
16.90003,-0.0006063693
17.00003,-0.0006046008
17.10003,-0.0006028585
17.20003,-0.0006011511
17.30003,-0.0005994363
17.40003,-0.0005977713
17.50003,-0.0005961572
17.60003,-0.000594479
17.70003,-0.0005927895
17.80003,-0.0005911377
17.90003,-0.000589486
18.00003,-0.0005878794
18.10003,-0.0005862841
18.20003,-0.0005846586
18.30003,-0.0005830417
18.40003,-0.0005815104
18.50003,-0.0005799198
18.60003,-0.0005783623
18.70004,-0.0005768667
18.80004,-0.0005753779
18.90004,-0.0005737676
19.00004,-0.0005723059
19.10004,-0.0005707644
19.20004,-0.0005693169
19.30004,-0.0005677631
19.40004,-0.0005663871
19.50004,-0.0005649171
19.60004,-0.0005634546
19.70004,-0.0005620194
19.80004,-0.0005605899
19.90004,-0.0005590793
20.00004,-0.0005576489
20.10004,-0.0005562485
20.20004,-0.0005548133
20.30004,-0.0005533753
20.40004,-0.0005520154
20.50004,-0.0005505981
20.60004,-0.0005491629
20.70004,-0.0005477843
20.80004,-0.0005464121
20.90004,-0.0005449797
21.00004,-0.0005436745
21.10004,-0.0005423533
21.20004,-0.0005409972
21.30005,-0.0005396684
21.40005,-0.0005383349
21.50005,-0.0005369741
21.60005,-0.000535552
21.70005,-0.0005342063
21.80005,-0.0005328616
21.90005,-0.0005314847
22.00005,-0.0005301239
22.10005,-0.0005288346
22.20005,-0.000527537
22.30005,-0.0005262054
22.40005,-0.0005249406
22.50005,-0.0005236731
22.60005,-0.0005223367
22.70005,-0.0005211153
22.80005,-0.0005199146
22.90005,-0.0005186678
23.00005,-0.0005174699
23.10005,-0.0005163163
23.20005,-0.0005150835
23.30005,-0.0005138358
23.40005,-0.0005126369
23.50005,-0.0005114494
23.60005,-0.000510129
23.70005,-0.0005090019
23.80005,-0.0005077201
23.90005,-0.0005064479
24.00006,-0.0005052443
24.10006,-0.0005040765
24.20006,-0.0005028251
24.30006,-0.0005016083
24.40006,-0.0005005526
24.50006,-0.0004993802
24.60006,-0.0004981898
24.70006,-0.000497056
24.80006,-0.0004959221
24.90006,-0.0004947318
25.00006,-0.0004935942
25.10006,-0.0004924923
25.20006,-0.00049135
25.30006,-0.0004902454
25.40006,-0.0004892264
25.50006,-0.0004881029
25.60006,-0.0004869625
25.70006,-0.0004859181
25.80006,-0.0004847692
25.90006,-0.0004836645
26.00006,-0.0004826315
26.10006,-0.0004816558
26.20006,-0.0004805154
26.30006,-0.0004794145
26.40006,-0.0004784191
26.50006,-0.0004773069
26.60007,-0.0004762117
26.70007,-0.0004752097
26.80007,-0.0004741333
26.90007,-0.0004730908
27.00007,-0.0004720606
27.10007,-0.0004710755
27.20007,-0.0004699671
27.30007,-0.0004688897
27.40007,-0.0004678491
27.50007,-0.0004667369
27.60007,-0.0004656982
27.70007,-0.0004646378
27.80007,-0.0004635755
27.90007,-0.000462533
28.00007,-0.0004615235
28.10007,-0.0004605704
28.20007,-0.0004594611
28.30007,-0.0004584129
28.40007,-0.0004575004
28.50007,-0.0004564466
28.60007,-0.0004554107
28.70007,-0.0004544699
28.80007,-0.0004535037
28.90007,-0.0004524593
29.00007,-0.0004514875
29.10007,-0.000450525
29.20008,-0.0004495296
29.30008,-0.0004484993
29.40008,-0.0004475228
29.50008,-0.000446549
29.60008,-0.0004455837
29.70008,-0.0004445564
29.80008,-0.0004435506
29.90008,-0.0004425617
30.00008,-0.0004417321
30.10008,-0.0004408516
30.20008,-0.0004398401
30.30008,-0.0004389446
30.40008,-0.0004379906
30.50008,-0.0004370291
30.60008,-0.0004361241
30.70008,-0.0004351484
30.80008,-0.0004342444
30.90008,-0.0004333638
31.00008,-0.0004324202
31.10008,-0.0004315077
31.20008,-0.0004306178
31.30008,-0.0004297542
31.40008,-0.0004288068
31.50008,-0.000427947
31.60008,-0.0004270976
31.70008,-0.0004261474
31.80009,-0.0004252603
31.90009,-0.0004243524
32.00008,-0.0004234568
32.10008,-0.0004225273
32.20008,-0.0004217005
32.30008,-0.0004208294
32.40008,-0.0004199178
32.50008,-0.0004190929
32.60007,-0.0004182368
32.70007,-0.0004174137
32.80007,-0.0004165172
32.90007,-0.0004156932
33.00007,-0.0004148805
33.10007,-0.0004139783
33.20007,-0.000413208
33.30006,-0.0004124311
33.40006,-0.0004116278
33.50006,-0.0004107482
33.60006,-0.0004099712
33.70006,-0.0004091322
33.80006,-0.0004082375
33.90005,-0.000407437
34.00005,-0.000406582
34.10005,-0.0004057127
34.20005,-0.0004048708
34.30005,-0.0004040892
34.40005,-0.0004031851
34.50005,-0.0004023592
34.60004,-0.0004015456
34.70004,-0.00040073
34.80004,-0.0003999569
34.90004,-0.0003991724
35.00004,-0.000398306
35.10004,-0.0003974745
35.20004,-0.0003966646
35.30003,-0.000395801
35.40003,-0.0003949996
35.50003,-0.0003942321
35.60003,-0.0003933986
35.70003,-0.000392634
35.80003,-0.0003918693
35.90002,-0.0003910613
36.00002,-0.0003902636
36.10002,-0.0003895875
36.20002,-0.0003888247
36.30002,-0.0003880468
36.40002,-0.0003872454
36.50002,-0.0003864571
36.60001,-0.0003856746
36.70001,-0.000384908
36.80001,-0.0003842073
36.90001,-0.0003834521
37.00001,-0.0003826685
37.10001,-0.0003818841
37.2,-0.0003811571
37.3,-0.000380317
37.4,-0.0003796117
37.5,-0.0003789054
37.6,-0.0003780832
37.7,-0.0003773487
37.8,-0.0003766368
37.89999,-0.0003758768
37.99999,-0.0003751253
38.09999,-0.0003743926
38.19999,-0.0003737108
38.29999,-0.0003729348
38.39999,-0.0003722201
38.49998,-0.0003715222
38.59998,-0.0003708018
38.69998,-0.0003700296
38.79998,-0.0003693647
38.89998,-0.0003756263
38.99998,-0.0004064774
39.09998,-0.0004552327
39.19997,-0.0004153711
39.29997,-0.0003962295
39.39997,-0.0003955562
39.49997,-0.00038696
39.59997,-0.0003828475
39.69997,-0.0003795966
39.79996,-0.0003759182
39.89996,-0.0003733002
39.99996,-0.0003707199
40.09996,-0.0003693167
40.19996,-0.0003672618
40.29996,-0.0003662768
40.39996,-0.0003670791
40.49995,-0.000366096
40.59995,-0.0003648313
40.69995,-0.0003623987
40.79995,-0.0003609061
40.89995,-0.0003593899
40.99995,-0.0003583521
41.09995,-0.0003571156
41.19994,-0.0003560647
41.29994,-0.0003550344
41.39994,-0.0003540475
41.49994,-0.0003531594
41.59994,-0.0003522271
41.69994,-0.0003514266
41.79993,-0.0003505593
41.89993,-0.0003498134
41.99993,-0.0003489847
42.09993,-0.0003481494
42.19993,-0.0003474356
42.29993,-0.0003465993
42.39993,-0.0003459636
42.49992,-0.0003451651
42.59992,-0.0003443928
42.69992,-0.0003437025
42.79992,-0.0003430499
42.89992,-0.0003422598
42.99992,-0.0003414914
43.09991,-0.0003408218
43.19991,-0.0003400533
43.29991,-0.0003393028
43.39991,-0.0003386069
43.49991,-0.000337941
43.59991,-0.0003371867
43.69991,-0.0003364936
43.7999,-0.0003358278
43.8999,-0.0003350942
43.9999,-0.0003344114
44.0999,-0.0003337588
44.1999,-0.0003330591
44.2999,-0.0003324196
44.39989,-0.0003316776
44.49989,-0.0003310137
44.59989,-0.0003303299
44.69989,-0.0003296867
44.79989,-0.0003290115
44.89989,-0.0003283938
44.99989,-0.0003277571
45.09988,-0.0003272147
45.19988,-0.0003264783
45.29988,-0.0003258756
45.39988,-0.000325335
45.49988,-0.000324721
45.59988,-0.0003239394
45.69987,-0.0003233009
45.79987,-0.0003227029
45.89987,-0.0003220069
45.99987,-0.0003213788
46.09987,-0.0003208081
46.19987,-0.0003202073
46.29987,-0.0003195132
46.39986,-0.0003189689
46.49986,-0.000318354
46.59986,-0.0003177089
46.69986,-0.0003171712
46.79986,-0.0003166523
46.89986,-0.0003159441
46.99986,-0.000315315
47.09985,-0.0003147744
47.19985,-0.0003141275
47.29985,-0.0003134654
47.39985,-0.0003129447
47.49985,-0.0003123401
47.59985,-0.000311743
47.69984,-0.0003111544
47.79984,-0.0003106214
47.89984,-0.0003099641
47.99984,-0.000309399
48.09984,-0.0003088481
48.19984,-0.000308316
48.29984,-0.0003076879
48.39983,-0.0003071596
48.49983,-0.0003065795
48.59983,-0.0003059646
48.69983,-0.000305391
48.79983,-0.0003048787
48.89983,-0.0003043175
48.99982,-0.0003037138
49.09982,-0.0003032364
49.19982,-0.0003026271
49.29982,-0.0003019641
49.39982,-0.0003013274
49.49982,-0.0003007681
49.59982,-0.0003001437
49.69981,-0.000299605
49.79981,-0.000299105
49.89981,-0.0002985371
49.99981,-0.000297957
50.09981,-0.0002974287
50.19981,-0.0002968891
50.2998,-0.0002963306
50.3998,-0.0002958391
50.4998,-0.0002953032
50.5998,-0.0002947457
50.6998,-0.0002942268
50.7998,-0.0002936985
50.8998,-0.000293142
50.99979,-0.0002926475
51.09979,-0.0002921672
51.19979,-0.0002916276
51.29979,-0.0002910984
51.39979,-0.0002905842
51.49979,-0.0002900822
51.59978,-0.0002895699
51.69978,-0.0002890294
51.79978,-0.000288519
51.89978,-0.0002880218
51.99978,-0.0002875311
52.09978,-0.000287063
52.19978,-0.0002865498
52.29977,-0.0002860677
52.39977,-0.0002855384
52.49977,-0.0002850327
52.59977,-0.0002846456
52.69977,-0.0002841465
52.79977,-0.0002836832
52.89977,-0.0002832584
52.99976,-0.00028283
53.09976,-0.0002823148
53.19976,-0.0002818525
53.29976,-0.0002813637
53.39976,-0.0002808721
53.49976,-0.0002802854
53.59975,-0.0002798211
53.69975,-0.0002793239
53.79975,-0.0002789218
53.89975,-0.0002785752
53.99975,-0.000278143
54.09975,-0.0002776081
54.19975,-0.0002771381
54.29974,-0.0002766579
54.39974,-0.000276073
54.49974,-0.0002755871
54.59974,-0.0002750861
54.69974,-0.0002745691
54.79974,-0.0002741133
54.89973,-0.0002736217
54.99973,-0.0002731659
55.09973,-0.0002726913
55.19973,-0.0002721912
55.29973,-0.0002717778
55.39973,-0.0002712862
55.49973,-0.0002707721
55.59972,-0.000270288
55.69972,-0.0002698331
55.79972,-0.0002693321
55.89972,-0.000268882
55.99972,-0.0002683989
56.09972,-0.0002678724
56.19971,-0.0002674609
56.29971,-0.0002669807
56.39971,-0.0002665352
56.49971,-0.0002660587
56.59971,-0.0002656038
56.69971,-0.0002651047
56.79971,-0.0002646659
56.8997,-0.0002642571
56.9997,-0.0002637693
57.0997,-0.0002633352
57.1997,-0.0002628916
57.2997,-0.0002624368
57.3997,-0.000261915
57.49969,-0.0002615647
57.59969,-0.0002611277
57.69969,-0.0002606513
57.79969,-0.0002601851
57.89969,-0.0002597802
57.99969,-0.0002592274
58.09969,-0.0002587584
58.19968,-0.000258425
58.29968,-0.00025794
58.39968,-0.0002576132
58.49968,-0.0002571301
58.59968,-0.0002567958
58.69968,-0.0002562506
58.79967,-0.0002558155
58.89967,-0.0002554586
58.99967,-0.0002549463
59.09967,-0.0002544782
59.19967,-0.0002540921
59.29967,-0.0002536834
59.39967,-0.0002532172
59.49966,-0.0002528575
59.59966,-0.0002524666
59.69966,-0.0002519544
59.79966,-0.0002514703
59.89966,-0.0002510286
59.99966,-0.0002505239
60.09966,-0.0002500587
60.19965,-0.0002496641
60.29965,-0.0002492158
60.39965,-0.000248728
60.49965,-0.0002483212
60.59965,-0.0002479106
60.69965,-0.0002474868
60.79964,-0.000247047
60.89964,-0.0002466374
60.99964,-0.0002461806
61.09964,-0.0002457352
61.19964,-0.0002453274
61.29964,-0.0002448914
61.39964,-0.0002444704
61.49963,-0.0002440551
61.59963,-0.0002436389
61.69963,-0.0002432161
61.79963,-0.0002428337
61.89963,-0.000242376
61.99963,-0.0002419786
62.09962,-0.0002416311
62.19962,-0.0002411772
62.29962,-0.0002407487
62.39962,-0.000240324
62.49962,-0.0002399115
62.59962,-0.0002395075
62.69962,-0.0002390922
62.79961,-0.0002387277
62.89961,-0.0002382908
62.99961,-0.0002378858
63.09961,-0.0002375487
63.19961,-0.0002370929
63.29961,-0.0002366964
63.3996,-0.0002362472
63.4996,-0.0002358404
63.5996,-0.0002354392
63.6996,-0.0002350258
63.7996,-0.0002346077
63.8996,-0.0002342423
63.9996,-0.0002338355
64.09959,-0.0002334314
64.19959,-0.0002330482
64.29959,-0.0002326508
64.39959,-0.0002322656
64.49959,-0.000231839
64.59959,-0.0002314642
64.69958,-0.0002310733
64.79958,-0.0002306684
64.89958,-0.0002302767
64.99958,-0.0002298962
65.09958,-0.0002295035
65.19958,-0.0002291296
65.29958,-0.0002287087
65.39957,-0.0002283612
65.49957,-0.0002279534
65.59957,-0.00022762
65.69957,-0.000227297
65.79957,-0.0002268864
65.89957,-0.0002265314
65.99957,-0.0002261717
66.09956,-0.000225842
66.19956,-0.0002254503
66.29956,-0.0002251838
66.39956,-0.0002248024
66.49956,-0.0002243616
66.59956,-0.0002240443
66.69955,-0.0002237514
66.79955,-0.0002232994
66.89955,-0.0002228878
66.99955,-0.0002225328
67.09955,-0.0002221957
67.19955,-0.0002217926
67.29955,-0.0002214705
67.39954,-0.0002211569
67.49954,-0.0002207623
67.59954,-0.0002204732
67.69954,-0.0002201898
67.79954,-0.0002197924
67.89954,-0.0002193808
67.99953,-0.0002190653
68.09953,-0.000218683
68.19953,-0.0002183044
68.29953,-0.0002179569
68.39953,-0.000217681
68.49953,-0.0002172855
68.59953,-0.0002169916
68.69952,-0.0002167138
68.79952,-0.0002163315
68.89952,-0.0002159849
68.99952,-0.0002156591
69.09952,-0.0002153229
69.19952,-0.0002149584
69.29951,-0.0002146628
69.39951,-0.0002143859
69.49951,-0.0002139904
69.59951,-0.0002136193
69.69951,-0.0002133924
69.79951,-0.0002129676
69.89951,-0.0002126107
69.9995,-0.0002122943
70.0995,-0.0002119261
70.1995,-0.0002115616
70.2995,-0.0002112923
70.3995,-0.0002109599
70.4995,-0.0002105737
70.59949,-0.0002102338
70.69949,-0.0002099324
70.79949,-0.0002096038
70.89949,-0.0002092346
70.99949,-0.0002089662
71.09949,-0.0002086036
71.19949,-0.0002082335
71.29948,-0.0002079096
71.39948,-0.0002076158
71.49948,-0.0002072654
71.59948,-0.0002068991
71.69948,-0.0002066175
71.79948,-0.0002062889
71.89948,-0.0002059207
71.99947,-0.0002056306
72.09947,-0.0002053123
72.19947,-0.0002049601
72.29947,-0.0002046625
72.39947,-0.0002043103
72.49947,-0.0002039835
72.59946,-0.000203685
72.69946,-0.0002033705
72.79946,-0.0002030342
72.89946,-0.0002027122
72.99946,-0.0002024004
73.09946,-0.0002020756
73.19946,-0.0002017478
73.29945,-0.000201471
73.39945,-0.0002011583
73.49945,-0.0002008532
73.59945,-0.0002005584
73.69945,-0.0002002137
73.79945,-0.0001998794
73.89944,-0.0001995819
73.99944,-0.0001992391
74.09944,-0.0001989292
74.19944,-0.0001986251
74.29944,-0.0001983407
74.39944,-0.0001979762
74.49944,-0.0001976786
74.59943,-0.0001973999
74.69943,-0.0001970853
74.79943,-0.0001967698
74.89943,-0.0001964619
74.99943,-0.0001961624
75.09943,-0.0001958281
75.19942,-0.0001955117
75.29942,-0.0001951859
75.39942,-0.000194877
75.49942,-0.0001945699
75.59942,-0.0001942281
75.69942,-0.0001939136
75.79942,-0.0001936216
75.89941,-0.0001933429
75.99941,-0.0001930029
76.09941,-0.0001927148
76.19941,-0.00019242
76.29941,-0.0001921262
76.39941,-0.0001918088
76.4994,-0.0001915197
76.5994,-0.0001912174
76.6994,-0.0001908944
76.7994,-0.0001905751
76.8994,-0.0001903067
76.9994,-0.0001900252
77.0994,-0.0001896457
77.19939,-0.0001893678
77.29939,-0.0001891013
77.39939,-0.0001887906
77.49939,-0.0001885033
77.59939,-0.0001882039
77.69939,-0.0001878799
77.79939,-0.0001876454
77.89938,-0.0001873761
77.99938,-0.0001870728
78.09938,-0.0001867913
78.19938,-0.0001865558
78.29938,-0.00018623
78.39938,-0.0001859946
78.49937,-0.0001857403
78.59937,-0.00018539
78.69937,-0.000185114
78.79937,-0.0001849078
78.89937,-0.000184598
78.99937,-0.0001842929
79.09937,-0.000184081
79.19936,-0.000183773
79.29936,-0.0001834349
79.39936,-0.0001831731
79.49936,-0.0001829207
79.59936,-0.0001825798
79.69936,-0.0001822926
79.79935,-0.0001820534
79.89935,-0.0001817718
79.99935,-0.000181478
80.09935,-0.0001812624
80.19935,-0.000180945
80.29935,-0.0001807067
80.39935,-0.0001804261
80.49934,-0.0001801605
80.59934,-0.000179894
80.69934,-0.0001795936
80.79934,-0.0001793469
80.89934,-0.0001790502
80.99934,-0.0001787931
81.09933,-0.0001785888
81.19933,-0.0001782846
81.29933,-0.0001780294
81.39933,-0.0001777167
81.49933,-0.0001774286
81.59933,-0.0001771799
81.69933,-0.0001769106
81.79932,-0.000176679
81.89932,-0.0001763992
81.99932,-0.0001761403
82.09932,-0.0001758907
82.19932,-0.0001756148
82.29932,-0.0001753794
82.39931,-0.0001751242
82.49931,-0.0001748567
82.59931,-0.0001746015
82.69931,-0.0001743623
82.79931,-0.0001740967
82.89931,-0.0001738293
82.99931,-0.0001735411
83.0993,-0.0001733264
83.1993,-0.0001730392
83.2993,-0.0001727811
83.3993,-0.000172557
83.4993,-0.0001722688
83.5993,-0.0001720306
83.6993,-0.0001717546
83.79929,-0.0001714976
83.89929,-0.0001712536
83.99929,-0.0001709928
84.09929,-0.0001706989
84.19929,-0.0001704089
84.29929,-0.000170133
84.39928,-0.0001698768
84.49928,-0.0001695736
84.59928,-0.0001693702
84.69928,-0.0001691564
84.79928,-0.0001688484
84.89928,-0.0001686083
84.99928,-0.0001683898
85.09927,-0.0001680913
85.19927,-0.0001678135
85.29927,-0.0001675837
85.39927,-0.0001673379
85.49927,-0.0001670526
85.59927,-0.0001667484
85.69926,-0.0001665375
85.79926,-0.0001662973
85.89926,-0.0001660186
85.99926,-0.0001658057
86.09926,-0.0001655458
86.19926,-0.0001652699
86.29926,-0.0001650815
86.39925,-0.0001648103
86.49925,-0.0001645561
86.59925,-0.0001643432
86.69925,-0.0001641624
86.79925,-0.0001638836
86.89925,-0.0001635851
86.99924,-0.0001634062
87.09924,-0.0001631434
87.19924,-0.0001628628
87.29924,-0.0001626811
87.39924,-0.0001624145
87.49924,-0.0001621678
87.59924,-0.0001619446
87.69923,-0.0001617271
87.79923,-0.0001614549
87.89923,-0.0001613174
87.99923,-0.0001610914
88.09923,-0.0001608221
88.19923,-0.0001605669
88.29922,-0.0001603823
88.39922,-0.0001600979
88.49922,-0.000159854
88.59922,-0.0001596525
88.69922,-0.0001594377
88.79922,-0.0001591402
88.89922,-0.0001589405
88.99921,-0.0001587361
89.09921,-0.0001584499
89.19921,-0.0001582559
89.29921,-0.000158076
89.39921,-0.0001578123
89.49921,-0.0001575684
89.59921,-0.0001573414
89.6992,-0.0001571606
89.7992,-0.0001568998
89.8992,-0.0001566794
89.9992,-0.000156476
90.0992,-0.0001561897
90.1992,-0.0001559402
90.29919,-0.000155749
90.39919,-0.0001554994
90.49919,-0.0001552433
90.59919,-0.0001550568
90.69919,-0.000154812
90.79919,-0.0001545718
90.89919,-0.000154374
90.99918,-0.0001541913
91.09918,-0.0001539126
91.19918,-0.0001537092
91.29918,-0.0001535171
91.39918,-0.0001532553
91.49918,-0.0001529869
91.59917,-0.0001528475
91.69917,-0.0001525998
91.79917,-0.0001523738
91.89917,-0.0001522702
91.99917,-0.0001520922
92.09917,-0.0001518304
92.19917,-0.0001516477
92.29916,-0.0001514377
92.39916,-0.0001511731
92.49916,-0.0001510139
92.59916,-0.0001507795
92.69916,-0.0001505007
92.79916,-0.0001502822
92.89915,-0.0001501165
92.99915,-0.0001498952
93.09915,-0.0001496757
93.19915,-0.0001494846
93.29915,-0.000149268
93.39915,-0.0001490476
93.49915,-0.0001488141
93.59914,-0.0001486022
93.69914,-0.0001483809
93.79914,-0.0001481511
93.89914,-0.0001479486
93.99914,-0.000147732
94.09914,-0.0001475154
94.19913,-0.000147344
94.29913,-0.0001471095
94.39913,-0.0001468995
94.49913,-0.0001467244
94.59913,-0.0001464833
94.69913,-0.0001462422
94.79913,-0.0001460849
94.89912,-0.000145858
94.99912,-0.0001456555
95.09912,-0.0001454342
95.19912,-0.0001452327
95.29912,-0.0001450396
95.39912,-0.000144807
95.49911,-0.0001446187
95.59911,-0.0001444199
95.69911,-0.0001442165
95.79911,-0.0001440282
95.89911,-0.0001437805
95.99911,-0.0001435931
96.09911,-0.0001433812
96.1991,-0.0001431486
96.2991,-0.0001429593
96.3991,-0.0001427738
96.4991,-0.0001425346
96.5991,-0.0001423331
96.6991,-0.0001421146
96.7991,-0.0001419451
96.89909,-0.0001417228
96.99909,-0.0001415364
97.09909,-0.000141348
97.19909,-0.0001411484
97.29909,-0.0001409384
97.39909,-0.0001407792
97.49908,-0.0001405598
97.59908,-0.00014033
97.69908,-0.0001401238
97.79908,-0.0001399675
97.89908,-0.0001397631
97.99908,-0.0001395022
98.09908,-0.0001393647
98.19907,-0.0001391717
98.29907,-0.0001389202
98.39907,-0.0001387677
98.49907,-0.0001386076
98.59907,-0.0001383731
98.69907,-0.0001381687
98.79906,-0.0001380039
98.89906,-0.0001377798
98.99906,-0.0001375594
99.09906,-0.0001373937
99.19906,-0.0001372063
99.29906,-0.0001369633
99.39906,-0.0001368475
99.49905,-0.0001366827
99.59905,-0.0001364661
99.69905,-0.0001363295
99.79905,-0.0001361035
99.89905,-0.0001358813
99.99905,-0.00013574
100.099,-0.0001355366
100.199,-0.0001353435
100.299,-0.0001351882
100.399,-0.0001350412
100.499,-0.000134818
100.599,-0.0001346184
100.699,-0.0001344884
100.799,-0.0001342276
100.899,-0.0001339959
100.999,-0.0001338679
101.099,-0.0001336833
101.199,-0.0001334554
101.299,-0.0001332924
101.399,-0.0001331032
101.499,-0.0001329101
101.599,-0.0001326841
101.699,-0.0001325306
101.799,-0.0001323432
101.899,-0.0001321407
101.999,-0.0001319514
102.099,-0.000131764
102.199,-0.0001315531
102.299,-0.0001314193
102.399,-0.0001312112
102.499,-0.000131004
102.599,-0.000130859
102.699,-0.0001306754
102.799,-0.0001304983
102.899,-0.0001303326
102.999,-0.0001301621
103.099,-0.0001299898
103.199,-0.0001298325
103.299,-0.0001296677
103.399,-0.0001294841
103.499,-0.0001292929
103.599,-0.0001291225
103.699,-0.0001289294
103.799,-0.0001287467
103.899,-0.0001285857
103.999,-0.0001284115
104.099,-0.0001282288
104.199,-0.0001280903
104.299,-0.0001279142
104.399,-0.0001277513
104.499,-0.0001276072
104.599,-0.0001275055
104.699,-0.0001273143
104.799,-0.0001271571
104.899,-0.0001270215
104.999,-0.0001268152
105.099,-0.0001266598
105.199,-0.0001264969
105.299,-0.0001262916
105.399,-0.0001261193
105.499,-0.0001259893
105.599,-0.0001258462
105.699,-0.0001256936
105.799,-0.0001255778
105.899,-0.0001254902
105.999,-0.0001252962
106.099,-0.0001250598
106.199,-0.0001249063
106.299,-0.0001247283
106.3989,-0.0001245541
106.4989,-0.0001244119
106.5989,-0.0001242377
106.6989,-0.0001240842
106.7989,-0.0001238977
106.8989,-0.0001237574
106.9989,-0.0001235766
107.0989,-0.0001233826
107.1989,-0.0001232112
107.2989,-0.0001230351
107.3989,-0.0001228995
107.4989,-0.0001227526
107.5989,-0.0001225558
107.6989,-0.0001224004
107.7989,-0.0001222732
107.8989,-0.0001220821
107.9989,-0.000121921
108.0989,-0.0001217515
108.1989,-0.0001216056
108.2989,-0.000121405
108.3989,-0.0001212317
108.4989,-0.0001210838
108.5989,-0.0001209388
108.6989,-0.0001207571
108.7989,-0.0001206007
108.8989,-0.0001204727
108.9989,-0.0001203361
109.0989,-0.0001201543
109.1989,-0.0001200056
109.2989,-0.0001198332
109.3989,-0.0001196957
109.4989,-0.0001195027
109.5989,-0.0001193322
109.6989,-0.0001191957
109.7989,-0.0001190506
109.8989,-0.0001188924
109.9989,-0.0001187257
110.0989,-0.0001185656
110.1989,-0.0001184489
110.2989,-0.0001182831
110.3989,-0.0001181456
110.4989,-0.0001179799
110.5989,-0.000117833
110.6989,-0.0001176842
110.7989,-0.0001175495
110.8989,-0.0001174036
110.9989,-0.0001172086
111.0989,-0.0001170787
111.1989,-0.0001169261
111.2989,-0.0001167688
111.3989,-0.0001166153
111.4989,-0.0001164204
111.5989,-0.0001162678
111.6989,-0.0001161294
111.7989,-0.0001160183
111.8989,-0.0001158384
111.9989,-0.0001157113
112.0989,-0.000115586
112.1989,-0.000115392
112.2989,-0.0001152555
112.3989,-0.0001151594
112.4989,-0.000114956
112.5989,-0.0001147667
112.6989,-0.0001147008
112.7989,-0.0001145303
112.8988,-0.0001143231
112.9988,-0.0001141904
113.0988,-0.0001140491
113.1988,-0.0001138862
113.2988,-0.0001137308
113.3988,-0.0001135952
113.4988,-0.0001134586
113.5988,-0.0001132703
113.6988,-0.0001131724
113.7988,-0.0001130339
113.8988,-0.0001128861
113.9988,-0.0001127863
114.0988,-0.0001126007
114.1988,-0.0001124651
114.2988,-0.0001123483
114.3988,-0.00011216
114.4988,-0.0001120027
114.5988,-0.0001118907
114.6988,-0.0001117645
114.7988,-0.0001116251
114.8988,-0.0001114603
114.9988,-0.000111336
115.0988,-0.0001111655
115.1988,-0.000111028
115.2988,-0.0001109339
115.3988,-0.0001107917
115.4988,-0.0001106071
115.5988,-0.0001104875
115.6988,-0.000110399
115.7988,-0.0001102398
115.8988,-0.0001101579
115.9988,-0.0001100317
116.0988,-0.000109897
116.1988,-0.0001097981
116.2988,-0.0001097115
116.3988,-0.0001095608
116.4988,-0.0001093988
116.5988,-0.0001092774
116.6988,-0.0001091709
116.7988,-0.0001090099
116.8988,-0.0001088875
116.9988,-0.0001087839
117.0988,-0.0001086549
117.1988,-0.0001085202
117.2988,-0.0001083902
117.3988,-0.0001082678
117.4988,-0.0001081153
117.5988,-0.0001079749
117.6988,-0.0001078836
117.7988,-0.0001077263
117.8988,-0.0001075747
117.9988,-0.000107441
118.0988,-0.0001073054
118.1988,-0.0001071735
118.2988,-0.0001070586
118.3988,-0.0001068948
118.4988,-0.0001067648
118.5988,-0.0001066641
118.6988,-0.0001064738
118.7988,-0.0001063429
118.8988,-0.0001062177
118.9988,-0.0001061084
119.0988,-0.0001059248
119.1988,-0.0001058306
119.2988,-0.0001057063
119.3988,-0.0001055161
119.4987,-0.0001054134
119.5987,-0.0001053202
119.6987,-0.0001051554
119.7987,-0.0001050462
119.8987,-0.0001049736
119.9987,-0.000104807
120.0987,-0.0001046695
120.1987,-0.0001045565
120.2987,-0.0001044209
120.3987,-0.0001042579
120.4987,-0.0001041101
120.5987,-0.0001039858
120.6987,-0.0001038643
120.7987,-0.0001037202
120.8987,-0.0001036119
120.9987,-0.0001034669
121.0987,-0.0001033284
121.1987,-0.0001031956
121.2987,-0.0001030685
121.3987,-0.0001029263
121.4987,-0.0001027983
121.5987,-0.0001026607
121.6987,-0.0001024997
121.7987,-0.0001023829
121.8987,-0.0001022671
121.9987,-0.0001021174
122.0987,-0.0001020147
122.1987,-0.0001019224
122.2987,-0.0001017953
122.3987,-0.0001016672
122.4987,-0.0001015787
122.5987,-0.000101429
122.6987,-0.0001012557
122.7987,-0.0001011078
122.8987,-0.0001009807
122.9987,-0.0001008385
123.0987,-0.0001007142
123.1987,-0.0001006276
123.2987,-0.0001004835
123.3987,-0.0001003629
123.4987,-0.0001002603
123.5987,-0.0001001397
123.6987,-0.0001000041
123.7987,-9.98591E-05
123.8987,-9.977529E-05
123.9987,-9.964909E-05
124.0987,-9.948805E-05
124.1987,-9.93986E-05
124.2987,-9.92432E-05
124.3987,-9.908971E-05
124.4987,-9.900118E-05
124.5987,-9.88731E-05
124.6987,-9.872337E-05
124.7987,-9.863861E-05
124.8987,-9.850866E-05
124.9987,-9.836834E-05
125.0987,-9.829488E-05
125.1987,-9.820542E-05
125.2987,-9.808394E-05
125.3987,-9.799353E-05
125.4987,-9.784568E-05
125.5987,-9.769312E-05
125.6987,-9.758199E-05
125.7987,-9.749253E-05
125.8987,-9.734562E-05
125.9986,-9.720719E-05
126.0986,-9.713843E-05
126.1986,-9.70066E-05
126.2986,-9.689924E-05
126.3986,-9.681449E-05
126.4986,-9.665721E-05
126.5986,-9.654609E-05
126.6986,-9.64764E-05
126.7986,-9.633986E-05
126.8986,-9.621837E-05
126.9986,-9.613455E-05
127.0986,-9.606486E-05
127.1986,-9.590288E-05
127.2986,-9.578705E-05
127.3986,-9.573714E-05
127.4986,-9.558929E-05
127.5986,-9.546781E-05
127.6986,-9.536422E-05
127.7986,-9.524932E-05
127.8986,-9.51316E-05
127.9986,-9.501766E-05
128.0986,-9.489901E-05
128.1986,-9.476433E-05
128.2986,-9.466075E-05
128.3986,-9.460894E-05
128.4986,-9.448464E-05
128.5986,-9.436692E-05
128.6987,-9.434055E-05
128.7987,-9.420494E-05
128.8987,-9.404296E-05
128.9987,-9.395162E-05
129.0987,-9.387063E-05
129.1987,-9.371336E-05
129.2987,-9.362389E-05
129.3987,-9.353255E-05
129.4987,-9.341013E-05
129.5987,-9.327263E-05
129.6987,-9.321236E-05
129.7987,-9.309276E-05
129.8987,-9.295904E-05
129.9987,-9.290348E-05
130.0987,-9.281306E-05
130.1987,-9.26718E-05
130.2988,-9.259553E-05
130.3988,-9.253243E-05
130.4988,-9.239211E-05
130.5988,-9.22857E-05
130.6988,-9.214726E-05
130.7988,-9.205591E-05
130.8988,-9.190336E-05
130.9988,-9.183272E-05
131.0988,-9.173572E-05
131.1988,-9.161518E-05
131.2988,-9.154455E-05
131.3988,-9.14937E-05
131.4988,-9.137316E-05
131.5988,-9.127522E-05
131.6988,-9.1198E-05
131.7988,-9.112171E-05
131.8988,-9.100777E-05
131.9989,-9.09814E-05
132.0989,-9.091642E-05
132.1989,-9.076385E-05
132.2989,-9.069041E-05
132.3989,-9.06292E-05
132.4989,-9.04851E-05
132.5989,-9.039375E-05
132.6989,-9.03382E-05
132.7989,-9.018658E-05
132.8989,-9.010182E-05
132.9989,-9.004532E-05
133.0989,-8.99389E-05
133.1989,-8.984285E-05
133.2989,-8.971854E-05
133.3989,-8.961777E-05
133.4989,-8.951701E-05
133.599,-8.940212E-05
133.699,-8.937387E-05
133.799,-8.922601E-05
133.899,-8.911301E-05
133.999,-8.904237E-05
134.099,-8.89256E-05
134.199,-8.879752E-05
134.299,-8.872312E-05
134.399,-8.861577E-05
134.499,-8.847263E-05
134.599,-8.827957E-05
134.699,-8.814866E-05
134.799,-8.801966E-05
134.899,-8.792547E-05
134.999,-8.784166E-05
135.099,-8.771642E-05
135.1991,-8.760435E-05
135.2991,-8.755067E-05
135.3991,-8.742731E-05
135.4991,-8.730394E-05
135.5991,-8.722577E-05
135.6991,-8.712407E-05
135.7991,-8.698469E-05
135.8991,-8.686037E-05
135.9991,-8.677656E-05
136.0991,-8.663531E-05
136.1991,-8.649688E-05
136.2991,-8.64592E-05
136.3991,-8.633677E-05
136.4991,-8.621247E-05
136.5991,-8.608628E-05
136.6991,-8.600906E-05
136.7991,-8.587439E-05
136.8992,-8.574537E-05
136.9992,-8.566627E-05
137.0992,-8.555703E-05
137.1992,-8.540635E-05
137.2992,-8.533477E-05
137.3992,-8.522271E-05
137.4992,-8.509747E-05
137.5992,-8.500517E-05
137.6992,-8.489216E-05
137.7992,-8.480176E-05
137.8992,-8.466897E-05
137.9992,-8.45748E-05
138.0992,-8.44439E-05
138.1992,-8.432053E-05
138.2992,-8.421694E-05
138.3992,-8.411806E-05
138.4993,-8.398622E-05
138.5993,-8.389864E-05
138.6993,-8.382424E-05
138.7993,-8.369522E-05
138.8993,-8.36246E-05
138.9993,-8.34918E-05
139.0993,-8.335902E-05
139.1993,-8.324037E-05
139.2993,-8.313678E-05
139.3993,-8.303506E-05
139.4993,-8.291264E-05
139.5993,-8.283166E-05
139.6993,-8.270452E-05
139.7993,-8.261223E-05
139.8993,-8.252465E-05
139.9993,-8.238244E-05
140.0993,-8.231842E-05
140.1994,-8.221859E-05
140.2994,-8.216585E-05
140.3994,-8.210841E-05
140.4994,-8.197751E-05
140.5994,-8.187204E-05
140.6994,-8.182588E-05
140.7994,-8.164414E-05
140.8994,-8.157162E-05
140.9994,-8.145108E-05
141.0994,-8.132394E-05
141.1994,-8.126367E-05
141.2994,-8.115725E-05
141.3994,-8.102636E-05
141.4994,-8.095102E-05
141.5994,-8.083142E-05
141.6994,-8.074761E-05
141.7995,-8.064119E-05
141.8995,-8.055079E-05
141.9995,-8.044907E-05
142.0995,-8.040293E-05
142.1995,-8.032289E-05
142.2995,-8.018163E-05
142.3995,-8.004508E-05
142.4995,-7.998574E-05
142.5995,-7.987086E-05
142.6995,-7.974937E-05
142.7995,-7.969569E-05
142.8995,-7.96213E-05
142.9995,-7.952523E-05
143.0995,-7.94499E-05
143.1995,-7.935383E-05
143.2995,-7.924365E-05
143.3996,-7.911747E-05
143.4996,-7.903271E-05
143.5996,-7.894984E-05
143.6996,-7.885283E-05
143.7996,-7.878033E-05
143.8996,-7.864943E-05
143.9996,-7.852323E-05
144.0996,-7.84865E-05
144.1996,-7.83669E-05
144.2996,-7.826896E-05
144.3996,-7.815407E-05
144.4996,-7.806649E-05
144.5996,-7.796761E-05
144.6996,-7.785743E-05
144.7996,-7.774537E-05
144.8996,-7.76493E-05
144.9996,-7.754854E-05
145.0997,-7.74346E-05
145.1997,-7.733289E-05
145.2997,-7.723494E-05
145.3997,-7.717373E-05
145.4997,-7.702399E-05
145.5997,-7.691852E-05
145.6997,-7.68526E-05
145.7997,-7.674147E-05
145.8997,-7.661435E-05
145.9997,-7.654465E-05
146.0997,-7.645519E-05
146.1997,-7.639775E-05
146.2997,-7.622635E-05
146.3997,-7.617456E-05
146.4997,-7.608321E-05
146.5997,-7.595984E-05
146.6998,-7.589204E-05
146.7998,-7.58167E-05
146.8998,-7.574135E-05
146.9998,-7.570181E-05
147.0998,-7.566602E-05
147.1998,-7.561706E-05
147.2998,-7.553701E-05
147.3998,-7.547485E-05
147.4998,-7.54334E-05
147.5998,-7.529592E-05
147.6998,-7.518385E-05
147.7998,-7.512547E-05
147.8998,-7.501057E-05
147.9998,-7.497762E-05
148.0998,-7.490134E-05
148.1998,-7.482882E-05
148.2999,-7.474218E-05
148.3999,-7.466308E-05
148.4999,-7.45802E-05
148.5999,-7.449921E-05
148.6999,-7.439469E-05
148.7999,-7.433724E-05
148.8999,-7.423836E-05
148.9999,-7.41649E-05
149.0999,-7.407449E-05
149.1999,-7.401328E-05
149.2999,-7.393323E-05
149.3999,-7.383341E-05
149.4999,-7.374206E-05
149.5999,-7.36705E-05
149.6999,-7.357349E-05
149.7999,-7.346708E-05
149.8999,-7.337761E-05
150,-7.333241E-05
150.1,-7.318643E-05
150.2,-7.312805E-05
150.3,-7.309415E-05
150.4,-7.295101E-05
150.5,-7.285496E-05
150.6,-7.284271E-05
150.7,-7.273441E-05
150.8,-7.264494E-05
150.9,-7.258373E-05
151,-7.251593E-05
151.1,-7.244342E-05
151.2,-7.239256E-05
151.3,-7.236713E-05
151.4,-7.224659E-05
151.5,-7.215525E-05
151.6001,-7.211757E-05
151.7001,-7.202623E-05
151.8001,-7.191887E-05
151.9001,-7.188592E-05
152.0001,-7.180963E-05
152.1001,-7.171828E-05
152.2001,-7.166837E-05
152.3001,-7.162317E-05
152.4001,-7.153747E-05
152.5001,-7.140658E-05
152.6001,-7.136231E-05
152.7001,-7.128321E-05
152.8001,-7.116454E-05
152.9001,-7.111463E-05
153.0001,-7.103176E-05
153.1001,-7.094795E-05
153.2001,-7.087166E-05
153.3002,-7.079162E-05
153.4002,-7.068332E-05
153.5002,-7.060044E-05
153.6002,-7.053923E-05
153.7002,-7.045166E-05
153.8002,-7.033959E-05
153.9002,-7.029062E-05
154.0002,-7.01908E-05
154.1002,-7.01277E-05
154.2002,-7.00646E-05
154.3002,-7.000245E-05
154.4002,-6.994688E-05
154.5002,-6.989509E-05
154.6002,-6.979904E-05
154.7002,-6.968508E-05
154.8002,-6.963706E-05
154.9003,-6.95363E-05
155.0003,-6.945625E-05
155.1003,-6.939503E-05
155.2003,-6.935171E-05
155.3003,-6.927638E-05
155.4003,-6.921987E-05
155.5003,-6.913888E-05
155.6003,-6.905884E-05
155.7003,-6.898726E-05
155.8003,-6.892323E-05
155.9003,-6.882622E-05
156.0003,-6.873582E-05
156.1003,-6.867932E-05
156.2003,-6.864824E-05
156.3003,-6.854747E-05
156.4003,-6.842223E-05
156.5004,-6.838078E-05
156.6004,-6.829321E-05
156.7004,-6.819433E-05
156.8004,-6.814159E-05
156.9004,-6.804553E-05
157.0004,-6.797585E-05
157.1004,-6.788638E-05
157.2004,-6.780068E-05
157.3004,-6.770745E-05
157.4004,-6.763305E-05
157.5004,-6.755395E-05
157.6004,-6.746354E-05
157.7004,-6.739009E-05
157.8004,-6.734112E-05
157.9004,-6.721304E-05
158.0004,-6.71151E-05
158.1004,-6.709438E-05
158.2005,-6.698232E-05
158.3005,-6.68759E-05
158.4005,-6.686554E-05
158.5005,-6.680433E-05
158.6005,-6.668756E-05
158.7005,-6.664235E-05
158.8005,-6.656984E-05
158.9005,-6.649356E-05
159.0005,-6.640975E-05
159.1005,-6.634665E-05
159.2005,-6.629109E-05
159.3005,-6.617337E-05
159.4005,-6.614417E-05
159.5005,-6.603965E-05
159.6005,-6.595771E-05
159.7005,-6.593417E-05
159.8006,-6.582587E-05
159.9006,-6.571192E-05
160.0006,-6.567143E-05
160.1006,-6.562717E-05
160.2006,-6.548967E-05
160.3006,-6.541434E-05
160.4006,-6.540398E-05
160.5006,-6.527872E-05
160.6006,-6.516949E-05
160.7006,-6.513182E-05
160.8006,-6.507626E-05
160.9006,-6.496136E-05
161.0006,-6.489449E-05
161.1006,-6.486718E-05
161.2006,-6.47523E-05
161.3006,-6.467979E-05
161.4007,-6.460727E-05
161.5007,-6.453758E-05
161.6007,-6.44274E-05
161.7007,-6.438596E-05
161.8007,-6.431156E-05
161.9007,-6.420139E-05
162.0007,-6.416277E-05
162.1007,-6.408273E-05
162.2007,-6.399891E-05
162.3007,-6.394617E-05
162.4007,-6.386048E-05
162.5007,-6.385105E-05
162.6007,-6.376442E-05
162.7007,-6.369756E-05
162.8007,-6.360715E-05
162.9007,-6.355253E-05
163.0007,-6.350168E-05
163.1008,-6.340467E-05
163.2008,-6.337078E-05
163.3008,-6.331992E-05
163.4008,-6.321822E-05
163.5008,-6.311556E-05
163.6008,-6.309109E-05
163.7008,-6.305624E-05
163.8008,-6.291592E-05
163.9008,-6.291592E-05
164.0008,-6.286318E-05
164.1008,-6.275771E-05
164.2008,-6.271251E-05
164.3008,-6.270214E-05
164.4008,-6.259667E-05
164.5008,-6.255053E-05
164.6008,-6.250627E-05
164.7009,-6.241209E-05
164.8009,-6.232639E-05
164.9009,-6.227083E-05
165.0009,-6.218984E-05
165.1009,-6.211262E-05
165.2009,-6.20241E-05
165.3009,-6.200621E-05
165.4009,-6.190639E-05
165.5009,-6.186495E-05
165.6009,-6.185177E-05
165.7009,-6.178585E-05
165.8009,-6.168979E-05
165.9009,-6.164081E-05
166.0009,-6.155889E-05
166.1009,-6.147413E-05
166.2009,-6.139503E-05
166.3009,-6.134417E-05
166.401,-6.125847E-05
166.501,-6.123305E-05
166.601,-6.120385E-05
166.701,-6.114924E-05
166.801,-6.105223E-05
166.901,-6.098537E-05
167.001,-6.09185E-05
167.101,-6.083563E-05
167.201,-6.078384E-05
167.301,-6.074241E-05
167.401,-6.066895E-05
167.501,-6.058043E-05
167.601,-6.056065E-05
167.701,-6.048814E-05
167.801,-6.037984E-05
167.901,-6.033652E-05
168.0011,-6.026495E-05
168.1011,-6.018019E-05
168.2011,-6.014346E-05
168.3011,-6.008225E-05
168.4011,-6.001256E-05
168.5011,-5.992781E-05
168.6011,-5.988166E-05
168.7011,-5.982327E-05
168.8011,-5.972816E-05
168.9011,-5.965188E-05
169.0011,-5.963681E-05
169.1011,-5.956524E-05
169.2011,-5.949084E-05
169.3011,-5.941833E-05
169.4011,-5.939856E-05
169.5011,-5.938725E-05
169.6012,-5.931756E-05
169.7012,-5.924505E-05
169.8012,-5.916689E-05
169.9012,-5.910568E-05
170.0012,-5.904917E-05
170.1012,-5.899832E-05
170.2012,-5.893051E-05
170.3012,-5.887024E-05
170.4012,-5.881751E-05
170.5012,-5.877513E-05
170.6012,-5.868943E-05
170.7012,-5.864517E-05
170.8012,-5.859054E-05
170.9012,-5.852275E-05
171.0012,-5.846341E-05
171.1012,-5.840597E-05
171.2012,-5.834099E-05
171.3013,-5.830144E-05
171.4013,-5.821292E-05
171.5013,-5.820444E-05
171.6013,-5.813098E-05
171.7013,-5.807636E-05
171.8013,-5.80321E-05
171.9013,-5.797466E-05
172.0013,-5.788425E-05
172.1013,-5.783905E-05
172.2013,-5.776653E-05
172.3013,-5.769779E-05
172.4013,-5.764882E-05
172.5013,-5.763375E-05
172.6013,-5.75085E-05
172.7013,-5.746141E-05
172.8013,-5.744917E-05
172.9014,-5.735876E-05
173.0014,-5.727966E-05
173.1014,-5.730979E-05
173.2014,-5.724105E-05
173.3014,-5.71431E-05
173.4014,-5.708943E-05
173.5014,-5.703104E-05
173.6014,-5.696418E-05
173.7014,-5.689449E-05
173.8014,-5.685494E-05
173.9014,-5.680032E-05
174.0014,-5.671839E-05
174.1014,-5.668825E-05
174.2014,-5.663551E-05
174.3014,-5.657336E-05
174.4014,-5.65065E-05
174.5014,-5.645564E-05
174.6015,-5.638125E-05
174.7015,-5.631627E-05
174.8015,-5.630402E-05
174.9015,-5.623998E-05
175.0015,-5.616088E-05
175.1015,-5.61185E-05
175.2015,-5.606483E-05
175.3015,-5.599043E-05
175.4015,-5.596123E-05
175.5015,-5.590661E-05
175.6015,-5.585859E-05
175.7015,-5.577665E-05
175.8015,-5.573239E-05
175.9015,-5.57032E-05
176.0015,-5.564199E-05
176.1015,-5.557418E-05
176.2016,-5.555158E-05
176.3016,-5.549414E-05
176.4016,-5.543387E-05
176.5016,-5.537925E-05
176.6016,-5.533404E-05
176.7016,-5.524552E-05
176.8016,-5.521915E-05
176.9016,-5.519561E-05
177.0016,-5.509861E-05
177.1016,-5.502233E-05
177.2016,-5.50148E-05
177.3016,-5.493569E-05
177.4016,-5.488201E-05
177.5016,-5.480949E-05
177.6016,-5.477371E-05
177.7016,-5.47351E-05
177.8017,-5.467012E-05
177.9017,-5.45863E-05
178.0017,-5.456277E-05
178.1017,-5.451191E-05
178.2017,-5.442527E-05
178.3017,-5.437347E-05
178.4017,-5.432922E-05
178.5017,-5.427554E-05
178.6017,-5.418795E-05
178.7017,-5.418607E-05
178.8017,-5.413804E-05
178.9017,-5.406176E-05
179.0017,-5.401279E-05
179.1017,-5.397512E-05
179.2017,-5.39205E-05
179.3017,-5.383386E-05
179.4017,-5.380561E-05
179.5018,-5.375476E-05
179.6018,-5.367754E-05
179.7018,-5.365023E-05
179.8018,-5.360785E-05
179.9018,-5.353062E-05
180.0018,-5.352497E-05
180.1018,-5.344587E-05
180.2018,-5.339502E-05
180.3018,-5.337147E-05
180.4018,-5.330555E-05
180.5018,-5.322456E-05
180.6018,-5.316523E-05
180.7018,-5.312285E-05
180.8018,-5.306918E-05
180.9018,-5.303998E-05
181.0018,-5.301927E-05
181.1019,-5.294299E-05
181.2019,-5.289025E-05
181.3019,-5.283939E-05
181.4019,-5.278101E-05
181.5019,-5.268872E-05
181.6019,-5.265764E-05
181.7019,-5.261338E-05
181.8019,-5.254181E-05
181.9019,-5.248153E-05
182.0019,-5.244387E-05
182.1019,-5.237512E-05
182.2019,-5.231203E-05
182.3019,-5.227247E-05
182.4019,-5.221596E-05
182.5019,-5.2167E-05
182.6019,-5.21331E-05
182.702,-5.207188E-05
182.802,-5.20182E-05
182.902,-5.199749E-05
183.002,-5.193533E-05
183.102,-5.187789E-05
183.202,-5.186188E-05
183.302,-5.182986E-05
183.402,-5.176205E-05
183.502,-5.168389E-05
183.602,-5.166788E-05
183.702,-5.159914E-05
183.802,-5.152756E-05
183.902,-5.151061E-05
184.002,-5.147671E-05
184.102,-5.141832E-05
184.202,-5.138536E-05
184.302,-5.134863E-05
184.4021,-5.133733E-05
184.5021,-5.125352E-05
184.6021,-5.119796E-05
184.7021,-5.116123E-05
184.8021,-5.109719E-05
184.9021,-5.104822E-05
185.0021,-5.098889E-05
185.1021,-5.092674E-05
185.2021,-5.087306E-05
185.3021,-5.083633E-05
185.4021,-5.081467E-05
185.5021,-5.072709E-05
185.6021,-5.069131E-05
185.7021,-5.064422E-05
185.8021,-5.057358E-05
185.9021,-5.054345E-05
186.0022,-5.048883E-05
186.1022,-5.045022E-05
186.2022,-5.037112E-05
186.3022,-5.033062E-05
186.4022,-5.029013E-05
186.5022,-5.022986E-05
186.6022,-5.019407E-05
186.7022,-5.014605E-05
186.8022,-5.008859E-05
186.9022,-5.006035E-05
187.0022,-5.000008E-05
187.1022,-4.993039E-05
187.2022,-4.991626E-05
187.3022,-4.986917E-05
187.4022,-4.982209E-05
187.5022,-4.978065E-05
187.6022,-4.971661E-05
187.7023,-4.964787E-05
187.8023,-4.960549E-05
187.9023,-4.95697E-05
188.0023,-4.952544E-05
188.1023,-4.949625E-05
188.2023,-4.945952E-05
188.3023,-4.940302E-05
188.4023,-4.937571E-05
188.5023,-4.934934E-05
188.6023,-4.928342E-05
188.7023,-4.92401E-05
188.8023,-4.920808E-05
188.9023,-4.914216E-05
189.0023,-4.909225E-05
189.1023,-4.909225E-05
189.2023,-4.905458E-05
189.3024,-4.898018E-05
189.4024,-4.896699E-05
189.5024,-4.891991E-05
189.6024,-4.885022E-05
189.7024,-4.881632E-05
189.8024,-4.876829E-05
189.9024,-4.872026E-05
190.0024,-4.8676E-05
190.1024,-4.864775E-05
190.2024,-4.862326E-05
190.3024,-4.856581E-05
190.4024,-4.855922E-05
190.5024,-4.856487E-05
190.6024,-4.850084E-05
190.7024,-4.843115E-05
190.8024,-4.841514E-05
190.9025,-4.835299E-05
191.0025,-4.828895E-05
191.1025,-4.826729E-05
191.2025,-4.82607E-05
191.3025,-4.819383E-05
191.4025,-4.819007E-05
191.5025,-4.820702E-05
191.6025,-4.814486E-05
191.7025,-4.807141E-05
191.8025,-4.808647E-05
191.9025,-4.800455E-05
192.0025,-4.79923E-05
192.1025,-4.802056E-05
192.2025,-4.799795E-05
192.3025,-4.791696E-05
192.4025,-4.789248E-05
192.5025,-4.789436E-05
192.6026,-4.781808E-05
192.7026,-4.778889E-05
192.8026,-4.776252E-05
192.9026,-4.770131E-05
193.0026,-4.768248E-05
193.1026,-4.765233E-05
193.2026,-4.760713E-05
193.3026,-4.75591E-05
193.4026,-4.752426E-05
193.5026,-4.747058E-05
193.6026,-4.744139E-05
193.7026,-4.74122E-05
193.8026,-4.739807E-05
193.9026,-4.731803E-05
194.0026,-4.728035E-05
194.1026,-4.726906E-05
194.2027,-4.719277E-05
194.3027,-4.71504E-05
194.4027,-4.71391E-05
194.5027,-4.710237E-05
194.6027,-4.707129E-05
194.7027,-4.699972E-05
194.8027,-4.695734E-05
194.9027,-4.691308E-05
195.0027,-4.687352E-05
195.1027,-4.685846E-05
195.2027,-4.682456E-05
195.3027,-4.67737E-05
195.4027,-4.677935E-05
195.5027,-4.675675E-05
195.6027,-4.66833E-05
195.7027,-4.665881E-05
195.8027,-4.660514E-05
195.9028,-4.652226E-05
196.0028,-4.649872E-05
196.1028,-4.648741E-05
196.2028,-4.644504E-05
196.3028,-4.638288E-05
196.4028,-4.639136E-05
196.5028,-4.63245E-05
196.6028,-4.628588E-05
196.7028,-4.627553E-05
196.8028,-4.62388E-05
196.9028,-4.617099E-05
197.0028,-4.613898E-05
197.1028,-4.611732E-05
197.2028,-4.60335E-05
197.3028,-4.595816E-05
197.4028,-4.598736E-05
197.5029,-4.59318E-05
197.6029,-4.585551E-05
197.7029,-4.586023E-05
197.8029,-4.58395E-05
197.9029,-4.578394E-05
198.0029,-4.574062E-05
198.1029,-4.572744E-05
198.2029,-4.563703E-05
198.3029,-4.559936E-05
198.4029,-4.559936E-05
198.5029,-4.557865E-05
198.6029,-4.55617E-05
198.7029,-4.554286E-05
198.8029,-4.551367E-05
198.9029,-4.546376E-05
199.0029,-4.545057E-05
199.103,-4.53903E-05
199.203,-4.53225E-05
199.303,-4.532438E-05
199.403,-4.53046E-05
199.503,-4.527541E-05
199.603,-4.519159E-05
199.703,-4.520572E-05
199.803,-4.516146E-05
199.903,-4.509083E-05
200.003,-4.507105E-05
200.103,-4.50654E-05
200.203,-4.499665E-05
200.303,-4.492696E-05
200.403,-4.492603E-05
200.503,-4.489872E-05
200.603,-4.483751E-05
200.703,-4.482149E-05
200.8031,-4.478006E-05
200.9031,-4.471885E-05
201.0031,-4.468965E-05
201.1031,-4.465293E-05
201.2031,-4.462185E-05
201.3031,-4.457287E-05
201.4031,-4.456252E-05
201.5031,-4.453238E-05
201.6031,-4.446835E-05
201.7031,-4.445328E-05
201.8031,-4.440619E-05
201.9031,-4.437982E-05
202.0031,-4.438076E-05
202.1031,-4.431673E-05
202.2031,-4.428094E-05
202.3031,-4.422538E-05
202.4032,-4.417923E-05
202.5032,-4.416134E-05
202.6032,-4.407564E-05
202.7032,-4.408129E-05
202.8032,-4.401914E-05
202.9032,-4.39777E-05
203.0032,-4.396358E-05
203.1032,-4.390519E-05
203.2032,-4.382608E-05
203.3032,-4.383173E-05
203.4032,-4.378559E-05
203.5032,-4.372814E-05
203.6032,-4.3682E-05
203.7032,-4.365187E-05
203.8032,-4.359159E-05
203.9032,-4.355393E-05
204.0033,-4.359536E-05
204.1033,-4.352284E-05
204.2033,-4.347576E-05
204.3033,-4.349083E-05
204.4033,-4.344092E-05
204.5033,-4.339006E-05
204.6033,-4.334015E-05
204.7033,-4.332131E-05
204.8033,-4.3278E-05
204.9033,-4.321867E-05
205.0033,-4.32036E-05
205.1033,-4.318759E-05
205.2033,-4.314804E-05
205.3033,-4.318476E-05
205.4033,-4.311696E-05
205.5033,-4.304821E-05
205.6033,-4.303126E-05
205.7034,-4.298794E-05
205.8034,-4.291072E-05
205.9034,-4.290601E-05
206.0034,-4.287964E-05
206.1034,-4.282973E-05
206.2034,-4.277417E-05
206.3034,-4.275534E-05
206.4034,-4.272708E-05
206.5034,-4.26687E-05
206.6034,-4.267341E-05
206.7034,-4.264327E-05
206.8034,-4.26056E-05
206.9034,-4.257264E-05
207.0034,-4.253685E-05
207.1034,-4.24973E-05
207.2034,-4.245304E-05
207.3035,-4.243326E-05
207.4035,-4.237864E-05
207.5035,-4.232497E-05
207.6035,-4.233721E-05
207.7035,-4.227034E-05
207.8035,-4.221666E-05
207.9035,-4.221761E-05
208.0035,-4.2179E-05
208.1035,-4.215263E-05
208.2035,-4.212438E-05
208.3035,-4.208106E-05
208.4035,-4.203114E-05
208.5035,-4.199912E-05
208.6035,-4.193226E-05
208.7035,-4.190024E-05
208.8035,-4.188989E-05
208.9035,-4.187576E-05
209.0036,-4.179571E-05
209.1036,-4.176181E-05
209.2036,-4.178252E-05
209.3036,-4.175333E-05
209.4036,-4.169683E-05
209.5036,-4.165822E-05
209.6036,-4.16601E-05
209.7036,-4.162149E-05
209.8036,-4.155934E-05
209.9036,-4.157441E-05
210.0036,-4.154332E-05
210.1036,-4.149436E-05
210.2036,-4.151507E-05
210.3036,-4.147929E-05
210.4036,-4.145104E-05
210.5036,-4.138135E-05
210.6037,-4.136063E-05
210.7037,-4.131543E-05
210.8037,-4.123821E-05
210.9037,-4.12335E-05
211.0037,-4.119865E-05
211.1037,-4.114309E-05
211.2037,-4.112802E-05
211.3037,-4.109789E-05
211.4037,-4.104703E-05
211.5037,-4.101784E-05
211.6037,-4.0983E-05
211.7037,-4.094721E-05
211.8037,-4.087941E-05
211.9037,-4.085775E-05
212.0037,-4.084645E-05
212.1037,-4.080501E-05
212.2038,-4.077205E-05
212.3038,-4.074663E-05
212.4038,-4.073438E-05
212.5038,-4.071931E-05
212.6038,-4.067882E-05
212.7038,-4.062514E-05
212.8038,-4.06016E-05
212.9038,-4.054415E-05
213.0038,-4.053473E-05
213.1038,-4.047823E-05
213.2038,-4.045186E-05
213.3038,-4.041796E-05
213.4038,-4.041419E-05
213.5038,-4.041231E-05
213.6038,-4.034921E-05
213.7038,-4.03106E-05
213.8038,-4.031813E-05
213.9039,-4.024279E-05
214.0039,-4.018252E-05
214.1039,-4.01684E-05
214.2039,-4.014109E-05
214.3039,-4.009306E-05
214.4039,-4.003844E-05
214.5039,-4.002525E-05
214.6039,-3.997723E-05
214.7039,-3.991413E-05
214.8039,-3.990754E-05
214.9039,-3.988117E-05
215.0039,-3.982373E-05
215.1039,-3.981808E-05
215.2039,-3.974933E-05
215.3039,-3.972014E-05
215.4039,-3.974368E-05
215.504,-3.969848E-05
215.604,-3.962879E-05
215.704,-3.959583E-05
215.804,-3.958076E-05
215.904,-3.952426E-05
216.004,-3.944891E-05
216.104,-3.94621E-05
216.204,-3.94103E-05
216.304,-3.937546E-05
216.404,-3.934062E-05
216.504,-3.931142E-05
216.604,-3.92681E-05
216.704,-3.92116E-05
216.804,-3.920784E-05
216.904,-3.917581E-05
217.004,-3.911272E-05
217.104,-3.910142E-05
217.2041,-3.907034E-05
217.3041,-3.901195E-05
217.4041,-3.898182E-05
217.5041,-3.89432E-05
217.6041,-3.890554E-05
217.7041,-3.885186E-05
217.8041,-3.882455E-05
217.9041,-3.87963E-05
218.0041,-3.875298E-05
218.1041,-3.873979E-05
218.2041,-3.864844E-05
218.3041,-3.86023E-05
218.4041,-3.86541E-05
218.5041,-3.86023E-05
218.6041,-3.854485E-05
218.7041,-3.851849E-05
218.8042,-3.849965E-05
218.9042,-3.842431E-05
219.0042,-3.841207E-05
219.1042,-3.83631E-05
219.2042,-3.829812E-05
219.3042,-3.829906E-05
219.4042,-3.826234E-05
219.5042,-3.820018E-05
219.6042,-3.815403E-05
219.7042,-3.814556E-05
219.8042,-3.810412E-05
219.9042,-3.803538E-05
220.0042,-3.80156E-05
220.1042,-3.798076E-05
220.2042,-3.794685E-05
220.3042,-3.791201E-05
220.4043,-3.785174E-05
220.5043,-3.782443E-05
220.6043,-3.781031E-05
220.7043,-3.775662E-05
220.8043,-3.770389E-05
220.9043,-3.767564E-05
221.0043,-3.766528E-05
221.1043,-3.7605E-05
221.2043,-3.757393E-05
221.3043,-3.751837E-05
221.4043,-3.749859E-05
221.5043,-3.743926E-05
221.6043,-3.744209E-05
221.7043,-3.738653E-05
221.8043,-3.73319E-05
221.9043,-3.731684E-05
222.0043,-3.729424E-05
222.1044,-3.72528E-05
222.2044,-3.724244E-05
222.3044,-3.717746E-05
222.4044,-3.715674E-05
222.5044,-3.712943E-05
222.6044,-3.710024E-05
222.7044,-3.706634E-05
222.8044,-3.705221E-05
222.9044,-3.707104E-05
223.0044,-3.704656E-05
223.1044,-3.703432E-05
223.2044,-3.703149E-05
223.3044,-3.700984E-05
223.4044,-3.697687E-05
223.5044,-3.69279E-05
223.6044,-3.688647E-05
223.7045,-3.684032E-05
223.8045,-3.679888E-05
223.9045,-3.682996E-05
224.0045,-3.68083E-05
224.1045,-3.675274E-05
224.2045,-3.677063E-05
224.3045,-3.673579E-05
224.4045,-3.665009E-05
224.5045,-3.662466E-05
224.6045,-3.66096E-05
224.7045,-3.656251E-05
224.8045,-3.650695E-05
224.9045,-3.653708E-05
225.0045,-3.649094E-05
225.1045,-3.644103E-05
225.2045,-3.646646E-05
225.3046,-3.645139E-05
225.4046,-3.641937E-05
225.5046,-3.639394E-05
225.6046,-3.638264E-05
225.7046,-3.631578E-05
225.8046,-3.628282E-05
225.9046,-3.627057E-05
226.0046,-3.624703E-05
226.1046,-3.619053E-05
226.2046,-3.622443E-05
226.3046,-3.617075E-05
226.4046,-3.616416E-05
226.5046,-3.616698E-05
226.6046,-3.611989E-05
226.7046,-3.60907E-05
226.8046,-3.609164E-05
226.9046,-3.607375E-05
227.0047,-3.602384E-05
227.1047,-3.599747E-05
227.2047,-3.6005E-05
227.3047,-3.596262E-05
227.4047,-3.595321E-05
227.5047,-3.594096E-05
227.6047,-3.589105E-05
227.7047,-3.587128E-05
227.8047,-3.587787E-05
227.9047,-3.583079E-05
228.0047,-3.581101E-05
228.1047,-3.577428E-05
228.2047,-3.580347E-05
228.3047,-3.574038E-05
228.4047,-3.569047E-05
228.5047,-3.57093E-05
228.6048,-3.566127E-05
228.7048,-3.560383E-05
228.8048,-3.560383E-05
228.9048,-3.558499E-05
229.0048,-3.555768E-05
229.1048,-3.551059E-05
229.2048,-3.548046E-05
229.3048,-3.544656E-05
229.4048,-3.541548E-05
229.5048,-3.539665E-05
229.6048,-3.53571E-05
229.7048,-3.530907E-05
229.8048,-3.530812E-05
229.9048,-3.527422E-05
230.0048,-3.521395E-05
230.1048,-3.519512E-05
230.2048,-3.518852E-05
230.3049,-3.514332E-05
230.4049,-3.509153E-05
230.5049,-3.509341E-05
230.6049,-3.504538E-05
230.7049,-3.499359E-05
230.8049,-3.500865E-05
230.9049,-3.495403E-05
231.0049,-3.490412E-05
231.1049,-3.492296E-05
231.2049,-3.49173E-05
231.3049,-3.483538E-05
231.4049,-3.488623E-05
231.5049,-3.483161E-05
231.6049,-3.475815E-05
231.7049,-3.477039E-05
231.8049,-3.472143E-05
231.905,-3.467528E-05
232.005,-3.465927E-05
232.105,-3.468658E-05
232.205,-3.466963E-05
232.305,-3.459335E-05
232.405,-3.459146E-05
232.505,-3.456793E-05
232.605,-3.452084E-05
232.705,-3.449164E-05
232.805,-3.449259E-05
232.905,-3.444738E-05
233.005,-3.441725E-05
233.105,-3.4405E-05
233.205,-3.437205E-05
233.305,-3.432684E-05
233.405,-3.431271E-05
233.5051,-3.430236E-05
233.6051,-3.425244E-05
233.7051,-3.422137E-05
233.8051,-3.422137E-05
233.9051,-3.415262E-05
234.0051,-3.417051E-05
234.1051,-3.417051E-05
234.2051,-3.409235E-05
234.3051,-3.407728E-05
234.4051,-3.407351E-05
234.5051,-3.402737E-05
234.6051,-3.398876E-05
234.7051,-3.400476E-05
234.8051,-3.396804E-05
234.9051,-3.390494E-05
235.0051,-3.390683E-05
235.1051,-3.388611E-05
235.2052,-3.383243E-05
235.3052,-3.383243E-05
235.4052,-3.382113E-05
235.5052,-3.376839E-05
235.6052,-3.371942E-05
235.7052,-3.372601E-05
235.8052,-3.368081E-05
235.9052,-3.363843E-05
236.0052,-3.364314E-05
236.1052,-3.360265E-05
236.2052,-3.355274E-05
236.3052,-3.354709E-05
236.4052,-3.354143E-05
236.5052,-3.348022E-05
236.6052,-3.343785E-05
236.7052,-3.343878E-05
236.8053,-3.340112E-05
236.9053,-3.337192E-05
237.0053,-3.336345E-05
237.1053,-3.333049E-05
237.2053,-3.328152E-05
237.3053,-3.326363E-05
237.4053,-3.320712E-05
237.5053,-3.318452E-05
237.6053,-3.311859E-05
237.7053,-3.309411E-05
237.8053,-3.308281E-05
237.9053,-3.306115E-05
238.0053,-3.30103E-05
238.1053,-3.298864E-05
238.2053,-3.296698E-05
238.3053,-3.293025E-05
238.4053,-3.289352E-05
238.5054,-3.288128E-05
238.6054,-3.286998E-05
238.7054,-3.279276E-05
238.8054,-3.278711E-05
238.9054,-3.279276E-05
239.0054,-3.271648E-05
239.1054,-3.270236E-05
239.2054,-3.269105E-05
239.3054,-3.274285E-05
239.4054,-3.265244E-05
239.5054,-3.262419E-05
239.6054,-3.265715E-05
239.7054,-3.260441E-05
239.8054,-3.255074E-05
239.9054,-3.258369E-05
240.0054,-3.253001E-05
240.1055,-3.248858E-05
240.2055,-3.2498E-05
240.3055,-3.24754E-05
240.4055,-3.240665E-05
240.5055,-3.240571E-05
240.6055,-3.239064E-05
240.7055,-3.235203E-05
240.8055,-3.229647E-05
240.9055,-3.230117E-05
241.0055,-3.227858E-05
241.1055,-3.222866E-05
241.2055,-3.22183E-05
241.3055,-3.221171E-05
241.4055,-3.21957E-05
241.5055,-3.219382E-05
241.6055,-3.217875E-05
241.7056,-3.213826E-05
241.8056,-3.211377E-05
241.9056,-3.208363E-05
242.0056,-3.207422E-05
242.1056,-3.202996E-05
242.2056,-3.200924E-05
242.3056,-3.200924E-05
242.4056,-3.196215E-05
242.5056,-3.194897E-05
242.6056,-3.191695E-05
242.7056,-3.189623E-05
242.8056,-3.18595E-05
242.9056,-3.18435E-05
243.0056,-3.182278E-05
243.1056,-3.177004E-05
243.2056,-3.177852E-05
243.3056,-3.174179E-05
243.4057,-3.1706E-05
243.5057,-3.170883E-05
243.6057,-3.168057E-05
243.7057,-3.162878E-05
243.8057,-3.164385E-05
243.9057,-3.164479E-05
244.0057,-3.157039E-05
244.1057,-3.155156E-05
244.2057,-3.152802E-05
244.3057,-3.151577E-05
244.4057,-3.146209E-05
244.5057,-3.147339E-05
244.6057,-3.144608E-05
244.7057,-3.14103E-05
244.8057,-3.141501E-05
244.9057,-3.140088E-05
245.0058,-3.137545E-05
245.1058,-3.134061E-05
245.2058,-3.131707E-05
245.3058,-3.128975E-05
245.4058,-3.125209E-05
245.5058,-3.12389E-05
245.6058,-3.123043E-05
245.7058,-3.118805E-05
245.8058,-3.119276E-05
245.9058,-3.114379E-05
246.0058,-3.114661E-05
246.1058,-3.113625E-05
246.2058,-3.108163E-05
246.3058,-3.108729E-05
246.4058,-3.109294E-05
246.5058,-3.106186E-05
246.6059,-3.103831E-05
246.7059,-3.09997E-05
246.8059,-3.100629E-05
246.9059,-3.100347E-05
247.0059,-3.096674E-05
247.1059,-3.101477E-05
247.2059,-3.100629E-05
247.3059,-3.099688E-05
247.4059,-3.098463E-05
247.5059,-3.09771E-05
247.6059,-3.094226E-05
247.7059,-3.09093E-05
247.8059,-3.088858E-05
247.9059,-3.088952E-05
248.0059,-3.089423E-05
248.1059,-3.091589E-05
248.2059,-3.089611E-05
248.306,-3.086503E-05
248.406,-3.084432E-05
248.506,-3.084997E-05
248.606,-3.08349E-05
248.706,-3.081512E-05
248.806,-3.079441E-05
248.906,-3.079535E-05
249.006,-3.080759E-05
249.106,-3.0801E-05
249.206,-3.078687E-05
249.306,-3.079535E-05
249.406,-3.08236E-05
249.506,-3.082454E-05
249.606,-3.078781E-05
249.706,-3.081512E-05
249.806,-3.078781E-05
249.9061,-3.079911E-05
250.0061,-3.083019E-05
250.1061,-3.084902E-05
250.2061,-3.084149E-05
250.3061,-3.086409E-05
250.4061,-3.090176E-05
250.5061,-3.090459E-05
250.6061,-3.087445E-05
250.7061,-3.09093E-05
250.8061,-3.09206E-05
250.9061,-3.089706E-05
251.0061,-3.090741E-05
251.1061,-3.093284E-05
251.2061,-3.092248E-05
251.3061,-3.089329E-05
251.4061,-3.089329E-05
251.5061,-3.087257E-05
251.6062,-3.084997E-05
251.7062,-3.084432E-05
251.8062,-3.081889E-05
251.9062,-3.0801E-05
252.0062,-3.078593E-05
252.1062,-3.078499E-05
252.2062,-3.074544E-05
252.3062,-3.072848E-05
252.4062,-3.07153E-05
252.5062,-3.065691E-05
252.6062,-3.067763E-05
252.7062,-3.063337E-05
252.8062,-3.059947E-05
252.9062,-3.058063E-05
253.0062,-3.05731E-05
253.1062,-3.051283E-05
253.2063,-3.049588E-05
253.3063,-3.049023E-05
253.4063,-3.045444E-05
253.5063,-3.039323E-05
253.6063,-3.043466E-05
253.7063,-3.038569E-05
253.8063,-3.031789E-05
253.9063,-3.031506E-05
254.0063,-3.029623E-05
254.1063,-3.024161E-05
254.2063,-3.021901E-05
254.3063,-3.022277E-05
254.4063,-3.014649E-05
254.5063,-3.013614E-05
254.6063,-3.013802E-05
254.7063,-3.00768E-05
254.8064,-3.005232E-05
254.9064,-3.008717E-05
255.0064,-3.006174E-05
255.1064,-3.000712E-05
255.2064,-3.000147E-05
255.3064,-2.99864E-05
255.4064,-2.994967E-05
255.5064,-2.995156E-05
255.6064,-2.994308E-05
255.7064,-2.989128E-05
255.8064,-2.985738E-05
255.9064,-2.989128E-05
256.0064,-2.984231E-05
256.1064,-2.980465E-05
256.2064,-2.982819E-05
256.3064,-2.979523E-05
256.4064,-2.975473E-05
256.5064,-2.976603E-05
256.6064,-2.975756E-05
256.7065,-2.971895E-05
256.8065,-2.969729E-05
256.9065,-2.970859E-05
257.0065,-2.967374E-05
257.1065,-2.962195E-05
257.2065,-2.961065E-05
257.3065,-2.9605E-05
257.4065,-2.956733E-05
257.5065,-2.95306E-05
257.6065,-2.955414E-05
257.7065,-2.952495E-05
257.8065,-2.949105E-05
257.9065,-2.950517E-05
258.0065,-2.948069E-05
258.1065,-2.942889E-05
258.2065,-2.947127E-05
258.3065,-2.943831E-05
258.4066,-2.940441E-05
258.5066,-2.938558E-05
258.6066,-2.93771E-05
258.7066,-2.936957E-05
258.8066,-2.9314E-05
258.9066,-2.934037E-05
259.0066,-2.93253E-05
259.1066,-2.928858E-05
259.2066,-2.926032E-05
259.3066,-2.924902E-05
259.4066,-2.922642E-05
259.5066,-2.91897E-05
259.6066,-2.918122E-05
259.7066,-2.913037E-05
259.8066,-2.910588E-05
259.9066,-2.911059E-05
260.0067,-2.905785E-05
260.1067,-2.905032E-05
260.2067,-2.907951E-05
260.3067,-2.903619E-05
260.4067,-2.901171E-05
260.5067,-2.899381E-05
260.6067,-2.894484E-05
260.7067,-2.894014E-05
260.8067,-2.896368E-05
260.9067,-2.89665E-05
261.0067,-2.890529E-05
261.1067,-2.895426E-05
261.2067,-2.89439E-05
261.3067,-2.889117E-05
261.4067,-2.88535E-05
261.5067,-2.888552E-05
261.6068,-2.884408E-05
261.7068,-2.881677E-05
261.8068,-2.879511E-05
261.9068,-2.880641E-05
262.0068,-2.874332E-05
262.1068,-2.874332E-05
262.2068,-2.872919E-05
262.3068,-2.868022E-05
262.4068,-2.862654E-05
262.5068,-2.867739E-05
262.6068,-2.863501E-05
262.7068,-2.859358E-05
262.8068,-2.858699E-05
262.9068,-2.85851E-05
263.0068,-2.852012E-05
263.1068,-2.848622E-05
263.2068,-2.851259E-05
263.3069,-2.845609E-05
263.4069,-2.841371E-05
263.5069,-2.843254E-05
263.6069,-2.839393E-05
263.7069,-2.834402E-05
263.8069,-2.837604E-05
263.9069,-2.834873E-05
264.0069,-2.830447E-05
264.1069,-2.829317E-05
264.2069,-2.827528E-05
264.3069,-2.823949E-05
264.4069,-2.818393E-05
264.5069,-2.820653E-05
264.6069,-2.818016E-05
264.7069,-2.814814E-05
264.8069,-2.816792E-05
264.907,-2.813025E-05
265.007,-2.810294E-05
265.107,-2.808316E-05
265.207,-2.805962E-05
265.307,-2.803231E-05
265.407,-2.80276E-05
265.507,-2.801442E-05
265.607,-2.798522E-05
265.707,-2.795508E-05
265.807,-2.795226E-05
265.907,-2.79193E-05
266.007,-2.789576E-05
266.107,-2.789576E-05
266.207,-2.788069E-05
266.307,-2.785055E-05
266.407,-2.782136E-05
266.507,-2.784208E-05
266.6071,-2.782042E-05
266.7071,-2.776109E-05
266.8071,-2.778086E-05
266.9071,-2.77545E-05
267.0071,-2.771777E-05
267.1071,-2.776109E-05
267.2071,-2.774131E-05
267.3071,-2.767445E-05
267.4071,-2.766974E-05
267.5071,-2.765467E-05
267.6071,-2.763301E-05
267.7071,-2.757934E-05
267.8071,-2.760759E-05
267.9071,-2.757934E-05
268.0071,-2.752566E-05
268.1071,-2.756238E-05
268.2072,-2.750776E-05
268.3072,-2.746162E-05
268.4072,-2.746444E-05
268.5072,-2.745597E-05
268.6072,-2.744749E-05
268.7072,-2.739946E-05
268.8072,-2.73957E-05
268.9072,-2.73618E-05
269.0072,-2.732789E-05
269.1072,-2.734955E-05
269.2072,-2.730717E-05
269.3072,-2.729681E-05
269.4072,-2.731471E-05
269.5072,-2.728175E-05
269.6072,-2.723937E-05
269.7072,-2.721582E-05
269.8073,-2.718851E-05
269.9073,-2.718192E-05
270.0073,-2.713955E-05
270.1073,-2.716215E-05
270.2073,-2.714143E-05
270.3073,-2.708398E-05
270.4073,-2.707174E-05
270.5073,-2.704726E-05
270.6073,-2.70077E-05
270.7073,-2.700582E-05
270.8073,-2.697569E-05
270.9073,-2.695591E-05
271.0073,-2.692012E-05
271.1073,-2.690788E-05
271.2073,-2.689187E-05
271.3073,-2.687303E-05
271.4073,-2.685232E-05
271.5074,-2.681559E-05
271.6074,-2.675532E-05
271.7074,-2.679487E-05
271.8074,-2.677039E-05
271.9074,-2.671577E-05
272.0074,-2.67233E-05
272.1074,-2.6712E-05
272.2074,-2.667904E-05
272.3074,-2.665079E-05
272.4074,-2.663855E-05
272.5074,-2.66263E-05
272.6074,-2.659805E-05
272.7074,-2.656132E-05
272.8074,-2.65472E-05
272.9074,-2.652365E-05
273.0074,-2.651989E-05
273.1075,-2.649352E-05
273.2075,-2.648316E-05
273.3075,-2.645114E-05
273.4075,-2.642006E-05
273.5075,-2.638993E-05
273.6075,-2.640123E-05
273.7075,-2.634943E-05
273.8075,-2.634096E-05
273.9075,-2.631459E-05
274.0075,-2.630423E-05
274.1075,-2.627315E-05
274.2075,-2.627033E-05
274.3075,-2.628163E-05
274.4075,-2.62336E-05
274.5075,-2.621382E-05
274.6075,-2.622795E-05
274.7076,-2.61884E-05
274.8076,-2.614884E-05
274.9076,-2.613943E-05
275.0076,-2.612624E-05
275.1076,-2.60914E-05
275.2076,-2.605467E-05
275.3076,-2.608198E-05
275.4076,-2.606691E-05
275.5076,-2.59944E-05
275.6076,-2.602548E-05
275.7076,-2.602171E-05
275.8076,-2.596521E-05
275.9076,-2.595673E-05
276.0076,-2.59605E-05
276.1076,-2.591529E-05
276.2076,-2.58974E-05
276.3076,-2.588704E-05
276.4077,-2.585973E-05
276.5077,-2.584467E-05
276.6077,-2.582489E-05
276.7077,-2.580134E-05
276.8077,-2.577121E-05
276.9077,-2.579758E-05
277.0077,-2.575708E-05
277.1077,-2.572883E-05
277.2077,-2.571377E-05
277.3077,-2.572036E-05
277.4077,-2.567045E-05
277.5077,-2.564973E-05
277.6077,-2.565444E-05
277.7077,-2.561582E-05
277.8077,-2.558098E-05
277.9077,-2.561582E-05
278.0078,-2.559322E-05
278.1078,-2.55386E-05
278.2078,-2.556874E-05
278.3078,-2.55386E-05
278.4078,-2.550753E-05
278.5078,-2.552636E-05
278.6078,-2.552353E-05
278.7078,-2.551318E-05
278.8078,-2.551788E-05
278.9078,-2.548021E-05
279.0078,-2.544254E-05
279.1078,-2.544725E-05
279.2078,-2.545479E-05
279.3078,-2.543595E-05
279.4078,-2.539075E-05
279.5078,-2.540394E-05
279.6078,-2.538416E-05
279.7079,-2.536344E-05
279.8079,-2.536909E-05
279.9079,-2.533236E-05
280.0079,-2.5322E-05
280.1079,-2.5306E-05
280.2079,-2.528999E-05
280.3079,-2.529375E-05
280.4079,-2.528057E-05
280.5079,-2.52881E-05
280.6079,-2.525514E-05
280.7079,-2.519958E-05
280.8079,-2.521182E-05
280.9079,-2.519205E-05
281.0079,-2.516191E-05
281.1079,-2.515155E-05
281.2079,-2.515061E-05
281.308,-2.512612E-05
281.408,-2.510446E-05
281.508,-2.509316E-05
281.608,-2.509505E-05
281.708,-2.506397E-05
281.808,-2.505549E-05
281.908,-2.503948E-05
282.008,-2.498581E-05
282.108,-2.501123E-05
282.208,-2.498957E-05
282.308,-2.49472E-05
282.408,-2.495096E-05
282.508,-2.495379E-05
282.608,-2.493778E-05
282.708,-2.492083E-05
282.808,-2.490482E-05
282.9081,-2.48841E-05
283.0081,-2.48841E-05
283.1081,-2.486997E-05
283.2081,-2.484454E-05
283.3081,-2.484266E-05
283.4081,-2.481629E-05
283.5081,-2.478992E-05
283.6081,-2.477768E-05
283.7081,-2.476827E-05
283.8081,-2.475414E-05
283.9081,-2.470329E-05
284.0081,-2.472306E-05
284.1081,-2.471365E-05
284.2081,-2.467786E-05
284.3081,-2.466279E-05
284.4081,-2.467315E-05
284.5081,-2.464678E-05
284.6082,-2.461194E-05
284.7082,-2.460346E-05
284.8082,-2.459876E-05
284.9082,-2.458369E-05
285.0082,-2.46044E-05
285.1082,-2.458557E-05
285.2082,-2.457144E-05
285.3082,-2.462135E-05
285.4082,-2.457992E-05
285.5082,-2.452342E-05
285.6082,-2.453283E-05
285.7082,-2.452907E-05
285.8082,-2.446974E-05
285.9082,-2.448575E-05
286.0082,-2.450552E-05
286.1082,-2.444431E-05
286.2083,-2.443583E-05
286.3083,-2.445184E-05
286.4083,-2.4417E-05
286.5083,-2.440476E-05
286.6083,-2.439911E-05
286.7083,-2.439911E-05
286.8083,-2.43831E-05
286.9083,-2.435767E-05
287.0083,-2.436803E-05
287.1083,-2.435767E-05
287.2083,-2.433413E-05
287.3083,-2.436991E-05
287.4083,-2.435202E-05
287.5083,-2.432565E-05
287.6083,-2.433224E-05
287.7083,-2.43379E-05
287.8083,-2.431341E-05
287.9084,-2.430211E-05
288.0084,-2.431623E-05
288.1084,-2.427668E-05
288.2084,-2.423148E-05
288.3084,-2.425879E-05
288.4084,-2.424655E-05
288.5084,-2.42004E-05
288.6084,-2.421453E-05
288.7084,-2.42409E-05
288.8084,-2.418157E-05
288.9084,-2.415614E-05
289.0084,-2.419287E-05
289.1084,-2.418062E-05
289.2084,-2.416744E-05
289.3084,-2.418533E-05
289.4084,-2.416368E-05
289.5085,-2.412036E-05
289.6085,-2.41034E-05
289.7085,-2.411E-05
289.8085,-2.408269E-05
289.9085,-2.407139E-05
290.0085,-2.405537E-05
290.1085,-2.405914E-05
290.2085,-2.403089E-05
290.3085,-2.404031E-05
290.4085,-2.402995E-05
290.5085,-2.400358E-05
290.6085,-2.402995E-05
290.7085,-2.40243E-05
290.8085,-2.402995E-05
290.9085,-2.404125E-05
291.0085,-2.400075E-05
291.1086,-2.398945E-05
291.2086,-2.396309E-05
291.3086,-2.393766E-05
291.4086,-2.393484E-05
291.5086,-2.393578E-05
291.6086,-2.394237E-05
291.7086,-2.391977E-05
291.8086,-2.392636E-05
291.9086,-2.391223E-05
292.0086,-2.389716E-05
292.1086,-2.387927E-05
292.2086,-2.390658E-05
292.3086,-2.388681E-05
292.4086,-2.387927E-05
292.5086,-2.389622E-05
292.6086,-2.391318E-05
292.7086,-2.38595E-05
292.8087,-2.38708E-05
292.9087,-2.38595E-05
293.0087,-2.382277E-05
293.1087,-2.377097E-05
293.2087,-2.382653E-05
293.3087,-2.37851E-05
293.4087,-2.374272E-05
293.5087,-2.378227E-05
293.6087,-2.37851E-05
293.7087,-2.37738E-05
293.8087,-2.37446E-05
293.9087,-2.374649E-05
294.0087,-2.372012E-05
294.1087,-2.369375E-05
294.2087,-2.370599E-05
294.3087,-2.373425E-05
294.4088,-2.367962E-05
294.5088,-2.367397E-05
294.6088,-2.36768E-05
294.7088,-2.365796E-05
294.8088,-2.365231E-05
294.9088,-2.371447E-05
295.0088,-2.370411E-05
295.1088,-2.364761E-05
295.2088,-2.364384E-05
295.3088,-2.365796E-05
295.4088,-2.361088E-05
295.5088,-2.362877E-05
295.6088,-2.362689E-05
295.7088,-2.358733E-05
295.8088,-2.358922E-05
295.9088,-2.360523E-05
296.0089,-2.357321E-05
296.1089,-2.354496E-05
296.2089,-2.353177E-05
296.3089,-2.352707E-05
296.4089,-2.352047E-05
296.5089,-2.350446E-05
296.6089,-2.349222E-05
296.7089,-2.348469E-05
296.8089,-2.348186E-05
296.9089,-2.34489E-05
297.0089,-2.342536E-05
297.1089,-2.345078E-05
297.2089,-2.343007E-05
297.3089,-2.338675E-05
297.4089,-2.341029E-05
297.5089,-2.340935E-05
297.6089,-2.336697E-05
297.709,-2.334719E-05
297.809,-2.337168E-05
297.909,-2.332177E-05
298.009,-2.329163E-05
298.109,-2.333966E-05
298.209,-2.330293E-05
298.309,-2.325208E-05
298.409,-2.327845E-05
298.509,-2.326526E-05
298.609,-2.320876E-05
298.709,-2.321818E-05
298.809,-2.322665E-05
298.909,-2.317956E-05
299.009,-2.31645E-05
299.109,-2.319463E-05
299.209,-2.320028E-05
299.3091,-2.315791E-05
299.4091,-2.316921E-05
299.5091,-2.316638E-05
299.6091,-2.312212E-05
299.7091,-2.311929E-05
299.8091,-2.314095E-05
299.9091,-2.310517E-05
300.0091,-2.308539E-05
300.1091,-2.308445E-05
300.2091,-2.30675E-05
300.3091,-2.306091E-05
300.4091,-2.305997E-05
300.5091,-2.306185E-05
300.6091,-2.304678E-05
300.7091,-2.305808E-05
300.8091,-2.304207E-05
300.9091,-2.303642E-05
301.0092,-2.303266E-05
301.1092,-2.301853E-05
301.2092,-2.297521E-05
301.3092,-2.296014E-05
301.4092,-2.297803E-05
301.5092,-2.296956E-05
301.6092,-2.29479E-05
301.7092,-2.29074E-05
301.8092,-2.292342E-05
301.9092,-2.289987E-05
302.0092,-2.28848E-05
302.1092,-2.288009E-05
302.2092,-2.288386E-05
302.3092,-2.28509E-05
302.4092,-2.284243E-05
302.5092,-2.283112E-05
302.6093,-2.282642E-05
302.7093,-2.283018E-05
302.8093,-2.282171E-05
302.9093,-2.279911E-05
303.0093,-2.28057E-05
303.1093,-2.280476E-05
303.2093,-2.278027E-05
303.3093,-2.281323E-05
303.4093,-2.278498E-05
303.5093,-2.273318E-05
303.6093,-2.275296E-05
303.7093,-2.272848E-05
303.8093,-2.270493E-05
303.9093,-2.272471E-05
304.0093,-2.27426E-05
304.1093,-2.268233E-05
304.2094,-2.271341E-05
304.3094,-2.273318E-05
304.4094,-2.269928E-05
304.5094,-2.264843E-05
304.6094,-2.26861E-05
304.7094,-2.262959E-05
304.8094,-2.261735E-05
304.9094,-2.265408E-05
305.0094,-2.264655E-05
305.1094,-2.259663E-05
305.2094,-2.25778E-05
305.3094,-2.252977E-05
305.4094,-2.247232E-05
305.5094,-2.243371E-05
305.6094,-2.24469E-05
305.7094,-2.242336E-05
305.8094,-2.239322E-05
305.9095,-2.240546E-05
306.0095,-2.241488E-05
306.1095,-2.238192E-05
306.2095,-2.237532E-05
306.3095,-2.236214E-05
306.4095,-2.235461E-05
306.5095,-2.23499E-05
306.6095,-2.234331E-05
306.7095,-2.2316E-05
306.8095,-2.230376E-05
306.9095,-2.231129E-05
307.0095,-2.229151E-05
307.1095,-2.22529E-05
307.2095,-2.224254E-05
307.3095,-2.225384E-05
307.4095,-2.223218E-05
307.5096,-2.222088E-05
307.6096,-2.218321E-05
307.7096,-2.218227E-05
307.8096,-2.219452E-05
307.9096,-2.216061E-05
308.0096,-2.213989E-05
308.1096,-2.214649E-05
308.2096,-2.214178E-05
308.3096,-2.21333E-05
308.4096,-2.210505E-05
308.5096,-2.209657E-05
308.6096,-2.207962E-05
308.7096,-2.207209E-05
308.8096,-2.206738E-05
308.9096,-2.205608E-05
309.0096,-2.203536E-05
309.1096,-2.202218E-05
309.2097,-2.201841E-05
309.3097,-2.202312E-05
309.4097,-2.200805E-05
309.5097,-2.200899E-05
309.6097,-2.199863E-05
309.7097,-2.200711E-05
309.8097,-2.200334E-05
309.9097,-2.19685E-05
310.0097,-2.196379E-05
310.1097,-2.197226E-05
310.2097,-2.194213E-05
310.3097,-2.192894E-05
310.4097,-2.189881E-05
310.5097,-2.188374E-05
310.6097,-2.190446E-05
310.7097,-2.188563E-05
310.8098,-2.188939E-05
310.9098,-2.186867E-05
311.0098,-2.185832E-05
311.1098,-2.183666E-05
311.2098,-2.181029E-05
311.3098,-2.18084E-05
311.4098,-2.178957E-05
311.5098,-2.177356E-05
311.6098,-2.177733E-05
311.7098,-2.177638E-05
311.8098,-2.176603E-05
311.9098,-2.175849E-05
312.0098,-2.177168E-05
312.1098,-2.179805E-05
312.2098,-2.177356E-05
312.3098,-2.171612E-05
312.4099,-2.173118E-05
312.5099,-2.170764E-05
312.6099,-2.16775E-05
312.7099,-2.170858E-05
312.8099,-2.169069E-05
312.9099,-2.16775E-05
313.0099,-2.16549E-05
313.1099,-2.16549E-05
313.2099,-2.162853E-05
313.3099,-2.161441E-05
313.4099,-2.16323E-05
313.5099,-2.158898E-05
313.6099,-2.158992E-05
313.7099,-2.160405E-05
313.8099,-2.159463E-05
313.9099,-2.15871E-05
314.0099,-2.15645E-05
314.11,-2.154943E-05
314.21,-2.153907E-05
314.31,-2.156167E-05
314.41,-2.156261E-05
314.51,-2.154566E-05
314.61,-2.154472E-05
314.71,-2.157203E-05
314.81,-2.151364E-05
314.91,-2.149669E-05
315.01,-2.150422E-05
315.11,-2.149952E-05
315.21,-2.147597E-05
315.31,-2.146373E-05
315.41,-2.149858E-05
315.51,-2.147974E-05
315.61,-2.145996E-05
315.7101,-2.151082E-05
315.8101,-2.147127E-05
315.9101,-2.143077E-05
316.0101,-2.146279E-05
316.1101,-2.147692E-05
316.2101,-2.1427E-05
316.3101,-2.140817E-05
316.4101,-2.142229E-05
316.5101,-2.140534E-05
316.6101,-2.13705E-05
316.7101,-2.138368E-05
316.8101,-2.136485E-05
316.9101,-2.134884E-05
317.0101,-2.133283E-05
317.1101,-2.135543E-05
317.2101,-2.136861E-05
317.3102,-2.13479E-05
317.4102,-2.136579E-05
317.5102,-2.141947E-05
317.6102,-2.13592E-05
317.7102,-2.13818E-05
317.8102,-2.141664E-05
317.9102,-2.134225E-05
318.0102,-2.133754E-05
318.1102,-2.135826E-05
318.2102,-2.131211E-05
318.3102,-2.135167E-05
318.4102,-2.131682E-05
318.5102,-2.128574E-05
318.6102,-2.131588E-05
318.7102,-2.128386E-05
318.8102,-2.126597E-05
318.9102,-2.124619E-05
319.0103,-2.123112E-05
319.1103,-2.121982E-05
319.2103,-2.121041E-05
319.3103,-2.121982E-05
319.4103,-2.11878E-05
319.5103,-2.117273E-05
319.6103,-2.119722E-05
319.7103,-2.115202E-05
319.8103,-2.115013E-05
319.9103,-2.113413E-05
320.0103,-2.113507E-05
320.1103,-2.112848E-05
320.2103,-2.111811E-05
320.3103,-2.110681E-05
320.4103,-2.10861E-05
320.5103,-2.106067E-05
320.6104,-2.111811E-05
320.7104,-2.107197E-05
320.8104,-2.104654E-05
320.9104,-2.105125E-05
321.0104,-2.107103E-05
321.1104,-2.101641E-05
321.2104,-2.104466E-05
321.3104,-2.103242E-05
321.4104,-2.098345E-05
321.5104,-2.100982E-05
321.6104,-2.100793E-05
321.7104,-2.097215E-05
321.8104,-2.093919E-05
321.9104,-2.096838E-05
322.0104,-2.094484E-05
322.1104,-2.091753E-05
322.2104,-2.092789E-05
322.3105,-2.09373E-05
322.4105,-2.09034E-05
322.5105,-2.087986E-05
322.6105,-2.090811E-05
322.7105,-2.087703E-05
322.8105,-2.084407E-05
322.9105,-2.088457E-05
323.0105,-2.08582E-05
323.1105,-2.083936E-05
323.2105,-2.084784E-05
323.3105,-2.082241E-05
323.4105,-2.080828E-05
323.5105,-2.081959E-05
323.6105,-2.083465E-05
323.7105,-2.077533E-05
323.8105,-2.074142E-05
323.9106,-2.076308E-05
324.0106,-2.075366E-05
324.1106,-2.072824E-05
324.2106,-2.072447E-05
324.3106,-2.07207E-05
324.4106,-2.070187E-05
324.5106,-2.068869E-05
324.6106,-2.066608E-05
324.7106,-2.066137E-05
324.8106,-2.06529E-05
324.9106,-2.061806E-05
325.0106,-2.062088E-05
325.1106,-2.060676E-05
325.2106,-2.061335E-05
325.3106,-2.058321E-05
325.4106,-2.057568E-05
325.5107,-2.059075E-05
325.6107,-2.056155E-05
325.7107,-2.052671E-05
325.8107,-2.058698E-05
325.9107,-2.059357E-05
326.0107,-2.055025E-05
326.1107,-2.054742E-05
326.2107,-2.058321E-05
326.3107,-2.053801E-05
326.4107,-2.050505E-05
326.5107,-2.052294E-05
326.6107,-2.051352E-05
326.7107,-2.044007E-05
326.8107,-2.05107E-05
326.9107,-2.045985E-05
327.0107,-2.043913E-05
327.1107,-2.048433E-05
327.2108,-2.048998E-05
327.3108,-2.043442E-05
327.4108,-2.043065E-05
327.5108,-2.043819E-05
327.6108,-2.040899E-05
327.7108,-2.035343E-05
327.8108,-2.040899E-05
327.9108,-2.036755E-05
328.0108,-2.032989E-05
328.1108,-2.037697E-05
328.2108,-2.03506E-05
328.3108,-2.034025E-05
328.4108,-2.033742E-05
328.5108,-2.032894E-05
328.6108,-2.028374E-05
328.7108,-2.026114E-05
328.8109,-2.031011E-05
328.9109,-2.028468E-05
329.0109,-2.02536E-05
329.1109,-2.029128E-05
329.2109,-2.026491E-05
329.3109,-2.021311E-05
329.4109,-2.026491E-05
329.5109,-2.024419E-05
329.6109,-2.019051E-05
329.7109,-2.020558E-05
329.8109,-2.019616E-05
329.9109,-2.016791E-05
330.0109,-2.016979E-05
330.1109,-2.01745E-05
330.2109,-2.015661E-05
330.3109,-2.014813E-05
330.4109,-2.018674E-05
330.511,-2.013872E-05
330.611,-2.013306E-05
330.711,-2.012176E-05
330.811,-2.011894E-05
330.911,-2.010387E-05
331.011,-2.00841E-05
331.111,-2.010952E-05
331.211,-2.011611E-05
331.311,-2.005396E-05
331.411,-2.008504E-05
331.511,-2.006055E-05
331.611,-2.002947E-05
331.711,-2.002477E-05
331.811,-2.003041E-05
331.911,-2.001723E-05
332.011,-1.998333E-05
332.1111,-2.002194E-05
332.2111,-1.99984E-05
332.3111,-1.997674E-05
332.4111,-1.997203E-05
332.5111,-1.99579E-05
332.6111,-1.992965E-05
332.7111,-1.993153E-05
332.8111,-1.992494E-05
332.9111,-1.990422E-05
333.0111,-1.990517E-05
333.1111,-1.989575E-05
333.2111,-1.987503E-05
333.3111,-1.987315E-05
333.4111,-1.986561E-05
333.5111,-1.984866E-05
333.6111,-1.982324E-05
333.7112,-1.982418E-05
333.8112,-1.983171E-05
333.9112,-1.979781E-05
334.0112,-1.979687E-05
334.1112,-1.979875E-05
334.2112,-1.97931E-05
334.3112,-1.978274E-05
334.4112,-1.977238E-05
334.5112,-1.974507E-05
334.6112,-1.970364E-05
334.7112,-1.971023E-05
334.8112,-1.970646E-05
334.9112,-1.971305E-05
335.0112,-1.970081E-05
335.1112,-1.96848E-05
335.2112,-1.965561E-05
335.3112,-1.964901E-05
335.4113,-1.964619E-05
335.5113,-1.962924E-05
335.6113,-1.961982E-05
335.7113,-1.960475E-05
335.8113,-1.958686E-05
335.9113,-1.960381E-05
336.0113,-1.95539E-05
336.1113,-1.956897E-05
336.2113,-1.95539E-05
336.3113,-1.954636E-05
336.4113,-1.953224E-05
336.5113,-1.952094E-05
336.6113,-1.952282E-05
336.7113,-1.948327E-05
336.8113,-1.94795E-05
336.9113,-1.948892E-05
337.0114,-1.94456E-05
337.1114,-1.944089E-05
337.2114,-1.946726E-05
337.3114,-1.945031E-05
337.4114,-1.941829E-05
337.5114,-1.942394E-05
337.6114,-1.944654E-05
337.7114,-1.942017E-05
337.8114,-1.940228E-05
337.9114,-1.939663E-05
338.0114,-1.938533E-05
338.1114,-1.934484E-05
338.2114,-1.937214E-05
338.3114,-1.935896E-05
338.4114,-1.931093E-05
338.5114,-1.93373E-05
338.6115,-1.934954E-05
338.7115,-1.927609E-05
338.8115,-1.931376E-05
338.9115,-1.933071E-05
339.0115,-1.932506E-05
339.1115,-1.931376E-05
339.2115,-1.933259E-05
339.3115,-1.935708E-05
339.4115,-1.93373E-05
339.5115,-1.929775E-05
339.6115,-1.931941E-05
339.7115,-1.926855E-05
339.8115,-1.924972E-05
339.9115,-1.927326E-05
340.0115,-1.923371E-05
340.1115,-1.918851E-05
340.2115,-1.925537E-05
340.3116,-1.922618E-05
340.4116,-1.919227E-05
340.5116,-1.923465E-05
340.6116,-1.924972E-05
340.7116,-1.922241E-05
340.8116,-1.919604E-05
340.9116,-1.918474E-05
341.0116,-1.916214E-05
341.1116,-1.916591E-05
341.2116,-1.917721E-05
341.3116,-1.913106E-05
341.4116,-1.913671E-05
341.5116,-1.915272E-05
341.6116,-1.911882E-05
341.7116,-1.911034E-05
341.8116,-1.911505E-05
341.9117,-1.911034E-05
342.0117,-1.910187E-05
342.1117,-1.909245E-05
342.2117,-1.908774E-05
342.3117,-1.905949E-05
342.4117,-1.907173E-05
342.5117,-1.907079E-05
342.6117,-1.902465E-05
342.7117,-1.904725E-05
342.8117,-1.90529E-05
342.9117,-1.90077E-05
343.0117,-1.900864E-05
343.1117,-1.902841E-05
343.2117,-1.901335E-05
343.3117,-1.896908E-05
343.4117,-1.90124E-05
343.5117,-1.903595E-05
343.6118,-1.900205E-05
343.7118,-1.899451E-05
343.8118,-1.901523E-05
343.9118,-1.898509E-05
344.0118,-1.898509E-05
344.1118,-1.897944E-05
344.2118,-1.896532E-05
344.3118,-1.895778E-05
344.4118,-1.90124E-05
344.5118,-1.898227E-05
344.6118,-1.893047E-05
344.7118,-1.895778E-05
344.8118,-1.893707E-05
344.9118,-1.89107E-05
345.0118,-1.894083E-05
345.1118,-1.893989E-05
345.2119,-1.889375E-05
345.3119,-1.889751E-05
345.4119,-1.889845E-05
345.5119,-1.887491E-05
345.6119,-1.883536E-05
345.7119,-1.888527E-05
345.8119,-1.885608E-05
345.9119,-1.883442E-05
346.0119,-1.88702E-05
346.1119,-1.88815E-05
346.2119,-1.884478E-05
346.3119,-1.885608E-05
346.4119,-1.885608E-05
346.5119,-1.881935E-05
346.6119,-1.881747E-05
346.7119,-1.882594E-05
346.812,-1.881652E-05
346.912,-1.881747E-05
347.012,-1.879769E-05
347.112,-1.879863E-05
347.212,-1.87798E-05
347.312,-1.877226E-05
347.412,-1.875343E-05
347.512,-1.875814E-05
347.612,-1.875814E-05
347.712,-1.873177E-05
347.812,-1.872141E-05
347.912,-1.872518E-05
348.012,-1.874778E-05
348.112,-1.868751E-05
348.212,-1.868751E-05
348.312,-1.869692E-05
348.412,-1.868374E-05
348.5121,-1.867715E-05
348.6121,-1.867621E-05
348.7121,-1.86649E-05
348.8121,-1.865737E-05
348.9121,-1.867056E-05
349.0121,-1.865549E-05
349.1121,-1.864324E-05
349.2121,-1.86536E-05
349.3121,-1.865737E-05
349.4121,-1.862912E-05
349.5121,-1.862724E-05
349.6121,-1.862629E-05
349.7121,-1.864513E-05
349.8121,-1.857827E-05
349.9121,-1.858768E-05
350.0121,-1.860181E-05
350.1122,-1.858297E-05
350.2122,-1.859522E-05
350.3122,-1.859522E-05
350.4122,-1.854813E-05
350.5122,-1.857827E-05
350.6122,-1.856791E-05
350.7122,-1.85114E-05
350.8122,-1.851799E-05
350.9122,-1.853306E-05
351.0122,-1.848315E-05
351.1122,-1.846243E-05
351.2122,-1.848974E-05
351.3122,-1.848127E-05
351.4122,-1.840687E-05
351.5122,-1.840593E-05
351.6122,-1.840781E-05
351.7122,-1.833059E-05
351.8123,-1.830422E-05
351.9123,-1.832212E-05
352.0123,-1.828256E-05
352.1123,-1.827126E-05
352.2123,-1.826561E-05
352.3123,-1.826843E-05
352.4123,-1.825054E-05
352.5123,-1.823548E-05
352.6123,-1.824207E-05
352.7123,-1.824772E-05
352.8123,-1.825525E-05
352.9123,-1.824113E-05
353.0123,-1.823453E-05
353.1123,-1.823548E-05
353.2123,-1.820722E-05
353.3123,-1.820817E-05
353.4124,-1.821664E-05
353.5124,-1.81931E-05
353.6124,-1.817803E-05
353.7124,-1.821005E-05
353.8124,-1.819121E-05
353.9124,-1.817615E-05
354.0124,-1.818651E-05
354.1124,-1.81752E-05
354.2124,-1.81413E-05
354.3124,-1.812623E-05
354.4124,-1.817897E-05
354.5124,-1.811964E-05
354.6124,-1.811211E-05
354.7124,-1.813377E-05
354.8124,-1.813565E-05
354.9124,-1.810363E-05
355.0125,-1.809798E-05
355.1125,-1.810834E-05
355.2125,-1.807915E-05
355.3125,-1.811023E-05
355.4125,-1.808009E-05
355.5125,-1.806031E-05
355.6125,-1.804995E-05
355.7125,-1.808386E-05
355.8125,-1.802264E-05
355.9125,-1.802641E-05
356.0125,-1.804242E-05
356.1125,-1.803959E-05
356.2125,-1.800569E-05
356.3125,-1.802829E-05
356.4125,-1.802547E-05
356.5125,-1.797556E-05
356.6125,-1.802735E-05
356.7126,-1.802735E-05
356.8126,-1.802829E-05
356.9126,-1.8033E-05
357.0126,-1.802359E-05
357.1126,-1.80104E-05
357.2126,-1.801134E-05
357.3126,-1.801605E-05
357.4126,-1.800287E-05
357.5126,-1.798874E-05
357.6126,-1.797838E-05
357.7126,-1.797462E-05
357.8126,-1.796237E-05
357.9126,-1.794919E-05
358.0126,-1.792471E-05
358.1126,-1.792094E-05
358.2126,-1.792659E-05
358.3127,-1.792282E-05
358.4127,-1.793789E-05
358.5127,-1.791623E-05
358.6127,-1.789551E-05
358.7127,-1.791906E-05
358.8127,-1.789834E-05
358.9127,-1.78908E-05
359.0127,-1.792376E-05
359.1127,-1.790681E-05
359.2127,-1.787856E-05
359.3127,-1.787291E-05
359.4127,-1.786066E-05
359.5127,-1.78682E-05
359.6127,-1.787479E-05
359.7127,-1.78682E-05
359.8127,-1.785125E-05
359.9128,-1.786443E-05
360.0128,-1.782017E-05
360.1128,-1.78117E-05
360.2128,-1.780981E-05
360.3128,-1.782865E-05
360.4128,-1.77938E-05
360.5128,-1.779098E-05
360.6128,-1.780981E-05
360.7128,-1.778721E-05
360.8128,-1.777026E-05
360.9128,-1.778533E-05
361.0128,-1.779286E-05
361.1128,-1.778344E-05
361.2128,-1.774954E-05
361.3128,-1.776743E-05
361.4128,-1.77599E-05
361.5128,-1.773071E-05
361.6129,-1.772977E-05
361.7129,-1.775237E-05
361.8129,-1.773447E-05
361.9129,-1.771658E-05
362.0129,-1.772035E-05
362.1129,-1.771281E-05
362.2129,-1.770152E-05
362.3129,-1.769492E-05
362.4129,-1.770152E-05
362.5129,-1.769869E-05
362.6129,-1.768268E-05
362.7129,-1.767609E-05
362.8129,-1.765254E-05
362.9129,-1.767326E-05
363.0129,-1.766573E-05
363.1129,-1.762712E-05
363.213,-1.763183E-05
363.313,-1.764878E-05
363.413,-1.763277E-05
363.513,-1.759133E-05
363.613,-1.760452E-05
363.713,-1.762147E-05
363.813,-1.760452E-05
363.913,-1.76064E-05
364.013,-1.757626E-05
364.113,-1.75433E-05
364.213,-1.759698E-05
364.313,-1.756685E-05
364.413,-1.754519E-05
364.513,-1.757344E-05
364.613,-1.75725E-05
364.713,-1.754613E-05
364.813,-1.754613E-05
364.9131,-1.75725E-05
365.0131,-1.754519E-05
365.1131,-1.753389E-05
365.2131,-1.758097E-05
365.3131,-1.756119E-05
365.4131,-1.753295E-05
365.5131,-1.756308E-05
365.6131,-1.752541E-05
365.7131,-1.7532E-05
365.8131,-1.753954E-05
365.9131,-1.753012E-05
366.0131,-1.750563E-05
366.1131,-1.750846E-05
366.2131,-1.74981E-05
366.3131,-1.748209E-05
366.4131,-1.748868E-05
366.5132,-1.751129E-05
366.6132,-1.748586E-05
366.7132,-1.745949E-05
366.8132,-1.750846E-05
366.9132,-1.746702E-05
367.0132,-1.744725E-05
367.1132,-1.747927E-05
367.2132,-1.746326E-05
367.3132,-1.743971E-05
367.4132,-1.744254E-05
367.5132,-1.746514E-05
367.6132,-1.740581E-05
367.7132,-1.740675E-05
367.8132,-1.74529E-05
367.9132,-1.742653E-05
368.0132,-1.739169E-05
368.1133,-1.744348E-05
368.2133,-1.743594E-05
368.3133,-1.74124E-05
368.4133,-1.743124E-05
368.5133,-1.743877E-05
368.6133,-1.740769E-05
368.7133,-1.738227E-05
368.8133,-1.743124E-05
368.9133,-1.739639E-05
369.0133,-1.737567E-05
369.1133,-1.742464E-05
369.2133,-1.737285E-05
369.3133,-1.73785E-05
369.4133,-1.741523E-05
369.5133,-1.738509E-05
369.6133,-1.737285E-05
369.7133,-1.736814E-05
369.8134,-1.73785E-05
369.9134,-1.73559E-05
370.0134,-1.735967E-05
370.1134,-1.738792E-05
370.2134,-1.738132E-05
370.3134,-1.736155E-05
370.4134,-1.738603E-05
370.5134,-1.73559E-05
370.6134,-1.735119E-05
370.7134,-1.733612E-05
370.8134,-1.734177E-05
370.9134,-1.733612E-05
371.0134,-1.732294E-05
371.1134,-1.735025E-05
371.2134,-1.733518E-05
371.3134,-1.732953E-05
371.4135,-1.735496E-05
371.5135,-1.734366E-05
371.6135,-1.732011E-05
371.7135,-1.734177E-05
371.8135,-1.7338E-05
371.9135,-1.733235E-05
372.0135,-1.731729E-05
372.1135,-1.732765E-05
372.2135,-1.729939E-05
372.3135,-1.731258E-05
372.4135,-1.732294E-05
372.5135,-1.730316E-05
372.6135,-1.730316E-05
372.7135,-1.730034E-05
372.8135,-1.728244E-05
372.9135,-1.726926E-05
373.0135,-1.730128E-05
373.1136,-1.729186E-05
373.2136,-1.727867E-05
373.3136,-1.727679E-05
373.4136,-1.728056E-05
373.5136,-1.726738E-05
373.6136,-1.726361E-05
373.7136,-1.726455E-05
373.8136,-1.723724E-05
373.9136,-1.724007E-05
374.0136,-1.725607E-05
374.1136,-1.726738E-05
374.2136,-1.725325E-05
374.3136,-1.724383E-05
374.4136,-1.723724E-05
374.5136,-1.723442E-05
374.6136,-1.72071E-05
374.7137,-1.724289E-05
374.8137,-1.720051E-05
374.9137,-1.717979E-05
375.0137,-1.72071E-05
375.1137,-1.722406E-05
375.2137,-1.718544E-05
375.3137,-1.716284E-05
375.4137,-1.720522E-05
375.5137,-1.718544E-05
375.6137,-1.715908E-05
375.7137,-1.718168E-05
375.8137,-1.719204E-05
375.9137,-1.715343E-05
376.0137,-1.715625E-05
376.1137,-1.718262E-05
376.2137,-1.716755E-05
376.3138,-1.716096E-05
376.4138,-1.717885E-05
376.5138,-1.714213E-05
376.6138,-1.712517E-05
376.7138,-1.713742E-05
376.8138,-1.711858E-05
376.9138,-1.711011E-05
377.0138,-1.715343E-05
377.1138,-1.711481E-05
377.2138,-1.708374E-05
377.3138,-1.712706E-05
377.4138,-1.711387E-05
377.5138,-1.711293E-05
377.6138,-1.711952E-05
377.7138,-1.713459E-05
377.8138,-1.71619E-05
377.9138,-1.710446E-05
378.0139,-1.717414E-05
378.1139,-1.718168E-05
378.2139,-1.714495E-05
378.3139,-1.721087E-05
378.4139,-1.721746E-05
378.5139,-1.718544E-05
378.6139,-1.718262E-05
378.7139,-1.721181E-05
378.8139,-1.72024E-05
378.9139,-1.719298E-05
379.0139,-1.722688E-05
379.1139,-1.721558E-05
379.2139,-1.719392E-05
379.3139,-1.724383E-05
379.4139,-1.726173E-05
379.5139,-1.724854E-05
379.614,-1.728056E-05
379.714,-1.728527E-05
379.814,-1.728715E-05
379.914,-1.728433E-05
380.014,-1.729751E-05
380.114,-1.731917E-05
380.214,-1.730599E-05
380.314,-1.733518E-05
380.414,-1.736061E-05
380.514,-1.734931E-05
380.614,-1.734177E-05
380.714,-1.734742E-05
380.814,-1.733235E-05
380.914,-1.7322E-05
381.014,-1.736908E-05
381.114,-1.736249E-05
381.2141,-1.732294E-05
381.3141,-1.736532E-05
381.4141,-1.737002E-05
381.5141,-1.732388E-05
381.6141,-1.735496E-05
381.7141,-1.73898E-05
381.8141,-1.735873E-05
381.9141,-1.733141E-05
382.0141,-1.737002E-05
382.1141,-1.739074E-05
382.2141,-1.736155E-05
382.3141,-1.736626E-05
382.4141,-1.739639E-05
382.5141,-1.738415E-05
382.6141,-1.738321E-05
382.7141,-1.738509E-05
382.8141,-1.734836E-05
382.9142,-1.736437E-05
383.0142,-1.738227E-05
383.1142,-1.734554E-05
383.2142,-1.734271E-05
383.3142,-1.734742E-05
383.4142,-1.73446E-05
383.5142,-1.733047E-05
383.6142,-1.736814E-05
383.7142,-1.736908E-05
383.8142,-1.733706E-05
383.9142,-1.738321E-05
384.0142,-1.737473E-05
384.1142,-1.733047E-05
384.2142,-1.735213E-05
384.3142,-1.736249E-05
384.4142,-1.732482E-05
384.5143,-1.731823E-05
384.6143,-1.731823E-05
384.7143,-1.731541E-05
384.8143,-1.729092E-05
384.9143,-1.729751E-05
385.0143,-1.725513E-05
385.1143,-1.726832E-05
385.2143,-1.728998E-05
385.3143,-1.725701E-05
385.4143,-1.722029E-05
385.5143,-1.726173E-05
385.6143,-1.726173E-05
385.7143,-1.723065E-05
385.8143,-1.724101E-05
385.9143,-1.720899E-05
386.0143,-1.721746E-05
386.1143,-1.719015E-05
386.2144,-1.720334E-05
386.3144,-1.71845E-05
386.4144,-1.719486E-05
386.5144,-1.720993E-05
386.6144,-1.718639E-05
386.7144,-1.72024E-05
386.8144,-1.718544E-05
386.9144,-1.715813E-05
387.0144,-1.714118E-05
387.1144,-1.71619E-05
387.2144,-1.716944E-05
387.3144,-1.714024E-05
387.4144,-1.710634E-05
387.5144,-1.714024E-05
387.6144,-1.711481E-05
387.7144,-1.707621E-05
387.8145,-1.707997E-05
387.9145,-1.708939E-05
388.0145,-1.706208E-05
388.1145,-1.702064E-05
388.2145,-1.705172E-05
388.3145,-1.706867E-05
388.4145,-1.702818E-05
388.5145,-1.703853E-05
388.6145,-1.704984E-05
388.7145,-1.70197E-05
388.8145,-1.702818E-05
388.9145,-1.702347E-05
389.0145,-1.700652E-05
389.1145,-1.700275E-05
389.2145,-1.699616E-05
389.3145,-1.697261E-05
389.4146,-1.693306E-05
389.5146,-1.695001E-05
389.6146,-1.695001E-05
389.7146,-1.690104E-05
389.8146,-1.693683E-05
389.9146,-1.693212E-05
390.0146,-1.687656E-05
390.1146,-1.689633E-05
390.2146,-1.691799E-05
390.3146,-1.68888E-05
390.4146,-1.686055E-05
390.5146,-1.687656E-05
390.6146,-1.68662E-05
390.7146,-1.683606E-05
390.8146,-1.684831E-05
390.9146,-1.685866E-05
391.0146,-1.683512E-05
391.1147,-1.686149E-05
391.2147,-1.685207E-05
391.3147,-1.680499E-05
391.4147,-1.683041E-05
391.5147,-1.681629E-05
391.6147,-1.680969E-05
391.7147,-1.677767E-05
391.8147,-1.678333E-05
391.9147,-1.679463E-05
392.0147,-1.677579E-05
392.1147,-1.677767E-05
392.2147,-1.677673E-05
392.3147,-1.674942E-05
392.4147,-1.674942E-05
392.5147,-1.672682E-05
392.6147,-1.671741E-05
392.7148,-1.6724E-05
392.8148,-1.670139E-05
392.9148,-1.668915E-05
393.0148,-1.670893E-05
393.1148,-1.670893E-05
393.2148,-1.667691E-05
393.3148,-1.668538E-05
393.4148,-1.668068E-05
393.5148,-1.663453E-05
393.6148,-1.665148E-05
393.7148,-1.664301E-05
393.8148,-1.663265E-05
393.9148,-1.660534E-05
394.0148,-1.662229E-05
394.1148,-1.661758E-05
394.2148,-1.657332E-05
394.3148,-1.656673E-05
394.4149,-1.660345E-05
394.5149,-1.660722E-05
394.6149,-1.654978E-05
394.7149,-1.660063E-05
394.8149,-1.658462E-05
394.9149,-1.653471E-05
395.0149,-1.657897E-05
395.1149,-1.656296E-05
395.2149,-1.652435E-05
395.3149,-1.650081E-05
395.4149,-1.652623E-05
395.5149,-1.651022E-05
395.6149,-1.647256E-05
395.7149,-1.652152E-05
395.8149,-1.64735E-05
395.9149,-1.646314E-05
396.015,-1.64961E-05
396.115,-1.648197E-05
396.215,-1.645184E-05
396.315,-1.644148E-05
396.415,-1.647256E-05
396.515,-1.645749E-05
396.615,-1.642076E-05
396.715,-1.646408E-05
396.815,-1.643865E-05
396.915,-1.640758E-05
397.015,-1.644148E-05
397.115,-1.642264E-05
397.215,-1.639533E-05
397.315,-1.639439E-05
397.415,-1.640663E-05
397.515,-1.635766E-05
397.6151,-1.633224E-05
397.7151,-1.637838E-05
397.8151,-1.634354E-05
397.9151,-1.629927E-05
398.0151,-1.634636E-05
398.1151,-1.634919E-05
398.2151,-1.630304E-05
398.3151,-1.632376E-05
398.4151,-1.631434E-05
398.5151,-1.629268E-05
398.6151,-1.626631E-05
398.7151,-1.630304E-05
398.8151,-1.629551E-05
398.9151,-1.626914E-05
399.0151,-1.630022E-05
399.1151,-1.630399E-05
399.2151,-1.625407E-05
399.3152,-1.626255E-05
399.4152,-1.624089E-05
399.5152,-1.621546E-05
399.6152,-1.6223E-05
399.7152,-1.624654E-05
399.8152,-1.618062E-05
399.9152,-1.621923E-05
400.0152,-1.623995E-05
400.1152,-1.618627E-05
400.2152,-1.617779E-05
400.3152,-1.622959E-05
400.4152,-1.618627E-05
400.5152,-1.61712E-05
400.6152,-1.617402E-05
400.7152,-1.618156E-05
400.8152,-1.612411E-05
400.9153,-1.613541E-05
401.0153,-1.61599E-05
401.1153,-1.613353E-05
401.2153,-1.610622E-05
401.3153,-1.61373E-05
401.4153,-1.614766E-05
401.5153,-1.61147E-05
401.6153,-1.613447E-05
401.7153,-1.612317E-05
401.8153,-1.609963E-05
401.9153,-1.612411E-05
402.0153,-1.61147E-05
402.1153,-1.607609E-05
402.2153,-1.606949E-05
402.3153,-1.610339E-05
402.4153,-1.607043E-05
402.5154,-1.606667E-05
402.6154,-1.60855E-05
402.7154,-1.603842E-05
402.8154,-1.603371E-05
402.9154,-1.604218E-05
403.0154,-1.604313E-05
403.1154,-1.601582E-05
403.2154,-1.603936E-05
403.3154,-1.603371E-05
403.4154,-1.600263E-05
403.5154,-1.601016E-05
403.6154,-1.604313E-05
403.7154,-1.599886E-05
403.8154,-1.599133E-05
403.9154,-1.601111E-05
404.0154,-1.601205E-05
404.1154,-1.598945E-05
404.2155,-1.598662E-05
404.3155,-1.600922E-05
404.4155,-1.598568E-05
404.5155,-1.59998E-05
404.6155,-1.597438E-05
404.7155,-1.596025E-05
404.8155,-1.59546E-05
404.9155,-1.597344E-05
405.0155,-1.594989E-05
405.1155,-1.596496E-05
405.2155,-1.595648E-05
405.3155,-1.593106E-05
405.4155,-1.593671E-05
405.5155,-1.592823E-05
405.6155,-1.594707E-05
405.7155,-1.595083E-05
405.8156,-1.5932E-05
405.9156,-1.59546E-05
406.0156,-1.591976E-05
406.1156,-1.589998E-05
406.2156,-1.590281E-05
406.3156,-1.590846E-05
406.4156,-1.589998E-05
406.5156,-1.587832E-05
406.6156,-1.588868E-05
406.7156,-1.589245E-05
406.8156,-1.588303E-05
406.9156,-1.586325E-05
407.0156,-1.586608E-05
407.1156,-1.586985E-05
407.2156,-1.589716E-05
407.3156,-1.586514E-05
407.4156,-1.58463E-05
407.5157,-1.589998E-05
407.6157,-1.585289E-05
407.7157,-1.586325E-05
407.8157,-1.585572E-05
407.9157,-1.58755E-05
408.0157,-1.581993E-05
408.1157,-1.584254E-05
408.2157,-1.584819E-05
408.3157,-1.583877E-05
408.4157,-1.584254E-05
408.5157,-1.58576E-05
408.6157,-1.581805E-05
408.7157,-1.580863E-05
408.8157,-1.583029E-05
408.9157,-1.583123E-05
409.0157,-1.579262E-05
409.1158,-1.583877E-05
409.2158,-1.582653E-05
409.3158,-1.580958E-05
409.4158,-1.579168E-05
409.5158,-1.586137E-05
409.6158,-1.581805E-05
409.7158,-1.579922E-05
409.8158,-1.584254E-05
409.9158,-1.583312E-05
410.0158,-1.579451E-05
410.1158,-1.581617E-05
410.2158,-1.583217E-05
410.3158,-1.580958E-05
410.4158,-1.577096E-05
410.5158,-1.579639E-05
410.6158,-1.579639E-05
410.7159,-1.57606E-05
410.8159,-1.578603E-05
410.9159,-1.576437E-05
411.0159,-1.5738E-05
411.1159,-1.57559E-05
411.2159,-1.574083E-05
411.3159,-1.572388E-05
411.4159,-1.571823E-05
411.5159,-1.573706E-05
411.6159,-1.573235E-05
411.7159,-1.569845E-05
411.8159,-1.572953E-05
411.9159,-1.569939E-05
412.0159,-1.570034E-05
412.1159,-1.571634E-05
412.2159,-1.567962E-05
412.3159,-1.567868E-05
412.416,-1.570128E-05
412.516,-1.568809E-05
412.616,-1.566926E-05
412.716,-1.568715E-05
412.816,-1.567679E-05
412.916,-1.566643E-05
413.016,-1.56297E-05
413.116,-1.566737E-05
413.216,-1.564666E-05
413.316,-1.560145E-05
413.416,-1.566737E-05
413.516,-1.563159E-05
413.616,-1.560051E-05
413.716,-1.563724E-05
413.816,-1.561652E-05
413.916,-1.559486E-05
414.0161,-1.557037E-05
414.1161,-1.559957E-05
414.2161,-1.559109E-05
414.3161,-1.555154E-05
414.4161,-1.5625E-05
414.5161,-1.560334E-05
414.6161,-1.557603E-05
414.7161,-1.559769E-05
414.8161,-1.55958E-05
414.9161,-1.557132E-05
415.0161,-1.554683E-05
415.1161,-1.559298E-05
415.2161,-1.559015E-05
415.3161,-1.553553E-05
415.4161,-1.560051E-05
415.5161,-1.558921E-05
415.6161,-1.553647E-05
415.7162,-1.55732E-05
415.8162,-1.558639E-05
415.9162,-1.55393E-05
416.0162,-1.552423E-05
416.1162,-1.556567E-05
416.2162,-1.553459E-05
416.3162,-1.550916E-05
416.4162,-1.554589E-05
416.5162,-1.552988E-05
416.6162,-1.551387E-05
416.7162,-1.553741E-05
416.8162,-1.554777E-05
416.9162,-1.550634E-05
417.0162,-1.549598E-05
417.1162,-1.551764E-05
417.2162,-1.547903E-05
417.3163,-1.551011E-05
417.4163,-1.547714E-05
417.5163,-1.54762E-05
417.6163,-1.549315E-05
417.7163,-1.547338E-05
417.8163,-1.546679E-05
417.9163,-1.547714E-05
418.0163,-1.547809E-05
418.1163,-1.546679E-05
418.2163,-1.542441E-05
418.3163,-1.546396E-05
418.4163,-1.547244E-05
418.5163,-1.541593E-05
418.6163,-1.544983E-05
418.7163,-1.546019E-05
418.8163,-1.542347E-05
418.9164,-1.540369E-05
419.0164,-1.542912E-05
419.1164,-1.543477E-05
419.2164,-1.539239E-05
419.3164,-1.540181E-05
419.4164,-1.538768E-05
419.5164,-1.538862E-05
419.6164,-1.540463E-05
419.7164,-1.53679E-05
419.8164,-1.534907E-05
419.9164,-1.537826E-05
420.0164,-1.538297E-05
420.1164,-1.53632E-05
420.2164,-1.537355E-05
420.3164,-1.537355E-05
420.4164,-1.536225E-05
420.5164,-1.536131E-05
420.6165,-1.534059E-05
420.7165,-1.536508E-05
420.8165,-1.533683E-05
420.9165,-1.537449E-05
421.0165,-1.538297E-05
421.1165,-1.536602E-05
421.2165,-1.538391E-05
421.3165,-1.537449E-05
421.4165,-1.536414E-05
421.5165,-1.534624E-05
421.6165,-1.534813E-05
421.7165,-1.536225E-05
421.8165,-1.532364E-05
421.9165,-1.537355E-05
422.0165,-1.537544E-05
422.1165,-1.534624E-05
422.2166,-1.53971E-05
422.3166,-1.538674E-05
422.4166,-1.534624E-05
422.5166,-1.535849E-05
422.6166,-1.535943E-05
422.7166,-1.530763E-05
422.8166,-1.531799E-05
422.9166,-1.534718E-05
423.0166,-1.532458E-05
423.1166,-1.532082E-05
423.2166,-1.535095E-05
423.3166,-1.53679E-05
423.4166,-1.533494E-05
423.5166,-1.534436E-05
423.6166,-1.535095E-05
423.7166,-1.532647E-05
423.8167,-1.53453E-05
423.9167,-1.53566E-05
424.0167,-1.532929E-05
424.1167,-1.529539E-05
424.2167,-1.532647E-05
424.3167,-1.533683E-05
424.4167,-1.529822E-05
424.5167,-1.533494E-05
424.6167,-1.530293E-05
424.7167,-1.530104E-05
424.8167,-1.532176E-05
424.9167,-1.530857E-05
425.0167,-1.528503E-05
425.1167,-1.530575E-05
425.2167,-1.530763E-05
425.3167,-1.527279E-05
425.4167,-1.526149E-05
425.5168,-1.530481E-05
425.6168,-1.528221E-05
425.7168,-1.524359E-05
425.8168,-1.530481E-05
425.9168,-1.532835E-05
426.0168,-1.529162E-05
426.1168,-1.532647E-05
426.2168,-1.534813E-05
426.3168,-1.530952E-05
426.4168,-1.529633E-05
426.5168,-1.532364E-05
426.6168,-1.530763E-05
426.7168,-1.531046E-05
426.8168,-1.537261E-05
426.9168,-1.532364E-05
427.0168,-1.532082E-05
427.1169,-1.533589E-05
427.2169,-1.532458E-05
427.3169,-1.529822E-05
427.4169,-1.530293E-05
427.5169,-1.531234E-05
427.6169,-1.531234E-05
427.7169,-1.531234E-05
427.8169,-1.530198E-05
427.9169,-1.527185E-05
428.0169,-1.527467E-05
428.1169,-1.531422E-05
428.2169,-1.527561E-05
428.3169,-1.526808E-05
428.4169,-1.528409E-05
428.5169,-1.529068E-05
428.6169,-1.52888E-05
428.7169,-1.531422E-05
428.817,-1.529727E-05
428.917,-1.531328E-05
429.017,-1.531046E-05
429.117,-1.530952E-05
429.217,-1.530857E-05
429.317,-1.531893E-05
429.417,-1.527844E-05
429.517,-1.531234E-05
429.617,-1.526337E-05
429.717,-1.526808E-05
429.817,-1.526431E-05
429.917,-1.52596E-05
430.017,-1.52596E-05
430.117,-1.524925E-05
430.217,-1.527561E-05
430.317,-1.528126E-05
430.4171,-1.526902E-05
430.5171,-1.526808E-05
430.6171,-1.528409E-05
430.7171,-1.525772E-05
430.8171,-1.524454E-05
430.9171,-1.528126E-05
431.0171,-1.525395E-05
431.1171,-1.527467E-05
431.2171,-1.52888E-05
431.3171,-1.525678E-05
431.4171,-1.52596E-05
431.5171,-1.527185E-05
431.6171,-1.525395E-05
431.7171,-1.523229E-05
431.8171,-1.523794E-05
431.9171,-1.523983E-05
432.0172,-1.522476E-05
432.1172,-1.525395E-05
432.2172,-1.524642E-05
432.3172,-1.522476E-05
432.4172,-1.52257E-05
432.5172,-1.522476E-05
432.6172,-1.522476E-05
432.7172,-1.523041E-05
432.8172,-1.523983E-05
432.9172,-1.521723E-05
433.0172,-1.522288E-05
433.1172,-1.522005E-05
433.2172,-1.522288E-05
433.3172,-1.522193E-05
433.4172,-1.523135E-05
433.5172,-1.522288E-05
433.6172,-1.522382E-05
433.7173,-1.520216E-05
433.8173,-1.521158E-05
433.9173,-1.523889E-05
434.0173,-1.521534E-05
434.1173,-1.518521E-05
434.2173,-1.519086E-05
434.3173,-1.520027E-05
434.4173,-1.520875E-05
434.5173,-1.520969E-05
434.6173,-1.520969E-05
434.7173,-1.520498E-05
434.8173,-1.517862E-05
434.9173,-1.519086E-05
435.0173,-1.519086E-05
435.1173,-1.516072E-05
435.2173,-1.518238E-05
435.3174,-1.519368E-05
435.4174,-1.52031E-05
435.5174,-1.51805E-05
435.6174,-1.519557E-05
435.7174,-1.51918E-05
435.8174,-1.51692E-05
435.9174,-1.515601E-05
436.0174,-1.515884E-05
436.1174,-1.516072E-05
436.2174,-1.514848E-05
436.3174,-1.512965E-05
436.4174,-1.51287E-05
436.5174,-1.512682E-05
436.6174,-1.512117E-05
436.7174,-1.513435E-05
436.8174,-1.512776E-05
436.9174,-1.514471E-05
437.0175,-1.51579E-05
437.1175,-1.514848E-05
437.2175,-1.516543E-05
437.3175,-1.514848E-05
437.4175,-1.510139E-05
437.5175,-1.512211E-05
437.6175,-1.512211E-05
437.7175,-1.512588E-05
437.8175,-1.511834E-05
437.9175,-1.512494E-05
438.0175,-1.514471E-05
438.1175,-1.511646E-05
438.2175,-1.511269E-05
438.3175,-1.512117E-05
438.4175,-1.508444E-05
438.5175,-1.509857E-05
438.6176,-1.511364E-05
438.7176,-1.509292E-05
438.8176,-1.51061E-05
438.9176,-1.509198E-05
439.0176,-1.51174E-05
439.1176,-1.510893E-05
439.2176,-1.508444E-05
439.3176,-1.511458E-05
439.4176,-1.509386E-05
439.5176,-1.506843E-05
439.6176,-1.508068E-05
439.7176,-1.507973E-05
439.8176,-1.506184E-05
439.9176,-1.504771E-05
440.0176,-1.507691E-05
440.1176,-1.50722E-05
440.2177,-1.503359E-05
440.3177,-1.506278E-05
440.4177,-1.505525E-05
440.5177,-1.503076E-05
440.6177,-1.504489E-05
440.7177,-1.505996E-05
440.8177,-1.505148E-05
440.9177,-1.505807E-05
441.0177,-1.506843E-05
441.1177,-1.505148E-05
441.2177,-1.505525E-05
441.3177,-1.508821E-05
441.4177,-1.508256E-05
441.5177,-1.504018E-05
441.6177,-1.505525E-05
441.7177,-1.504395E-05
441.8177,-1.501852E-05
441.9178,-1.50204E-05
442.0178,-1.503924E-05
442.1178,-1.505431E-05
442.2178,-1.500251E-05
442.3178,-1.501381E-05
442.4178,-1.503547E-05
442.5178,-1.498462E-05
442.6178,-1.499215E-05
442.7178,-1.502417E-05
442.8178,-1.500157E-05
442.9178,-1.496108E-05
443.0178,-1.498179E-05
443.1178,-1.498933E-05
443.2178,-1.497049E-05
443.3178,-1.497708E-05
443.4178,-1.499592E-05
443.5179,-1.494224E-05
443.6179,-1.494695E-05
443.7179,-1.496767E-05
443.8179,-1.49639E-05
443.9179,-1.496861E-05
444.0179,-1.492906E-05
444.1179,-1.494036E-05
444.2179,-1.496013E-05
444.3179,-1.493094E-05
444.4179,-1.491211E-05
444.5179,-1.491493E-05
444.6179,-1.492152E-05
444.7179,-1.490834E-05
444.8179,-1.490175E-05
444.9179,-1.49413E-05
445.0179,-1.492435E-05
445.118,-1.491022E-05
445.218,-1.493471E-05
445.318,-1.489515E-05
445.418,-1.48848E-05
445.518,-1.490175E-05
445.618,-1.491493E-05
445.718,-1.488009E-05
445.818,-1.488385E-05
445.918,-1.49074E-05
446.018,-1.48782E-05
446.118,-1.487255E-05
446.218,-1.487914E-05
446.318,-1.48443E-05
446.418,-1.482923E-05
446.518,-1.485937E-05
446.618,-1.486879E-05
446.718,-1.481982E-05
446.8181,-1.482829E-05
446.9181,-1.485278E-05
447.0181,-1.48443E-05
447.1181,-1.481793E-05
447.2181,-1.484995E-05
447.3181,-1.485843E-05
447.4181,-1.483112E-05
447.5181,-1.485937E-05
447.6181,-1.485748E-05
447.7181,-1.482547E-05
447.8181,-1.481887E-05
447.9181,-1.484242E-05
448.0181,-1.482735E-05
448.1181,-1.480098E-05
448.2181,-1.482641E-05
448.3181,-1.483394E-05
448.4182,-1.480475E-05
448.5182,-1.4833E-05
448.6182,-1.484713E-05
448.7182,-1.477932E-05
448.8182,-1.479251E-05
448.9182,-1.482076E-05
449.0182,-1.477555E-05
449.1182,-1.477085E-05
449.2182,-1.480192E-05
449.3182,-1.478215E-05
449.4182,-1.476049E-05
449.5182,-1.475672E-05
449.6182,-1.478968E-05
449.7182,-1.476143E-05
449.8182,-1.475201E-05
449.9182,-1.474165E-05
450.0182,-1.474165E-05
450.1183,-1.474636E-05
450.2183,-1.475013E-05
450.3183,-1.470681E-05
450.4183,-1.471623E-05
450.5183,-1.473224E-05
450.6183,-1.470775E-05
450.7183,-1.467761E-05
450.8183,-1.470492E-05
450.9183,-1.472847E-05
451.0183,-1.467385E-05
451.1183,-1.467573E-05
451.2183,-1.468797E-05
451.3183,-1.469174E-05
451.4183,-1.46682E-05
451.5183,-1.468609E-05
451.6183,-1.467102E-05
451.7184,-1.467196E-05
451.8184,-1.466726E-05
451.9184,-1.46456E-05
452.0184,-1.464183E-05
452.1184,-1.46456E-05
452.2184,-1.464089E-05
452.3184,-1.464183E-05
452.4184,-1.46569E-05
452.5184,-1.462582E-05
452.6184,-1.463618E-05
452.7184,-1.465125E-05
452.8184,-1.462205E-05
452.9184,-1.462017E-05
453.0184,-1.46164E-05
453.1184,-1.461828E-05
453.2184,-1.459192E-05
453.3185,-1.461075E-05
453.4185,-1.460887E-05
453.5185,-1.459003E-05
453.6185,-1.459474E-05
453.7185,-1.46051E-05
453.8185,-1.458815E-05
453.9185,-1.456272E-05
454.0185,-1.458438E-05
454.1185,-1.459851E-05
454.2185,-1.45712E-05
454.3185,-1.45712E-05
454.4185,-1.457967E-05
454.5185,-1.45825E-05
454.6185,-1.454483E-05
454.7185,-1.457967E-05
454.8185,-1.457497E-05
454.9185,-1.453918E-05
455.0186,-1.456555E-05
455.1186,-1.458156E-05
455.2186,-1.456272E-05
455.3186,-1.453824E-05
455.4186,-1.457402E-05
455.5186,-1.456932E-05
455.6186,-1.451375E-05
455.7186,-1.457026E-05
455.8186,-1.455425E-05
455.9186,-1.45081E-05
456.0186,-1.455425E-05
456.1186,-1.456272E-05
456.2186,-1.451564E-05
456.3186,-1.45147E-05
456.4186,-1.452411E-05
456.5186,-1.451375E-05
456.6187,-1.449209E-05
456.7187,-1.450434E-05
456.8187,-1.451375E-05
456.9187,-1.447608E-05
457.0187,-1.450151E-05
457.1187,-1.45147E-05
457.2187,-1.44855E-05
457.3187,-1.44742E-05
457.4187,-1.448173E-05
457.5187,-1.446196E-05
457.6187,-1.449209E-05
457.7187,-1.445819E-05
457.8187,-1.446102E-05
457.9187,-1.445913E-05
458.0187,-1.446667E-05
458.1187,-1.44403E-05
458.2188,-1.444218E-05
458.3188,-1.448362E-05
458.4188,-1.444501E-05
458.5188,-1.441016E-05
458.6188,-1.444877E-05
458.7188,-1.445537E-05
458.8188,-1.442241E-05
458.9188,-1.443747E-05
459.0188,-1.444501E-05
459.1188,-1.442146E-05
459.2188,-1.440169E-05
459.3188,-1.443276E-05
459.4188,-1.4429E-05
459.5188,-1.440263E-05
459.6188,-1.442711E-05
459.7188,-1.444218E-05
459.8188,-1.441676E-05
459.9189,-1.446102E-05
460.0189,-1.446573E-05
460.1189,-1.444218E-05
460.2189,-1.449209E-05
460.3189,-1.448268E-05
460.4189,-1.443559E-05
460.5189,-1.442241E-05
460.6189,-1.444124E-05
460.7189,-1.440734E-05
460.8189,-1.43885E-05
460.9189,-1.444501E-05
461.0189,-1.442429E-05
461.1189,-1.438379E-05
461.2189,-1.441299E-05
461.3189,-1.441958E-05
461.4189,-1.436873E-05
461.519,-1.436119E-05
461.619,-1.437908E-05
461.719,-1.437155E-05
461.819,-1.433953E-05
461.919,-1.43885E-05
462.019,-1.435083E-05
462.119,-1.433577E-05
462.219,-1.436496E-05
462.319,-1.435931E-05
462.419,-1.431599E-05
462.519,-1.433765E-05
462.619,-1.434613E-05
462.719,-1.431222E-05
462.819,-1.430186E-05
462.919,-1.432258E-05
463.019,-1.431316E-05
463.119,-1.428962E-05
463.2191,-1.431128E-05
463.3191,-1.431505E-05
463.4191,-1.428209E-05
463.5191,-1.432447E-05
463.6191,-1.430751E-05
463.7191,-1.430846E-05
463.8191,-1.42868E-05
463.9191,-1.429621E-05
464.0191,-1.43094E-05
464.1191,-1.425854E-05
464.2191,-1.428397E-05
464.3191,-1.42868E-05
464.4191,-1.428303E-05
464.5191,-1.428209E-05
464.6191,-1.428397E-05
464.7191,-1.427079E-05
464.8192,-1.426514E-05
464.9192,-1.427549E-05
465.0192,-1.427926E-05
465.1192,-1.426231E-05
465.2192,-1.426325E-05
465.3192,-1.425478E-05
465.4192,-1.425289E-05
465.5192,-1.423406E-05
465.6192,-1.423971E-05
465.7192,-1.422841E-05
465.8192,-1.421899E-05
465.9192,-1.421428E-05
466.0192,-1.421711E-05
466.1192,-1.420675E-05
466.2192,-1.421146E-05
466.3192,-1.421711E-05
466.4193,-1.420769E-05
466.5193,-1.422935E-05
466.6193,-1.419922E-05
466.7193,-1.420016E-05
466.8193,-1.42011E-05
466.9193,-1.420204E-05
467.0193,-1.417379E-05
467.1193,-1.418226E-05
467.2193,-1.419639E-05
467.3193,-1.418886E-05
467.4193,-1.416343E-05
467.5193,-1.417661E-05
467.6193,-1.417473E-05
467.7193,-1.416343E-05
467.8193,-1.420392E-05
467.9193,-1.416625E-05
468.0193,-1.416625E-05
468.1194,-1.417002E-05
468.2194,-1.417473E-05
468.3194,-1.417002E-05
468.4194,-1.414648E-05
468.5194,-1.415589E-05
468.6194,-1.417285E-05
468.7194,-1.415213E-05
468.8194,-1.41719E-05
468.9194,-1.419074E-05
469.0194,-1.416343E-05
469.1194,-1.415966E-05
469.2194,-1.415025E-05
469.3194,-1.413894E-05
469.4194,-1.412199E-05
469.5194,-1.414083E-05
469.6194,-1.41493E-05
469.7195,-1.413612E-05
469.8195,-1.414742E-05
469.9195,-1.415684E-05
470.0195,-1.415495E-05
470.1195,-1.413047E-05
470.2195,-1.416343E-05
470.3195,-1.4138E-05
470.4195,-1.411634E-05
470.5195,-1.413235E-05
470.6195,-1.414365E-05
470.7195,-1.412764E-05
470.8195,-1.412576E-05
470.9195,-1.415307E-05
471.0195,-1.412576E-05
471.1195,-1.410881E-05
471.2195,-1.410504E-05
471.3195,-1.410128E-05
471.4196,-1.409751E-05
471.5196,-1.408809E-05
471.6196,-1.410316E-05
471.7196,-1.408903E-05
471.8196,-1.408997E-05
471.9196,-1.409468E-05
472.0196,-1.408244E-05
472.1196,-1.40702E-05
472.2196,-1.405984E-05
472.3196,-1.406266E-05
472.4196,-1.406926E-05
472.5196,-1.405136E-05
472.6196,-1.405796E-05
472.7196,-1.406643E-05
472.8196,-1.407491E-05
472.9196,-1.40476E-05
473.0197,-1.404195E-05
473.1197,-1.40589E-05
473.2197,-1.404477E-05
473.3197,-1.403535E-05
473.4197,-1.406361E-05
473.5197,-1.405042E-05
473.6197,-1.402782E-05
473.7197,-1.403912E-05
473.8197,-1.402029E-05
473.9197,-1.404383E-05
474.0197,-1.402688E-05
474.1197,-1.406643E-05
474.2197,-1.404665E-05
474.3197,-1.404195E-05
474.4197,-1.405607E-05
474.5197,-1.40476E-05
474.6198,-1.401463E-05
474.7198,-1.401746E-05
474.8198,-1.402029E-05
474.9198,-1.402782E-05
475.0198,-1.401181E-05
475.1198,-1.402405E-05
475.2198,-1.403064E-05
475.3198,-1.401934E-05
475.4198,-1.403535E-05
475.5198,-1.404854E-05
475.6198,-1.402688E-05
475.7198,-1.399392E-05
475.8198,-1.402876E-05
475.9198,-1.400239E-05
476.0198,-1.398921E-05
476.1198,-1.399674E-05
476.2198,-1.402311E-05
476.3199,-1.399863E-05
476.4199,-1.403724E-05
476.5199,-1.403818E-05
476.6199,-1.399674E-05
476.7199,-1.400993E-05
476.8199,-1.400428E-05
476.9199,-1.399768E-05
477.0199,-1.400804E-05
477.1199,-1.399109E-05
477.2199,-1.397603E-05
477.3199,-1.398827E-05
477.4199,-1.400145E-05
477.5199,-1.398073E-05
477.6199,-1.395625E-05
477.7199,-1.399392E-05
477.8199,-1.398827E-05
477.92,-1.396661E-05
478.02,-1.397979E-05
478.12,-1.39845E-05
478.22,-1.398356E-05
478.32,-1.395248E-05
478.42,-1.400051E-05
478.52,-1.400239E-05
478.62,-1.397038E-05
478.72,-1.399109E-05
478.82,-1.401746E-05
478.92,-1.398167E-05
479.02,-1.397414E-05
479.12,-1.401087E-05
479.22,-1.398073E-05
479.32,-1.394966E-05
479.42,-1.397414E-05
479.5201,-1.395342E-05
479.6201,-1.394966E-05
479.7201,-1.399109E-05
479.8201,-1.395813E-05
479.9201,-1.394683E-05
480.0201,-1.395531E-05
480.1201,-1.396755E-05
480.2201,-1.394118E-05
480.3201,-1.396661E-05
480.4201,-1.398356E-05
480.5201,-1.395437E-05
480.6201,-1.395719E-05
480.7201,-1.396472E-05
480.8201,-1.396661E-05
480.9201,-1.394683E-05
481.0201,-1.394495E-05
481.1201,-1.39619E-05
481.2202,-1.393741E-05
481.3202,-1.394777E-05
481.4202,-1.396096E-05
481.5202,-1.39506E-05
481.6202,-1.391575E-05
481.7202,-1.393647E-05
481.8202,-1.394871E-05
481.9202,-1.392235E-05
482.0202,-1.391764E-05
482.1202,-1.394212E-05
482.2202,-1.391481E-05
482.3202,-1.392611E-05
482.4202,-1.393176E-05
482.5202,-1.393082E-05
482.6202,-1.392423E-05
482.7202,-1.394212E-05
482.8203,-1.392894E-05
482.9203,-1.391293E-05
483.0203,-1.390069E-05
483.1203,-1.390634E-05
483.2203,-1.39214E-05
483.3203,-1.390728E-05
483.4203,-1.391858E-05
483.5203,-1.393647E-05
483.6203,-1.389974E-05
483.7203,-1.389974E-05
483.8203,-1.392423E-05
483.9203,-1.391764E-05
484.0203,-1.389504E-05
484.1203,-1.38988E-05
484.2203,-1.391199E-05
484.3203,-1.389221E-05
484.4203,-1.388373E-05
484.5204,-1.387808E-05
484.6204,-1.389974E-05
484.7204,-1.389315E-05
484.8204,-1.38875E-05
484.9204,-1.389315E-05
485.0204,-1.390069E-05
485.1204,-1.38988E-05
485.2204,-1.386867E-05
485.3204,-1.38762E-05
485.4204,-1.388373E-05
485.5204,-1.387432E-05
485.6204,-1.388185E-05
485.7204,-1.386584E-05
485.8204,-1.384418E-05
485.9204,-1.385266E-05
486.0204,-1.385454E-05
486.1205,-1.384418E-05
486.2205,-1.383853E-05
486.3205,-1.383759E-05
486.4205,-1.382817E-05
486.5205,-1.382911E-05
486.6205,-1.38423E-05
486.7205,-1.384324E-05
486.8205,-1.383006E-05
486.9205,-1.383759E-05
487.0205,-1.382158E-05
487.1205,-1.383665E-05
487.2205,-1.382346E-05
487.3205,-1.383194E-05
487.4205,-1.381311E-05
487.5205,-1.379992E-05
487.6205,-1.38084E-05
487.7206,-1.382441E-05
487.8206,-1.379333E-05
487.9206,-1.378674E-05
488.0206,-1.380275E-05
488.1206,-1.378674E-05
488.2206,-1.378297E-05
488.3206,-1.376319E-05
488.4206,-1.377167E-05
488.5206,-1.378768E-05
488.6206,-1.37971E-05
488.7206,-1.37679E-05
488.8206,-1.376319E-05
488.9206,-1.378203E-05
489.0206,-1.377826E-05
489.1206,-1.374624E-05
489.2206,-1.37971E-05
489.3206,-1.376602E-05
489.4207,-1.374907E-05
489.5207,-1.376602E-05
489.6207,-1.376319E-05
489.7207,-1.375378E-05
489.8207,-1.374718E-05
489.9207,-1.378203E-05
490.0207,-1.376602E-05
490.1207,-1.376319E-05
490.2207,-1.38084E-05
490.3207,-1.376602E-05
490.4207,-1.375189E-05
490.5207,-1.380557E-05
490.6207,-1.378485E-05
490.7207,-1.376508E-05
490.8207,-1.376319E-05
490.9207,-1.378674E-05
491.0208,-1.373683E-05
491.1208,-1.374907E-05
491.2208,-1.376319E-05
491.3208,-1.375284E-05
491.4208,-1.372552E-05
491.5208,-1.37679E-05
491.6208,-1.37679E-05
491.7208,-1.374059E-05
491.8208,-1.374153E-05
491.9208,-1.37566E-05
492.0208,-1.375943E-05
492.1208,-1.373965E-05
492.2208,-1.37679E-05
492.3208,-1.378485E-05
492.4208,-1.375284E-05
492.5208,-1.380369E-05
492.6208,-1.378109E-05
492.7209,-1.378297E-05
492.8209,-1.376602E-05
492.9209,-1.377826E-05
493.0209,-1.378014E-05
493.1209,-1.373023E-05
493.2209,-1.380275E-05
493.3209,-1.378203E-05
493.4209,-1.375754E-05
493.5209,-1.380934E-05
493.6209,-1.378956E-05
493.7209,-1.375472E-05
493.8209,-1.374813E-05
493.9209,-1.378014E-05
494.0209,-1.373023E-05
494.1209,-1.373306E-05
494.2209,-1.374718E-05
494.321,-1.3734E-05
494.421,-1.371328E-05
494.521,-1.376225E-05
494.621,-1.375472E-05
494.721,-1.3734E-05
494.821,-1.375284E-05
494.921,-1.373212E-05
495.021,-1.373871E-05
495.121,-1.37453E-05
495.221,-1.376696E-05
495.321,-1.375566E-05
495.421,-1.376884E-05
495.521,-1.37905E-05
495.621,-1.377167E-05
495.721,-1.37679E-05
495.821,-1.377167E-05
495.9211,-1.375189E-05
496.0211,-1.374907E-05
496.1211,-1.377732E-05
496.2211,-1.377826E-05
496.3211,-1.378297E-05
496.4211,-1.375566E-05
496.5211,-1.379144E-05
496.6211,-1.374153E-05
496.7211,-1.372552E-05
496.8211,-1.378014E-05
496.9211,-1.374342E-05
497.0211,-1.372552E-05
497.1211,-1.374907E-05
497.2211,-1.376414E-05
497.3211,-1.370386E-05
497.4211,-1.373212E-05
497.5211,-1.376225E-05
497.6212,-1.374718E-05
497.7212,-1.372835E-05
497.8212,-1.376414E-05
497.9212,-1.375095E-05
498.0212,-1.371234E-05
498.1212,-1.374436E-05
498.2212,-1.374248E-05
498.3212,-1.371046E-05
498.4212,-1.373588E-05
498.5212,-1.374436E-05
498.6212,-1.371046E-05
498.7212,-1.373494E-05
498.8212,-1.374907E-05
498.9212,-1.372741E-05
499.0212,-1.372552E-05
499.1212,-1.375566E-05
499.2213,-1.372176E-05
499.3213,-1.37227E-05
499.4213,-1.374718E-05
499.5213,-1.37566E-05
499.6213,-1.370857E-05
499.7213,-1.373212E-05
499.8213,-1.375566E-05
499.9213,-1.37001E-05
500.0213,-1.372082E-05
500.1213,-1.374624E-05
500.2213,-1.374624E-05
500.3213,-1.372364E-05
500.4213,-1.373023E-05
500.5213,-1.377638E-05
500.6213,-1.374624E-05
500.7213,-1.372647E-05
500.8214,-1.377638E-05
500.9214,-1.375189E-05
501.0214,-1.373683E-05
501.1214,-1.378109E-05
501.2214,-1.375848E-05
501.3214,-1.374813E-05
501.4214,-1.376508E-05
501.5214,-1.378768E-05
501.6214,-1.376037E-05
501.7214,-1.375378E-05
501.8214,-1.378674E-05
501.9214,-1.376884E-05
502.0214,-1.376602E-05
502.1214,-1.37679E-05
502.2214,-1.37679E-05
502.3214,-1.375754E-05
502.4214,-1.375095E-05
502.5215,-1.376414E-05
502.6215,-1.376037E-05
502.7215,-1.377732E-05
502.8215,-1.375848E-05
502.9215,-1.375566E-05
503.0215,-1.37453E-05
503.1215,-1.377167E-05
503.2215,-1.377355E-05
503.3215,-1.374624E-05
503.4215,-1.379427E-05
503.5215,-1.378109E-05
503.6215,-1.377638E-05
503.7215,-1.377449E-05
503.8215,-1.37905E-05
503.9215,-1.378391E-05
504.0215,-1.378109E-05
504.1216,-1.381122E-05
504.2216,-1.378956E-05
504.3216,-1.379427E-05
504.4216,-1.380934E-05
504.5216,-1.378579E-05
504.6216,-1.379239E-05
504.7216,-1.382064E-05
504.8216,-1.380745E-05
504.9216,-1.381781E-05
505.0216,-1.378862E-05
505.1216,-1.379898E-05
505.2216,-1.377167E-05
505.3216,-1.377261E-05
505.4216,-1.380934E-05
505.5216,-1.37679E-05
505.6216,-1.376414E-05
505.7216,-1.378203E-05
505.8217,-1.378579E-05
505.9217,-1.376508E-05
506.0217,-1.377732E-05
506.1217,-1.378862E-05
506.2217,-1.376225E-05
506.3217,-1.377449E-05
506.4217,-1.378297E-05
506.5217,-1.377544E-05
506.6217,-1.374813E-05
506.7217,-1.376037E-05
506.8217,-1.377261E-05
506.9217,-1.373965E-05
507.0217,-1.372929E-05
507.1217,-1.377073E-05
507.2217,-1.373965E-05
507.3217,-1.373683E-05
507.4218,-1.377638E-05
507.5218,-1.376508E-05
507.6218,-1.373777E-05
507.7218,-1.374907E-05
507.8218,-1.373777E-05
507.9218,-1.374059E-05
508.0218,-1.373777E-05
508.1218,-1.372929E-05
508.2218,-1.374718E-05
508.3218,-1.371799E-05
508.4218,-1.372176E-05
508.5218,-1.37566E-05
508.6218,-1.371987E-05
508.7218,-1.372835E-05
508.8218,-1.373588E-05
508.9218,-1.375472E-05
509.0219,-1.373777E-05
509.1219,-1.374907E-05
509.2219,-1.377449E-05
509.3219,-1.377449E-05
509.4219,-1.376414E-05
509.5219,-1.380463E-05
509.6219,-1.375754E-05
509.7219,-1.376696E-05
509.8219,-1.378579E-05
509.9219,-1.376978E-05
510.0219,-1.379144E-05
510.1219,-1.379992E-05
510.2219,-1.376884E-05
510.3219,-1.382158E-05
510.4219,-1.381311E-05
510.5219,-1.380275E-05
510.6219,-1.378203E-05
510.722,-1.376319E-05
510.822,-1.377167E-05
510.922,-1.375095E-05
511.022,-1.377732E-05
511.122,-1.378579E-05
511.222,-1.373494E-05
511.322,-1.376131E-05
511.422,-1.377732E-05
511.522,-1.374153E-05
511.622,-1.373306E-05
511.722,-1.37566E-05
511.822,-1.372647E-05
511.922,-1.373117E-05
512.022,-1.375943E-05
512.122,-1.370198E-05
512.222,-1.373023E-05
512.322,-1.375754E-05
512.4219,-1.373212E-05
512.5219,-1.37227E-05
512.6219,-1.375943E-05
512.7219,-1.373212E-05
512.8218,-1.372741E-05
512.9218,-1.369633E-05
513.0218,-1.373683E-05
513.1218,-1.373023E-05
513.2217,-1.370951E-05
513.3217,-1.375848E-05
513.4217,-1.373306E-05
513.5217,-1.372929E-05
513.6216,-1.374248E-05
513.7216,-1.372647E-05
513.8216,-1.372082E-05
513.9216,-1.373212E-05
514.0215,-1.371987E-05
514.1215,-1.371234E-05
514.2215,-1.37114E-05
514.3215,-1.371799E-05
514.4214,-1.373212E-05
514.5214,-1.370386E-05
514.6214,-1.37114E-05
514.7214,-1.369162E-05
514.8214,-1.364454E-05
514.9213,-1.361817E-05
515.0213,-1.362193E-05
515.1213,-1.358615E-05
515.2213,-1.355413E-05
515.3212,-1.359933E-05
515.4212,-1.359557E-05
515.5212,-1.356355E-05
515.6212,-1.359462E-05
515.7211,-1.360027E-05
515.8211,-1.35626E-05
515.9211,-1.359933E-05
516.0211,-1.361346E-05
516.121,-1.35805E-05
516.221,-1.355507E-05
516.321,-1.357767E-05
516.421,-1.358144E-05
516.5209,-1.353529E-05
516.6209,-1.35805E-05
516.7209,-1.358803E-05
516.8209,-1.355601E-05
516.9208,-1.359086E-05
517.0208,-1.35918E-05
517.1208,-1.357108E-05
517.2208,-1.358332E-05
517.3207,-1.360593E-05
517.4207,-1.360498E-05
517.5207,-1.359368E-05
517.6207,-1.359086E-05
517.7206,-1.361063E-05
517.8206,-1.357956E-05
517.9206,-1.358803E-05
518.0206,-1.359839E-05
518.1205,-1.357485E-05
518.2205,-1.360593E-05
518.3205,-1.359745E-05
518.4205,-1.358332E-05
518.5204,-1.360593E-05
518.6204,-1.360498E-05
518.7204,-1.359933E-05
518.8204,-1.358238E-05
518.9203,-1.360593E-05
519.0203,-1.361252E-05
519.1203,-1.357579E-05
519.2203,-1.36031E-05
519.3203,-1.360498E-05
519.4202,-1.358897E-05
519.5202,-1.357485E-05
519.6202,-1.360687E-05
519.7202,-1.358426E-05
519.8201,-1.359651E-05
519.9201,-1.359745E-05
520.0201,-1.358521E-05
520.1201,-1.355601E-05
520.22,-1.360027E-05
520.32,-1.361911E-05
520.42,-1.360687E-05
520.52,-1.361063E-05
520.6199,-1.361252E-05
520.7199,-1.358332E-05
520.8199,-1.362758E-05
520.9199,-1.36257E-05
521.0198,-1.36257E-05
521.1198,-1.36257E-05
521.2198,-1.364171E-05
521.3198,-1.362005E-05
521.4197,-1.361722E-05
521.5197,-1.364454E-05
521.6197,-1.360969E-05
521.7197,-1.364359E-05
521.8196,-1.363229E-05
521.9196,-1.362476E-05
522.0196,-1.363794E-05
522.1196,-1.365301E-05
522.2195,-1.365018E-05
522.3195,-1.362476E-05
522.4195,-1.365678E-05
522.5195,-1.363041E-05
522.6194,-1.361817E-05
522.7194,-1.363229E-05
522.8194,-1.364454E-05
522.9194,-1.360875E-05
523.0193,-1.36144E-05
523.1193,-1.3637E-05
523.2193,-1.363041E-05
523.3193,-1.36144E-05
523.4193,-1.363983E-05
523.5192,-1.363418E-05
523.6192,-1.362288E-05
523.7192,-1.36257E-05
523.8192,-1.362947E-05
523.9191,-1.360216E-05
524.0191,-1.360781E-05
524.1191,-1.366149E-05
524.2191,-1.366054E-05
524.319,-1.363418E-05
524.419,-1.361628E-05
524.519,-1.363418E-05
524.619,-1.362382E-05
524.7189,-1.360593E-05
524.8189,-1.3637E-05
524.9189,-1.36483E-05
525.0189,-1.361346E-05
525.1188,-1.364736E-05
525.2188,-1.364548E-05
525.3188,-1.36257E-05
525.4188,-1.361817E-05
525.5187,-1.363888E-05
525.6187,-1.362758E-05
525.7187,-1.360121E-05
525.8187,-1.362476E-05
525.9186,-1.363888E-05
526.0186,-1.361346E-05
526.1186,-1.363606E-05
526.2186,-1.36596E-05
526.3185,-1.361534E-05
526.4185,-1.360969E-05
526.5185,-1.363606E-05
526.6185,-1.361722E-05
526.7184,-1.36031E-05
526.8184,-1.36257E-05
526.9184,-1.361628E-05
527.0184,-1.360404E-05
527.1183,-1.360781E-05
527.2183,-1.362947E-05
527.3183,-1.360593E-05
527.4183,-1.361346E-05
527.5182,-1.362288E-05
527.6182,-1.362193E-05
527.7182,-1.36031E-05
527.8182,-1.361817E-05
527.9182,-1.361534E-05
528.0181,-1.360498E-05
528.1181,-1.361817E-05
528.2181,-1.361534E-05
528.3181,-1.360969E-05
528.418,-1.361534E-05
528.518,-1.363041E-05
528.618,-1.361534E-05
528.718,-1.362288E-05
528.8179,-1.361817E-05
528.9179,-1.362099E-05
529.0179,-1.359933E-05
529.1179,-1.361911E-05
529.2178,-1.35918E-05
529.3178,-1.360404E-05
529.4178,-1.360687E-05
529.5178,-1.358897E-05
529.6177,-1.358897E-05
529.7177,-1.357956E-05
529.8177,-1.359745E-05
529.9177,-1.357673E-05
530.0176,-1.36031E-05
530.1176,-1.360027E-05
530.2176,-1.359933E-05
530.3176,-1.360121E-05
530.4175,-1.360121E-05
530.5175,-1.358991E-05
530.6175,-1.358803E-05
530.7175,-1.357861E-05
530.8174,-1.359745E-05
530.9174,-1.359839E-05
531.0174,-1.36031E-05
531.1174,-1.362193E-05
531.2173,-1.357296E-05
531.3173,-1.360498E-05
531.4173,-1.359462E-05
531.5173,-1.358521E-05
531.6172,-1.361628E-05
531.7172,-1.359274E-05
531.8172,-1.357767E-05
531.9172,-1.358803E-05
532.0172,-1.359745E-05
532.1171,-1.356166E-05
532.2171,-1.358332E-05
532.3171,-1.358897E-05
532.4171,-1.357202E-05
532.517,-1.35805E-05
532.617,-1.361252E-05
532.717,-1.359086E-05
532.817,-1.35918E-05
532.9169,-1.360875E-05
533.0169,-1.358803E-05
533.1169,-1.358426E-05
533.2169,-1.357296E-05
533.3168,-1.358144E-05
533.4168,-1.358803E-05
533.5168,-1.355884E-05
533.6168,-1.357673E-05
533.7167,-1.358897E-05
533.8167,-1.353247E-05
533.9167,-1.357767E-05
534.0167,-1.36031E-05
534.1166,-1.354848E-05
534.2166,-1.35513E-05
534.3166,-1.35692E-05
534.4166,-1.359368E-05
534.5165,-1.356166E-05
534.6165,-1.357579E-05
534.7165,-1.359651E-05
534.8165,-1.357767E-05
534.9164,-1.356731E-05
535.0164,-1.355695E-05
535.1164,-1.356637E-05
535.2164,-1.358238E-05
535.3163,-1.354189E-05
535.4163,-1.355978E-05
535.5163,-1.358144E-05
535.6163,-1.35513E-05
535.7162,-1.355507E-05
535.8162,-1.354565E-05
535.9162,-1.353906E-05
536.0162,-1.355601E-05
536.1161,-1.35513E-05
536.2161,-1.358521E-05
536.3161,-1.355507E-05
536.4161,-1.354471E-05
536.5161,-1.35513E-05
536.616,-1.353718E-05
536.716,-1.350233E-05
536.816,-1.356637E-05
536.916,-1.353812E-05
537.0159,-1.351363E-05
537.1159,-1.354471E-05
537.2159,-1.354754E-05
537.3159,-1.352023E-05
537.4158,-1.356166E-05
537.5158,-1.356355E-05
537.6158,-1.352776E-05
537.7158,-1.351552E-05
537.8157,-1.355319E-05
537.9157,-1.352964E-05
538.0157,-1.352399E-05
538.1157,-1.353341E-05
538.2156,-1.353529E-05
538.3156,-1.350045E-05
538.4156,-1.347879E-05
538.5156,-1.352023E-05
538.6155,-1.349668E-05
538.7155,-1.347408E-05
538.8155,-1.351081E-05
538.9155,-1.352494E-05
539.0154,-1.348538E-05
539.1154,-1.35174E-05
539.2154,-1.35287E-05
539.3154,-1.349574E-05
539.4153,-1.352211E-05
539.5153,-1.353435E-05
539.6153,-1.35061E-05
539.7153,-1.349197E-05
539.8152,-1.351175E-05
539.9152,-1.350987E-05
540.0152,-1.349668E-05
540.1152,-1.352588E-05
540.2151,-1.352682E-05
540.3151,-1.349857E-05
540.4151,-1.352776E-05
540.5151,-1.350798E-05
540.6151,-1.349292E-05
540.715,-1.346937E-05
540.815,-1.349668E-05
540.915,-1.350233E-05
541.015,-1.345713E-05
541.1149,-1.351646E-05
541.2149,-1.351269E-05
541.3149,-1.347408E-05
541.4149,-1.350893E-05
541.5148,-1.349292E-05
541.6148,-1.346937E-05
541.7148,-1.34835E-05
541.8148,-1.348632E-05
541.9147,-1.34722E-05
542.0147,-1.345807E-05
542.1147,-1.347785E-05
542.2147,-1.342511E-05
542.3146,-1.343453E-05
542.4146,-1.349103E-05
542.5146,-1.346278E-05
542.6146,-1.344112E-05
542.7145,-1.347691E-05
542.8145,-1.3443E-05
542.9145,-1.345525E-05
543.0145,-1.347879E-05
543.1144,-1.350233E-05
543.2144,-1.345619E-05
543.3144,-1.348538E-05
543.4144,-1.351928E-05
543.5143,-1.350328E-05
543.6143,-1.346278E-05
543.7143,-1.349103E-05
543.8143,-1.347032E-05
543.9142,-1.346749E-05
544.0142,-1.345431E-05
544.1142,-1.346466E-05
544.2142,-1.346184E-05
544.3141,-1.344866E-05
544.4141,-1.344583E-05
544.5141,-1.342982E-05
544.6141,-1.344866E-05
544.7141,-1.345054E-05
544.814,-1.344489E-05
544.914,-1.345242E-05
545.014,-1.342511E-05
545.114,-1.342511E-05
545.2139,-1.343924E-05
545.3139,-1.342982E-05
545.4139,-1.343547E-05
545.5139,-1.344677E-05
545.6138,-1.339592E-05
545.7138,-1.343641E-05
545.8138,-1.34204E-05
545.9138,-1.339498E-05
546.0137,-1.340816E-05
546.1137,-1.342794E-05
546.2137,-1.336767E-05
546.3137,-1.337802E-05
546.4136,-1.341287E-05
546.5136,-1.342229E-05
546.6136,-1.339215E-05
546.7136,-1.339027E-05
546.8135,-1.341852E-05
546.9135,-1.338556E-05
547.0135,-1.340157E-05
547.1135,-1.339686E-05
547.2134,-1.338556E-05
547.3134,-1.337802E-05
547.4134,-1.338933E-05
547.5134,-1.337991E-05
547.6133,-1.336484E-05
547.7133,-1.335354E-05
547.8133,-1.336955E-05
547.9133,-1.337332E-05
548.0132,-1.337238E-05
548.1132,-1.334977E-05
548.2132,-1.333941E-05
548.3132,-1.336767E-05
548.4131,-1.33526E-05
548.5131,-1.33074E-05
548.6131,-1.335166E-05
548.7131,-1.333753E-05
548.813,-1.333471E-05
548.913,-1.335637E-05
549.013,-1.333565E-05
549.113,-1.333941E-05
549.213,-1.333565E-05
549.3129,-1.335825E-05
549.4129,-1.333753E-05
549.5129,-1.331022E-05
549.6129,-1.334506E-05
549.7128,-1.335637E-05
549.8128,-1.333094E-05
549.9128,-1.335448E-05
550.0128,-1.333565E-05
550.1127,-1.331964E-05
550.2127,-1.335637E-05
550.3127,-1.336578E-05
550.4127,-1.331305E-05
550.5126,-1.33187E-05
550.6126,-1.33413E-05
550.7126,-1.332058E-05
550.8126,-1.327349E-05
550.9125,-1.33234E-05
551.0125,-1.33413E-05
551.1125,-1.33121E-05
551.2125,-1.334412E-05
551.3124,-1.332058E-05
551.4124,-1.330174E-05
551.5124,-1.33187E-05
551.6124,-1.330645E-05
551.7123,-1.331116E-05
551.8123,-1.328573E-05
551.9123,-1.332058E-05
552.0123,-1.331775E-05
552.1122,-1.32782E-05
552.2122,-1.332152E-05
552.3122,-1.331493E-05
552.4122,-1.326125E-05
552.5121,-1.328197E-05
552.6121,-1.331022E-05
552.7121,-1.327067E-05
552.8121,-1.32556E-05
552.912,-1.330551E-05
553.012,-1.329421E-05
553.112,-1.328103E-05
553.212,-1.331493E-05
553.312,-1.331775E-05
553.4119,-1.330174E-05
553.5119,-1.332717E-05
553.6119,-1.330363E-05
553.7119,-1.330269E-05
553.8118,-1.327914E-05
553.9118,-1.329421E-05
554.0118,-1.33008E-05
554.1118,-1.326313E-05
554.2117,-1.329892E-05
554.3117,-1.329327E-05
554.4117,-1.323206E-05
554.5117,-1.330551E-05
554.6116,-1.328668E-05
554.7116,-1.324053E-05
554.8116,-1.325748E-05
554.9116,-1.329139E-05
555.0115,-1.326031E-05
555.1115,-1.323865E-05
555.2115,-1.327726E-05
555.3115,-1.327726E-05
555.4114,-1.324524E-05
555.5114,-1.327067E-05
555.6114,-1.327914E-05
555.7114,-1.32556E-05
555.8113,-1.328197E-05
555.9113,-1.32669E-05
556.0113,-1.324901E-05
556.1113,-1.329233E-05
556.2112,-1.328197E-05
556.3112,-1.325937E-05
556.4112,-1.323582E-05
556.5112,-1.327538E-05
556.6111,-1.326219E-05
556.7111,-1.324242E-05
556.8111,-1.329421E-05
556.9111,-1.324901E-05
557.011,-1.32556E-05
557.111,-1.328762E-05
557.211,-1.328668E-05
557.311,-1.325089E-05
557.4109,-1.32556E-05
557.5109,-1.326031E-05
557.6109,-1.325748E-05
557.7109,-1.32217E-05
557.8109,-1.327067E-05
557.9108,-1.323394E-05
558.0108,-1.321228E-05
558.1108,-1.324807E-05
558.2108,-1.32669E-05
558.3107,-1.321887E-05
558.4107,-1.323394E-05
558.5107,-1.324712E-05
558.6107,-1.321699E-05
558.7106,-1.321793E-05
558.8106,-1.324053E-05
558.9106,-1.32556E-05
559.0106,-1.321228E-05
559.1105,-1.323017E-05
559.2105,-1.322735E-05
559.3105,-1.320569E-05
559.4105,-1.319533E-05
559.5104,-1.321511E-05
559.6104,-1.321134E-05
559.7104,-1.320757E-05
559.8104,-1.320098E-05
559.9103,-1.32038E-05
560.0103,-1.319815E-05
560.1103,-1.319627E-05
560.2103,-1.318497E-05
560.3102,-1.318685E-05
560.4102,-1.319439E-05
560.5102,-1.320475E-05
560.6102,-1.315954E-05
560.7101,-1.319533E-05
560.8101,-1.320663E-05
560.9101,-1.314919E-05
561.0101,-1.31878E-05
561.11,-1.321322E-05
561.21,-1.313412E-05
561.31,-1.316708E-05
561.41,-1.320851E-05
561.5099,-1.313506E-05
561.6099,-1.316613E-05
561.7099,-1.321793E-05
561.8099,-1.318403E-05
561.9099,-1.315201E-05
562.0098,-1.321134E-05
562.1098,-1.316708E-05
562.2098,-1.317367E-05
562.3098,-1.317838E-05
562.4097,-1.31925E-05
562.5097,-1.31586E-05
562.6097,-1.315578E-05
562.7097,-1.31878E-05
562.8096,-1.319062E-05
562.9096,-1.315107E-05
563.0096,-1.320569E-05
563.1096,-1.31699E-05
563.2095,-1.315013E-05
563.3095,-1.320098E-05
563.4095,-1.317744E-05
563.5095,-1.313223E-05
563.6094,-1.313694E-05
563.7094,-1.319533E-05
563.8094,-1.316613E-05
563.9094,-1.312941E-05
564.0093,-1.31991E-05
564.1093,-1.316802E-05
564.2093,-1.31473E-05
564.3093,-1.317179E-05
564.4092,-1.314542E-05
564.5092,-1.314824E-05
564.6092,-1.313788E-05
564.7092,-1.313223E-05
564.8091,-1.314353E-05
564.9091,-1.314353E-05
565.0091,-1.315201E-05
565.1091,-1.314165E-05
565.209,-1.315107E-05
565.309,-1.312093E-05
565.409,-1.312093E-05
565.509,-1.313318E-05
565.6089,-1.310021E-05
565.7089,-1.311622E-05
565.8089,-1.31473E-05
565.9089,-1.312282E-05
566.0089,-1.311152E-05
566.1088,-1.311246E-05
566.2088,-1.311999E-05
566.3088,-1.313223E-05
566.4088,-1.310681E-05
566.5087,-1.310116E-05
566.6087,-1.312282E-05
566.7087,-1.310869E-05
566.8087,-1.310398E-05
566.9086,-1.312282E-05
567.0086,-1.311152E-05
567.1086,-1.309739E-05
567.2086,-1.31134E-05
567.3085,-1.311717E-05
567.4085,-1.313977E-05
567.5085,-1.310587E-05
567.6085,-1.311905E-05
567.7084,-1.312376E-05
567.8084,-1.310587E-05
567.9084,-1.311057E-05
568.0084,-1.311622E-05
568.1083,-1.312752E-05
568.2083,-1.308138E-05
568.3083,-1.312658E-05
568.4083,-1.313129E-05
568.5082,-1.310681E-05
568.6082,-1.312282E-05
568.7082,-1.312847E-05
568.8082,-1.30908E-05
568.9081,-1.308515E-05
569.0081,-1.311622E-05
569.1081,-1.311434E-05
569.2081,-1.305972E-05
569.308,-1.313977E-05
569.408,-1.312564E-05
569.508,-1.309456E-05
569.608,-1.314636E-05
569.7079,-1.314165E-05
569.8079,-1.309268E-05
569.9079,-1.311152E-05
570.0079,-1.312752E-05
570.1078,-1.309739E-05
570.2078,-1.308138E-05
570.3078,-1.313788E-05
570.4078,-1.308891E-05
570.5078,-1.306914E-05
570.6077,-1.311057E-05
570.7077,-1.31021E-05
570.8077,-1.305407E-05
570.9077,-1.308138E-05
571.0076,-1.30842E-05
571.1076,-1.305689E-05
571.2076,-1.30842E-05
571.3076,-1.309739E-05
571.4075,-1.308044E-05
571.5075,-1.307008E-05
571.6075,-1.310398E-05
571.7075,-1.307573E-05
571.8074,-1.305784E-05
571.9074,-1.308609E-05
572.0074,-1.309268E-05
572.1074,-1.304748E-05
572.2073,-1.306631E-05
572.3073,-1.308609E-05
572.4073,-1.304465E-05
572.5073,-1.305501E-05
572.6072,-1.307385E-05
572.7072,-1.309174E-05
572.8072,-1.305878E-05
572.9072,-1.309739E-05
573.0071,-1.307479E-05
573.1071,-1.305595E-05
573.2071,-1.305972E-05
573.3071,-1.307196E-05
573.407,-1.308232E-05
573.507,-1.306725E-05
573.607,-1.306254E-05
573.707,-1.303994E-05
573.8069,-1.307667E-05
573.9069,-1.308797E-05
574.0069,-1.305878E-05
574.1069,-1.303147E-05
574.2068,-1.310021E-05
574.3068,-1.305878E-05
574.4068,-1.303806E-05
574.5068,-1.308232E-05
574.6068,-1.30729E-05
574.7067,-1.304465E-05
574.8067,-1.304654E-05
574.9067,-1.306725E-05
575.0067,-1.306725E-05
575.1066,-1.303994E-05
575.2066,-1.30795E-05
575.3066,-1.306066E-05
575.4066,-1.304842E-05
575.5065,-1.306443E-05
575.6065,-1.306443E-05
575.7065,-1.305972E-05
575.8065,-1.303429E-05
575.9064,-1.305407E-05
576.0064,-1.305219E-05
576.1064,-1.30503E-05
576.2064,-1.306631E-05
576.3063,-1.308515E-05
576.4063,-1.305878E-05
576.5063,-1.306443E-05
576.6063,-1.305784E-05
576.7062,-1.307761E-05
576.8062,-1.307479E-05
576.9062,-1.306443E-05
577.0062,-1.307196E-05
577.1061,-1.309456E-05
577.2061,-1.307385E-05
577.3061,-1.307667E-05
577.4061,-1.305313E-05
577.506,-1.306914E-05
577.606,-1.307008E-05
577.706,-1.307667E-05
577.806,-1.31021E-05
577.9059,-1.311434E-05
578.0059,-1.307573E-05
578.1059,-1.310963E-05
578.2059,-1.309362E-05
578.3058,-1.307573E-05
578.4058,-1.307479E-05
578.5058,-1.310587E-05
578.6058,-1.306537E-05
578.7057,-1.307196E-05
578.8057,-1.308044E-05
578.9057,-1.306631E-05
579.0057,-1.307385E-05
579.1057,-1.305595E-05
579.2056,-1.305878E-05
579.3056,-1.305501E-05
579.4056,-1.307667E-05
579.5056,-1.305878E-05
579.6055,-1.30616E-05
579.7055,-1.307385E-05
579.8055,-1.30616E-05
579.9055,-1.304654E-05
580.0054,-1.305219E-05
580.1054,-1.307102E-05
580.2054,-1.306349E-05
580.3054,-1.303618E-05
580.4053,-1.308232E-05
580.5053,-1.30682E-05
580.6053,-1.303053E-05
580.7053,-1.306066E-05
580.8052,-1.307102E-05
580.9052,-1.305501E-05
581.0052,-1.30503E-05
581.1052,-1.306914E-05
581.2051,-1.306914E-05
581.3051,-1.305313E-05
581.4051,-1.303618E-05
581.5051,-1.30616E-05
581.605,-1.307196E-05
581.705,-1.307667E-05
581.805,-1.30503E-05
581.905,-1.306066E-05
582.0049,-1.307667E-05
582.1049,-1.307102E-05
582.2049,-1.30503E-05
582.3049,-1.307761E-05
582.4048,-1.30682E-05
582.5048,-1.303712E-05
582.6048,-1.304842E-05
582.7048,-1.30682E-05
582.8047,-1.306631E-05
582.9047,-1.304842E-05
583.0047,-1.307385E-05
583.1047,-1.30729E-05
583.2047,-1.303806E-05
583.3046,-1.306631E-05
583.4046,-1.307196E-05
583.5046,-1.305313E-05
583.6046,-1.306349E-05
583.7045,-1.30682E-05
583.8045,-1.307573E-05
583.9045,-1.305689E-05
584.0045,-1.306914E-05
584.1044,-1.308326E-05
584.2044,-1.304371E-05
584.3044,-1.305689E-05
584.4044,-1.308797E-05
584.5043,-1.306254E-05
584.6043,-1.305972E-05
584.7043,-1.307761E-05
584.8043,-1.304559E-05
584.9042,-1.306725E-05
585.0042,-1.307761E-05
585.1042,-1.305407E-05
585.2042,-1.304842E-05
585.3041,-1.305689E-05
585.4041,-1.304936E-05
585.5041,-1.303335E-05
585.6041,-1.307008E-05
585.704,-1.306914E-05
585.804,-1.30682E-05
585.904,-1.302864E-05
586.004,-1.30682E-05
586.1039,-1.304371E-05
586.2039,-1.305972E-05
586.3039,-1.306537E-05
586.4039,-1.305595E-05
586.5038,-1.304559E-05
586.6038,-1.303712E-05
586.7038,-1.305878E-05
586.8038,-1.303429E-05
586.9037,-1.304559E-05
587.0037,-1.304371E-05
587.1037,-1.305501E-05
587.2037,-1.303712E-05
587.3036,-1.305219E-05
587.4036,-1.304559E-05
587.5036,-1.304936E-05
587.6036,-1.303994E-05
587.7036,-1.302205E-05
587.8035,-1.307385E-05
587.9035,-1.304654E-05
588.0035,-1.303335E-05
588.1035,-1.306066E-05
588.2034,-1.307855E-05
588.3034,-1.302864E-05
588.4034,-1.306254E-05
588.5034,-1.305501E-05
588.6033,-1.304183E-05
588.7033,-1.30277E-05
588.8033,-1.308891E-05
588.9033,-1.309174E-05
589.0032,-1.30503E-05
589.1032,-1.308044E-05
589.2032,-1.308044E-05
589.3032,-1.30908E-05
589.4031,-1.308703E-05
589.5031,-1.313506E-05
589.6031,-1.313129E-05
589.7031,-1.308609E-05
589.803,-1.311999E-05
589.903,-1.312658E-05
590.003,-1.306914E-05
590.103,-1.310492E-05
590.2029,-1.310304E-05
590.3029,-1.308515E-05
590.4029,-1.31021E-05
590.5029,-1.311622E-05
590.6028,-1.309551E-05
590.7028,-1.308326E-05
590.8028,-1.308326E-05
590.9028,-1.30908E-05
591.0027,-1.307479E-05
591.1027,-1.309833E-05
591.2027,-1.308609E-05
591.3027,-1.305689E-05
591.4026,-1.309362E-05
591.5026,-1.310304E-05
591.6026,-1.305595E-05
591.7026,-1.308232E-05
591.8026,-1.310492E-05
591.9025,-1.305878E-05
592.0025,-1.310304E-05
592.1025,-1.310492E-05
592.2025,-1.305313E-05
592.3024,-1.306443E-05
592.4024,-1.309645E-05
592.5024,-1.307008E-05
592.6024,-1.30503E-05
592.7023,-1.309456E-05
592.8023,-1.308797E-05
592.9023,-1.305689E-05
593.0023,-1.306914E-05
593.1022,-1.310398E-05
593.2022,-1.307102E-05
593.3022,-1.305219E-05
593.4022,-1.308138E-05
593.5021,-1.308515E-05
593.6021,-1.30729E-05
593.7021,-1.306914E-05
593.8021,-1.307385E-05
593.902,-1.308703E-05
594.002,-1.305878E-05
594.102,-1.308609E-05
594.202,-1.309268E-05
594.3019,-1.306066E-05
594.4019,-1.306443E-05
594.5019,-1.308515E-05
594.6019,-1.307385E-05
594.7018,-1.306725E-05
594.8018,-1.308891E-05
594.9018,-1.30795E-05
595.0018,-1.307855E-05
595.1017,-1.307385E-05
595.2017,-1.308797E-05
595.3017,-1.305878E-05
595.4017,-1.305595E-05
595.5016,-1.307667E-05
595.6016,-1.308232E-05
595.7016,-1.306537E-05
595.8016,-1.309362E-05
595.9016,-1.308891E-05
596.0015,-1.307573E-05
596.1015,-1.309174E-05
596.2015,-1.307385E-05
596.3015,-1.307196E-05
596.4014,-1.309268E-05
596.5014,-1.31021E-05
596.6014,-1.309362E-05
596.7014,-1.311152E-05
596.8013,-1.31021E-05
596.9013,-1.309645E-05
597.0013,-1.312376E-05
597.1013,-1.312187E-05
597.2012,-1.308609E-05
597.3012,-1.311528E-05
597.4012,-1.310116E-05
597.5012,-1.309645E-05
597.6011,-1.307667E-05
597.7011,-1.311717E-05
597.8011,-1.313694E-05
597.9011,-1.308891E-05
598.001,-1.311905E-05
598.101,-1.313318E-05
598.201,-1.308891E-05
598.301,-1.315295E-05
598.4009,-1.313412E-05
598.5009,-1.310775E-05
598.6009,-1.311434E-05
598.7009,-1.313412E-05
598.8008,-1.312941E-05
598.9008,-1.307855E-05
599.0008,-1.315013E-05
599.1008,-1.315107E-05
599.2007,-1.311246E-05
599.3007,-1.31586E-05
599.4007,-1.315107E-05
599.5007,-1.312564E-05
599.6006,-1.312564E-05
599.7006,-1.314824E-05
599.8006,-1.315389E-05
599.9006,-1.309645E-05
600.0005,-1.317179E-05
