EXPID. 0783
[电化学]: CV : 0 >> 0.7 >> 0 >> 0(V) @ 0.01(V/s) X 10(Seg)
起始电位 (V),0
上限电位 (V),0.7
下限电位 (V),0
终止电位 (V),0
扫速 (V/s),0.01
电解液 信息:
KOH,1
0.001,1.306012E-06
0.002,1.646281E-06
0.003,1.83021E-06
0.004,2.106103E-06
0.005,2.280836E-06
0.006,2.455568E-06
0.007,2.69161E-06
0.008,2.857146E-06
0.009,3.001224E-06
0.01,3.237266E-06
0.011,3.433457E-06
0.012,3.589797E-06
0.013,3.810512E-06
0.014,3.963786E-06
0.015,4.17837E-06
0.016,4.282596E-06
0.017,4.442001E-06
0.018,4.644323E-06
0.019,4.766942E-06
0.02,4.957002E-06
0.021,5.079622E-06
0.022,5.288074E-06
0.023,5.41989E-06
0.024,5.54864E-06
0.025,5.686587E-06
0.026,5.858254E-06
0.027,5.947153E-06
0.028,6.146409E-06
0.029,6.293552E-06
0.03,6.413106E-06
0.031,6.581708E-06
0.032,6.744178E-06
0.033,6.857601E-06
0.034,7.00781E-06
0.035,7.167215E-06
0.036,7.320489E-06
0.037,7.467632E-06
0.038,7.602513E-06
0.039,7.752722E-06
0.04,7.918258E-06
0.041,7.985699E-06
0.042,8.145103E-06
0.043,8.246265E-06
0.044,8.488438E-06
0.045,8.59573E-06
0.046,8.681563E-06
0.047,8.883885E-06
0.048,9.027963E-06
0.049,9.150583E-06
0.05,9.26094E-06
0.051,9.368231E-06
0.052,9.561357E-06
0.053,9.71463E-06
0.054,9.77594E-06
0.055,9.944541E-06
0.056,1.005183E-05
0.057,1.019591E-05
0.058,1.035225E-05
0.059,1.043502E-05
0.06,1.062508E-05
0.061,1.075996E-05
0.062,1.085192E-05
0.063,1.105731E-05
0.064,1.117687E-05
0.065,1.125963E-05
0.066,1.142517E-05
0.067,1.152327E-05
0.068,1.172559E-05
0.069,1.186047E-05
0.07,1.198615E-05
0.071,1.217621E-05
0.072,1.224059E-05
0.073,1.236934E-05
0.074,1.256859E-05
0.075,1.267282E-05
0.076,1.279851E-05
0.077,1.290886E-05
0.078,1.301615E-05
0.079,1.320008E-05
0.08,1.331351E-05
0.081,1.339627E-05
0.082,1.354955E-05
0.083,1.369363E-05
0.084,1.382544E-05
0.085,1.391741E-05
0.086,1.401857E-05
0.087,1.418104E-05
0.088,1.432205E-05
0.089,1.441095E-05
0.09,1.45397E-05
0.091,1.46378E-05
0.092,1.476961E-05
0.093,1.491062E-05
0.094,1.50547E-05
0.095,1.521411E-05
0.096,1.528155E-05
0.097,1.538577E-05
0.098,1.554518E-05
0.099,1.563714E-05
0.1,1.574137E-05
0.101,1.588238E-05
0.102,1.594369E-05
0.103,1.612456E-05
0.104,1.623491E-05
0.105,1.628703E-05
0.106,1.649241E-05
0.107,1.659357E-05
0.108,1.67959E-05
0.109,1.693997E-05
0.11,1.708405E-05
0.111,1.726798E-05
0.112,1.73814E-05
0.113,1.750096E-05
0.114,1.766036E-05
0.115,1.774619E-05
0.116,1.790866E-05
0.117,1.803742E-05
0.118,1.817843E-05
0.119,1.826733E-05
0.12,1.838381E-05
0.121,1.854628E-05
0.122,1.868117E-05
0.123,1.874554E-05
0.124,1.888962E-05
0.125,1.907048E-05
0.126,1.91134E-05
0.127,1.927587E-05
0.128,1.938623E-05
0.129,1.947513E-05
0.13,1.964066E-05
0.131,1.975408E-05
0.132,1.991962E-05
0.133,2.007903E-05
0.134,2.027215E-05
0.135,2.046834E-05
0.136,2.061549E-05
0.137,2.078715E-05
0.138,2.097108E-05
0.139,2.106611E-05
0.14,2.122858E-05
0.141,2.130829E-05
0.142,2.151061E-05
0.143,2.167614E-05
0.144,2.173132E-05
0.145,2.183248E-05
0.146,2.201335E-05
0.147,2.205627E-05
0.148,2.226165E-05
0.149,2.243332E-05
0.15,2.250689E-05
0.151,2.277359E-05
0.152,2.292686E-05
0.153,2.307707E-05
0.154,2.331618E-05
0.155,2.342347E-05
0.156,2.367484E-05
0.157,2.384344E-05
0.158,2.401204E-05
0.159,2.419904E-05
0.16,2.438297E-05
0.161,2.446573E-05
0.162,2.467725E-05
0.163,2.483666E-05
0.164,2.503591E-05
0.165,2.56286E-05
0.166,2.584318E-05
0.167,2.59658E-05
0.168,2.611908E-05
0.169,2.636432E-05
0.17,2.651759E-05
0.171,2.667087E-05
0.172,2.69161E-05
0.173,2.710003E-05
0.174,2.728396E-05
0.175,2.75292E-05
0.176,2.774378E-05
0.177,2.78664E-05
0.178,2.81423E-05
0.179,2.826491E-05
0.18,2.851016E-05
0.181,2.875539E-05
0.182,2.893932E-05
0.183,2.918456E-05
0.184,2.939914E-05
0.185,2.961373E-05
0.186,2.985897E-05
0.187,3.007355E-05
0.188,3.03801E-05
0.189,3.059468E-05
0.19,3.074796E-05
0.191,3.102385E-05
0.192,3.123844E-05
0.193,3.148367E-05
0.194,3.175957E-05
0.195,3.197415E-05
0.196,3.231135E-05
0.197,3.252594E-05
0.198,3.280183E-05
0.199,3.313903E-05
0.2,3.338427E-05
0.201,3.369082E-05
0.202,3.402802E-05
0.203,3.430392E-05
0.204,3.461046E-05
0.205,3.491702E-05
0.206,3.522356E-05
0.207,3.556077E-05
0.208,3.586731E-05
0.209,3.614321E-05
0.21,3.648041E-05
0.211,3.681761E-05
0.212,3.721613E-05
0.213,3.752267E-05
0.214,3.789053E-05
0.215,3.819708E-05
0.216,3.856494E-05
0.217,3.890214E-05
0.218,3.923934E-05
0.219,3.948458E-05
0.22,3.99444E-05
0.221,4.028161E-05
0.222,4.058816E-05
0.223,4.104798E-05
0.224,4.141583E-05
0.225,4.172239E-05
0.226,4.224352E-05
0.227,4.264203E-05
0.228,4.30712E-05
0.229,4.356167E-05
0.23,4.396019E-05
0.231,4.442001E-05
0.232,4.491049E-05
0.233,4.537031E-05
0.234,4.583013E-05
0.235,4.62593E-05
0.236,4.678043E-05
0.237,4.733222E-05
0.238,4.776139E-05
0.239,4.831317E-05
0.24,4.8773E-05
0.241,4.932478E-05
0.242,4.984592E-05
0.243,5.030573E-05
0.244,5.091884E-05
0.245,5.140931E-05
0.246,5.199175E-05
0.247,5.266616E-05
0.248,5.318729E-05
0.249,5.373908E-05
0.25,5.438283E-05
0.251,5.499592E-05
0.252,5.570098E-05
0.253,5.634474E-05
0.254,5.695783E-05
0.255,5.763223E-05
0.256,5.836795E-05
0.257,5.904236E-05
0.258,5.980873E-05
0.259,6.048314E-05
0.26,6.128017E-05
0.261,6.198522E-05
0.262,6.272094E-05
0.263,6.357927E-05
0.264,6.434564E-05
0.265,6.523464E-05
0.266,6.609297E-05
0.267,6.685934E-05
0.268,6.784029E-05
0.269,6.872928E-05
0.27,6.961828E-05
0.271,7.056857E-05
0.272,7.158018E-05
0.273,7.256114E-05
0.274,7.363406E-05
0.275,7.458436E-05
0.276,7.571858E-05
0.277,7.669954E-05
0.278,7.783377E-05
0.279,7.902931E-05
0.28,8.016354E-05
0.281,8.126711E-05
0.282,8.255462E-05
0.283,8.375015E-05
0.284,8.509896E-05
0.285,8.638646E-05
0.286,8.764331E-05
0.287,8.908409E-05
0.288,9.046356E-05
0.289,9.196564E-05
0.29,9.343708E-05
0.291,9.487785E-05
0.292,9.653321E-05
0.293,9.797399E-05
0.294,9.95987E-05
0.295,0.0001013154
0.296,0.0001029094
0.297,0.0001045954
0.298,0.0001064347
0.299,0.0001081207
0.3,0.0001100213
0.301,0.0001118913
0.302,0.0001137612
0.303,0.0001157538
0.304,0.0001178077
0.305,0.0001198922
0.306,0.0001221606
0.307,0.0001244598
0.308,0.0001268508
0.309,0.0001291193
0.31,0.0001314184
0.311,0.0001339627
0.312,0.0001363845
0.313,0.0001389595
0.314,0.0001416878
0.315,0.0001442014
0.316,0.0001471443
0.317,0.0001499646
0.318,0.0001528768
0.319,0.0001560649
0.32,0.0001591917
0.321,0.000162533
0.322,0.000165997
0.323,0.0001693078
0.324,0.0001729557
0.325,0.0001764503
0.326,0.0001802209
0.327,0.0001841447
0.328,0.0001880992
0.329,0.0001921763
0.33,0.0001964066
0.331,0.0002007903
0.332,0.0002055724
0.333,0.000210232
0.334,0.0002151061
0.335,0.0002202867
0.336,0.0002254674
0.337,0.000230924
0.338,0.0002366258
0.339,0.0002424195
0.34,0.0002488877
0.341,0.0002552333
0.342,0.0002620386
0.343,0.0002693038
0.344,0.000276661
0.345,0.000284478
0.346,0.000292908
0.347,0.0003053338
0.348,0.0003145302
0.349,0.0003243398
0.35,0.0003344558
0.351,0.0003461047
0.352,0.0003583666
0.353,0.0003715482
0.354,0.0003862625
0.355,0.0004009768
0.356,0.0004184501
0.357,0.0004362299
0.358,0.0004561555
0.359,0.0004785335
0.36,0.0005021378
0.361,0.0005278878
0.362,0.0005573165
0.363,0.0005879712
0.364,0.0006232243
0.365,0.0006606232
0.366,0.0007026203
0.367,0.000748296
0.368,0.0007985699
0.369,0.0008546683
0.37,0.0009150583
0.371,0.0009821923
0.372,0.001056683
0.373,0.001136079
0.374,0.001224059
0.375,0.001321235
0.376,0.001424541
0.377,0.00154103
0.378,0.001666408
0.379,0.001799757
0.38,0.001948739
0.381,0.002105385
0.382,0.002273987
0.383,0.002456996
0.384,0.002648895
0.385,0.002855202
0.386,0.003074384
0.387,0.003335362
0.388,0.003574469
0.389,0.003822774
0.39,0.004086405
0.391,0.004359233
0.392,0.004638192
0.393,0.004929413
0.394,0.005223699
0.395,0.005530247
0.396,0.005842926
0.397,0.006161737
0.398,0.006486678
0.399,0.006814685
0.4,0.007145756
0.401,0.007486025
0.402,0.007829359
0.403,0.008169628
0.404,0.008525223
0.405,0.008871623
0.406,0.009224153
0.407,0.009582815
0.408,0.009935346
0.409,0.01029707
0.41,0.01066493
0.411,0.01102666
0.412,0.01138838
0.413,0.01175318
0.414,0.0121149
0.415,0.01247663
0.416,0.01283836
0.417,0.01320315
0.418,0.01356488
0.419,0.01392967
0.42,0.01429446
0.421,0.01465312
0.422,0.01502098
0.423,0.01538271
0.424,0.01574137
0.425,0.0161031
0.426,0.01646176
0.427,0.01681735
0.428,0.01718215
0.429,0.01753774
0.43,0.01789027
0.431,0.01824893
0.432,0.01860453
0.433,0.01895706
0.434,0.01930959
0.435,0.01966212
0.436,0.02000546
0.437,0.02036105
0.438,0.02070745
0.439,0.02105385
0.44,0.02140025
0.441,0.02174665
0.442,0.02208692
0.443,0.02242412
0.444,0.02276745
0.445,0.02309853
0.446,0.02343573
0.447,0.02377293
0.448,0.02409788
0.449,0.02442895
0.45,0.02476308
0.451,0.0250819
0.452,0.02540684
0.453,0.02572258
0.454,0.02603833
0.455,0.02635407
0.456,0.02666675
0.457,0.0269733
0.458,0.02727372
0.459,0.0275772
0.46,0.02787762
0.461,0.02816884
0.462,0.02846312
0.463,0.02874515
0.464,0.02902411
0.465,0.0293092
0.466,0.02957283
0.467,0.02983952
0.468,0.03010929
0.469,0.03114647
0.47,0.03139171
0.471,0.03160629
0.472,0.03185153
0.473,0.03209677
0.474,0.03231135
0.475,0.03252594
0.476,0.03274052
0.477,0.03292445
0.478,0.03310838
0.479,0.03329231
0.48,0.03347624
0.481,0.03362951
0.482,0.03378279
0.483,0.03390541
0.484,0.03405868
0.485,0.03415065
0.486,0.03424261
0.487,0.03433457
0.488,0.03439588
0.489,0.03445719
0.49,0.03448785
0.491,0.0345185
0.492,0.0345185
0.493,0.0345185
0.494,0.03448785
0.495,0.03442654
0.496,0.03433457
0.497,0.03424261
0.498,0.03415065
0.499,0.03399737
0.5,0.03384409
0.501,0.03366017
0.502,0.03344558
0.503,0.03320035
0.504,0.03295511
0.505,0.03270987
0.506,0.03240332
0.507,0.03212743
0.508,0.03185153
0.509,0.03154498
0.51,0.03126909
0.511,0.0309932
0.512,0.0307173
0.513,0.03047206
0.514,0.03025748
0.515,0.03010421
0.516,0.02995093
0.517,0.02985897
0.518,0.02979766
0.519,0.029767
0.52,0.029767
0.521,0.02982831
0.522,0.02992028
0.523,0.03001224
0.524,0.03016552
0.525,0.03034945
0.526,0.03053337
0.527,0.03074796
0.528,0.0309932
0.529,0.03123844
0.53,0.03151433
0.531,0.03179022
0.532,0.03209677
0.533,0.03240332
0.534,0.03270987
0.535,0.03304707
0.536,0.03338427
0.537,0.03372148
0.538,0.03408933
0.539,0.03442654
0.54,0.03482505
0.541,0.03516225
0.542,0.03556077
0.543,0.03592863
0.544,0.03629648
0.545,0.036695
0.546,0.03709351
0.547,0.03746137
0.548,0.03789053
0.549,0.03828905
0.55,0.03868756
0.551,0.03908607
0.552,0.03948459
0.553,0.03991375
0.554,0.04031226
0.555,0.04071078
0.556,0.04113995
0.557,0.04156911
0.558,0.04196763
0.559,0.0423968
0.56,0.04282596
0.561,0.04325513
0.562,0.04365364
0.563,0.04408281
0.564,0.04451197
0.565,0.04494114
0.566,0.04540097
0.567,0.04579948
0.568,0.0462593
0.569,0.04671912
0.57,0.04711764
0.571,0.04757746
0.572,0.04800662
0.573,0.04843579
0.574,0.04886496
0.575,0.04932478
0.576,0.04975395
0.577,0.05018312
0.578,0.05061228
0.579,0.05107211
0.58,0.05150127
0.581,0.0519611
0.582,0.05242092
0.583,0.05285009
0.584,0.05327926
0.585,0.05376973
0.586,0.0541989
0.587,0.05465872
0.588,0.05511854
0.589,0.05554771
0.59,0.05600753
0.591,0.05646735
0.592,0.05689653
0.593,0.057387
0.594,0.05781617
0.595,0.05824534
0.596,0.05873581
0.597,0.05916498
0.598,0.05965546
0.599,0.06011529
0.6,0.06054445
0.601,0.06100427
0.602,0.06149475
0.603,0.06192392
0.604,0.06238374
0.605,0.06284356
0.606,0.06330338
0.607,0.06376321
0.608,0.06425368
0.609,0.06471351
0.61,0.06517333
0.611,0.06563315
0.612,0.06609298
0.613,0.06652214
0.614,0.06701262
0.615,0.06750309
0.616,0.06793226
0.617,0.06842274
0.618,0.06888256
0.619,0.06934239
0.62,0.06983286
0.621,0.07026203
0.622,0.07075251
0.623,0.07124298
0.624,0.07167216
0.625,0.07216263
0.626,0.07262245
0.627,0.07305162
0.628,0.07357275
0.629,0.07403257
0.63,0.07449239
0.631,0.07498287
0.632,0.07541204
0.633,0.07590251
0.634,0.07636234
0.635,0.07685282
0.636,0.07731264
0.637,0.07780312
0.638,0.07829359
0.639,0.07872277
0.64,0.07921324
0.641,0.07967306
0.642,0.08016354
0.643,0.08065402
0.644,0.08108319
0.645,0.08157366
0.646,0.08203348
0.647,0.08252396
0.648,0.08301444
0.649,0.08350492
0.65,0.08396474
0.651,0.08445521
0.652,0.08491503
0.653,0.08537485
0.654,0.08589599
0.655,0.08632516
0.656,0.08675433
0.657,0.0872448
0.658,0.08767397
0.659,0.0881338
0.66,0.08865493
0.661,0.08905344
0.662,0.08954392
0.663,0.09003439
0.664,0.0904329
0.665,0.09089272
0.666,0.0913832
0.667,0.09181237
0.668,0.09227219
0.669,0.09276267
0.67,0.09322249
0.671,0.09371297
0.672,0.0941728
0.673,0.09466327
0.674,0.0951231
0.675,0.09561357
0.676,0.0960734
0.677,0.09656387
0.678,0.09702369
0.679,0.09751417
0.68,0.09800465
0.681,0.09846447
0.682,0.09895495
0.683,0.09944542
0.684,0.0999359
0.685,0.1004264
0.686,0.1008862
0.687,0.1013767
0.688,0.1018978
0.689,0.1023883
0.69,0.1028481
0.691,0.1033386
0.692,0.1038291
0.693,0.1042889
0.694,0.1048407
0.695,0.1053005
0.696,0.105791
0.697,0.1063121
0.698,0.1067719
0.699,0.1072624
0.7,0.1074157
0.6990001,0.1069558
0.6980001,0.1064654
0.6970001,0.1060055
0.6960001,0.1055457
0.6950001,0.1050246
0.6940001,0.1045954
0.6930001,0.104105
0.6920001,0.1036145
0.6910001,0.1031547
0.6900001,0.1026642
0.6890001,0.1022043
0.6880001,0.1017139
0.6870001,0.101254
0.6860001,0.1007942
0.6850001,0.1002731
0.6840001,0.09981328
0.6830001,0.0993228
0.6820001,0.09883233
0.6810001,0.09837251
0.6800001,0.09791268
0.6790001,0.09745286
0.6780001,0.09693173
0.6770001,0.09650256
0.6760001,0.09601208
0.6750001,0.09552161
0.6740001,0.09509244
0.6730001,0.09460196
0.6720001,0.09411149
0.6710001,0.09362101
0.6700001,0.09313053
0.6690001,0.09267071
0.6680001,0.09218023
0.6670001,0.09172041
0.6660001,0.09122993
0.6650001,0.09077011
0.6640001,0.09027963
0.6630001,0.08985046
0.6620001,0.08935999
0.6610001,0.0888695
0.6600001,0.08840968
0.6590001,0.08791921
0.6580001,0.08742873
0.6570001,0.08699957
0.6560001,0.08650909
0.6550001,0.08601861
0.6540001,0.08555879
0.6530001,0.08509897
0.6520001,0.08460849
0.6510001,0.08414867
0.6500001,0.08365819
0.6490001,0.08319836
0.6480001,0.08270789
0.6470001,0.08224807
0.6460001,0.08178824
0.6450001,0.08132842
0.6440001,0.08086859
0.6430001,0.08040877
0.6420001,0.0799183
0.6410001,0.07945848
0.6400001,0.078968
0.6390001,0.07850818
0.6380001,0.07804836
0.6370001,0.07758854
0.6360001,0.07709806
0.6350001,0.07663824
0.6340001,0.07617841
0.6330001,0.07568794
0.6320001,0.07525877
0.6310001,0.07476829
0.6300001,0.07430847
0.6290001,0.07384864
0.6280001,0.07335817
0.6270001,0.07289835
0.6260001,0.07243852
0.6250001,0.0719787
0.6240001,0.07151888
0.6230001,0.07105906
0.6220001,0.07056858
0.6210001,0.07010876
0.6200001,0.06964894
0.6190001,0.06918911
0.6180001,0.06869864
0.6170001,0.06826947
0.6160001,0.06777899
0.6150001,0.06731917
0.6140001,0.06685934
0.6130001,0.06639952
0.6120001,0.0659397
0.6110001,0.06547987
0.6100001,0.06502005
0.6090001,0.06456023
0.6080001,0.06410041
0.6070001,0.06367125
0.6060001,0.06321142
0.6050001,0.06272095
0.6040001,0.06229177
0.6030001,0.06183195
0.6020001,0.06137213
0.6010001,0.06088165
0.6000001,0.06045249
0.5990001,0.05999266
0.5980001,0.05953284
0.5970001,0.05907302
0.5960001,0.05861319
0.5950001,0.05815337
0.5940001,0.05772421
0.5930001,0.05726438
0.5920001,0.05680456
0.5910001,0.05637539
0.5900001,0.05591557
0.5890001,0.05545575
0.5880001,0.05502658
0.5870001,0.05456676
0.5860001,0.05410693
0.5850001,0.05367777
0.5840001,0.05318729
0.5830001,0.05275812
0.5820001,0.0522983
0.5810001,0.05183848
0.5800001,0.05140931
0.5790001,0.05094949
0.5780001,0.05052032
0.5770001,0.0500605
0.5760001,0.04963133
0.5750001,0.04917151
0.5740001,0.04874234
0.5730001,0.04831317
0.5720001,0.04785335
0.5710001,0.04742418
0.5700001,0.04696436
0.5690001,0.04653519
0.5680001,0.04607537
0.5670001,0.04561555
0.5660001,0.04518638
0.5650001,0.04472656
0.5640001,0.04429739
0.5630001,0.04386823
0.5620001,0.04343906
0.5610001,0.04297924
0.5600001,0.04255007
0.5590001,0.0421209
0.5580001,0.04166108
0.5570001,0.04123191
0.5560001,0.04080274
0.5550001,0.04037357
0.5540001,0.03994441
0.5530001,0.03951524
0.5520001,0.03905542
0.5510001,0.03862625
0.5500001,0.03819708
0.5490001,0.03776791
0.5480001,0.03733874
0.5470001,0.03690958
0.5460001,0.03648041
0.5450001,0.03605124
0.5440001,0.03562208
0.5430001,0.03519291
0.5420001,0.03476374
0.5410001,0.03433457
0.5400001,0.03393606
0.5390001,0.03350689
0.5380001,0.03307773
0.5370001,0.03267921
0.5360001,0.03225004
0.5350001,0.03182088
0.5340001,0.03142237
0.5330001,0.0309932
0.5320001,0.03056403
0.5310001,0.03016552
0.5300001,0.02973635
0.5290001,0.02930718
0.5280001,0.02890867
0.5270001,0.02851016
0.5260001,0.02808099
0.5250001,0.02768247
0.5240001,0.02728396
0.5230001,0.0268548
0.5220001,0.02645628
0.5210001,0.02605777
0.5200001,0.02565926
0.5190001,0.02526074
0.5180001,0.02483158
0.5170001,0.02446372
0.5160001,0.02403455
0.5150001,0.02366669
0.5140001,0.02326818
0.5130001,0.02286967
0.5120001,0.02247116
0.5110001,0.02207264
0.5100001,0.02167413
0.5090001,0.02130627
0.5080001,0.02090776
0.5070001,0.02050925
0.5060001,0.02014139
0.5050001,0.01977353
0.5040001,0.01937502
0.5030001,0.01900716
0.5020001,0.0186393
0.5010001,0.01827144
0.5000001,0.01787293
0.4990001,0.01753573
0.4980001,0.01716787
0.4970001,0.01676936
0.4960001,0.01643215
0.4950001,0.0160643
0.4940001,0.01569644
0.4930001,0.01532858
0.4920001,0.01499138
0.4910001,0.01462352
0.4900001,0.01428632
0.4890001,0.01391846
0.4880001,0.01358126
0.4870001,0.01324405
0.4860001,0.01238773
0.4850001,0.01205666
0.4840001,0.01172252
0.4830001,0.01139451
0.4820001,0.01106957
0.4810001,0.0107477
0.4800001,0.01042582
0.4790001,0.01010395
0.4780001,0.009794333
0.4770001,0.009481654
0.4760001,0.009172041
0.4750001,0.008871623
0.4740001,0.008565075
0.4730001,0.008264658
0.4720001,0.007973436
0.4710001,0.00767915
0.4700001,0.00739406
0.4690001,0.007108971
0.4680001,0.006826947
0.4670001,0.006551053
0.4660001,0.006278225
0.4650001,0.006008463
0.4640001,0.005744831
0.4630001,0.005478134
0.4620001,0.005223699
0.4610001,0.004972329
0.4600001,0.004717894
0.4590001,0.004478787
0.4580001,0.004236614
0.4570001,0.004000572
0.4560001,0.00377066
0.4550001,0.003540749
0.4540001,0.003320034
0.4530001,0.003102385
0.4520001,0.002887801
0.4510001,0.002679348
0.4500001,0.002477027
0.4490001,0.002274705
0.4480001,0.002081579
0.4470001,0.001888454
0.4460001,0.001707591
0.4450001,0.001526727
0.4440001,0.001345864
0.4430001,0.001177262
0.4420001,0.0009754483
0.4410001,0.0008138973
0.4400001,0.0006572512
0.4390001,0.0005009116
0.4380001,0.0003537684
0.4370001,0.0002084645
0.4360001,6.622611E-05
0.4350001,-7.016773E-05
0.4340001,-0.0002047117
0.4330001,-0.0003319906
0.4320001,-0.0004539863
0.4310001,-0.0005766057
0.4300001,-0.0006906416
0.4290001,-0.0008046775
0.4280001,-0.0009174873
0.4270001,-0.001020181
0.4260001,-0.001125634
0.4250001,-0.001226488
0.4240001,-0.001320598
0.4230001,-0.001418081
0.4220001,-0.001510352
0.4210001,-0.001597718
0.4200001,-0.001685697
0.4190001,-0.001767546
0.4180001,-0.00185062
0.4170001,-0.001930016
0.4160001,-0.00200788
0.4150001,-0.002085743
0.4140001,-0.002157475
0.4130001,-0.00223074
0.4120001,-0.002302472
0.4110001,-0.00236838
0.4100001,-0.002445324
0.4090001,-0.00251675
0.4080001,-0.002576833
0.4070001,-0.002643661
0.4060001,-0.002703744
0.4050001,-0.002765054
0.4040001,-0.002829735
0.4030001,-0.00288798
0.4020001,-0.002949596
0.4010001,-0.003009679
0.4000001,-0.003031645
0.3990001,-0.003089889
0.3980001,-0.003145068
0.3970001,-0.003206378
0.3960001,-0.003264622
0.3950001,-0.003319801
0.3940001,-0.00338111
0.3930001,-0.003439354
0.3920001,-0.003494533
0.3910001,-0.003552777
0.3900001,-0.003611021
0.3890001,-0.003669266
0.3880001,-0.00372751
0.3870001,-0.003785754
0.3860001,-0.003843998
0.3850001,-0.003905308
0.3840001,-0.003960487
0.3830001,-0.004024862
0.3820001,-0.004083106
0.3810001,-0.004144416
0.3800001,-0.004208791
0.3790001,-0.004267035
0.3780001,-0.00433141
0.3770001,-0.00439272
0.3760001,-0.004454029
0.3750001,-0.004518405
0.3740001,-0.004582779
0.3730001,-0.004647155
0.3720001,-0.004714595
0.3710001,-0.004782036
0.3700001,-0.004849477
0.3690001,-0.004916917
0.3680001,-0.004981292
0.3670001,-0.005054864
0.3660001,-0.005122304
0.3650001,-0.005192811
0.3640001,-0.005266382
0.3630001,-0.005333823
0.3620001,-0.005407395
0.3610001,-0.005484032
0.3600001,-0.005554538
0.3590001,-0.00563424
0.3580001,-0.005710877
0.3570001,-0.005784449
0.3560001,-0.005864152
0.3550001,-0.005937723
0.3540001,-0.006020491
0.3530001,-0.006100194
0.3520001,-0.00617683
0.3510001,-0.006259599
0.3500001,-0.006342367
0.3490001,-0.006422069
0.3480001,-0.006507902
0.3470001,-0.006590671
0.3460001,-0.006676504
0.3450001,-0.006765403
0.3440001,-0.006848171
0.3430001,-0.00693707
0.3420001,-0.007022904
0.3410001,-0.007111803
0.3400001,-0.007197636
0.3390001,-0.007286535
0.3380001,-0.0073785
0.3370001,-0.007467398
0.3360001,-0.007553232
0.3350001,-0.007645197
0.3340001,-0.007737161
0.3330001,-0.00782606
0.3320001,-0.007918024
0.3310001,-0.008009989
0.3300001,-0.008098888
0.3290001,-0.008190853
0.3280001,-0.008279751
0.3270001,-0.008374781
0.3260001,-0.008463681
0.3250001,-0.00855258
0.3240001,-0.008644544
0.3230001,-0.008733443
0.3220001,-0.008828473
0.3210001,-0.008911241
0.3200001,-0.009003206
0.3190001,-0.00909517
0.3180001,-0.009174872
0.3170001,-0.009263772
0.3160001,-0.009352671
0.3150001,-0.009426242
0.3140001,-0.009521272
0.3130001,-0.009604041
0.3120001,-0.009677611
0.3110001,-0.009769576
0.3100001,-0.009846213
0.3090001,-0.00992285
0.3080001,-0.01000562
0.3070001,-0.01008839
0.3060001,-0.01016196
0.3050001,-0.01024166
0.3040001,-0.01031523
0.3030001,-0.01039187
0.3020001,-0.01045931
0.3010001,-0.01053595
0.3000001,-0.01060645
0.2990001,-0.01067696
0.2980001,-0.01074747
0.2970001,-0.01080878
0.2960001,-0.01087315
0.2950001,-0.01093753
0.2940001,-0.01099883
0.2930001,-0.01105708
0.2920001,-0.01111532
0.2910001,-0.01116437
0.2900001,-0.01121955
0.2890001,-0.0112594
0.2880001,-0.01129925
0.2870001,-0.01133604
0.2860001,-0.01136056
0.2850001,-0.01137589
0.2840001,-0.01139122
0.2830001,-0.01138202
0.2820001,-0.01136363
0.2810001,-0.01133297
0.2800001,-0.01127779
0.2790001,-0.01120116
0.2780001,-0.0111
0.2770001,-0.01095898
0.2760001,-0.01076586
0.2750001,-0.01051449
0.2740001,-0.01020487
0.2730001,-0.009840082
0.2720001,-0.009438504
0.2710001,-0.009021599
0.2700001,-0.008583235
0.2690001,-0.008147935
0.2680001,-0.00773103
0.2670001,-0.007332517
0.2660001,-0.006961594
0.2650001,-0.006633587
0.2640001,-0.00633317
0.2630001,-0.006060342
0.2620001,-0.005818169
0.2610001,-0.005591323
0.2600001,-0.00538287
0.2590001,-0.005189745
0.2580001,-0.005011947
0.2570001,-0.004849477
0.2560001,-0.004693137
0.2550001,-0.004552125
0.2540001,-0.004420309
0.2530001,-0.00429769
0.2520001,-0.004181202
0.2510001,-0.004070844
0.2500001,-0.003963552
0.2490001,-0.003865457
0.2480001,-0.003773492
0.2470001,-0.003684593
0.2460001,-0.003601825
0.2450001,-0.003525188
0.2440001,-0.003451617
0.2430001,-0.00338111
0.2420001,-0.00331367
0.2410001,-0.003249295
0.2400001,-0.003184919
0.2390001,-0.003129741
0.2380001,-0.003071497
0.2370001,-0.003016318
0.2360001,-0.002964205
0.2350001,-0.002912092
0.2340001,-0.002863044
0.2330001,-0.002820127
0.2320001,-0.002774145
0.2310001,-0.002731228
0.2300001,-0.002688312
0.2290001,-0.002645395
0.2280001,-0.002605543
0.2270001,-0.002568757
0.2260001,-0.002531972
0.2250001,-0.00249212
0.2240001,-0.0024584
0.2230001,-0.00242468
0.2220001,-0.00239096
0.2210001,-0.002357239
0.2200001,-0.002326585
0.2190001,-0.00229593
0.2180001,-0.002265275
0.2170001,-0.002237685
0.2160001,-0.002207031
0.2150001,-0.002179441
0.2140001,-0.002151852
0.2130001,-0.002127328
0.2120001,-0.002102804
0.2110001,-0.002075215
0.2100001,-0.002050691
0.2090001,-0.002026167
0.2080001,-0.002001643
0.2070001,-0.001980185
0.2060001,-0.001955661
0.2050001,-0.001934203
0.2040001,-0.001912744
0.2030001,-0.001891286
0.2020001,-0.001872893
0.2010001,-0.001851435
0.2000001,-0.001833042
0.1990001,-0.001811583
0.1980001,-0.00179319
0.1970001,-0.001774798
0.1960001,-0.001756405
0.1950001,-0.001738012
0.1940001,-0.001719619
0.1930001,-0.001701226
0.1920001,-0.001685899
0.1910001,-0.001667506
0.1900001,-0.001652178
0.1890001,-0.001633785
0.1880001,-0.001618458
0.1870001,-0.001640941
0.1860001,-0.001625614
0.1850001,-0.001610593
0.1840001,-0.001595572
0.1830001,-0.001580858
0.1820001,-0.00156645
0.1810001,-0.001552042
0.1800001,-0.001538554
0.1790001,-0.001524759
0.1780001,-0.001511271
0.1770001,-0.00149809
0.1760001,-0.001485215
0.1750001,-0.00147234
0.1740001,-0.001459465
0.1730001,-0.001447203
0.1720001,-0.001434941
0.1710001,-0.001422985
0.1700001,-0.00141103
0.1690001,-0.001399381
0.1680001,-0.001387732
0.1670001,-0.001376697
0.1660001,-0.001365354
0.1650001,-0.001354319
0.1640001,-0.00134359
0.1630001,-0.001332554
0.1620001,-0.001322131
0.1610001,-0.001311708
0.1600001,-0.001301592
0.1590001,-0.001291476
0.1580001,-0.001281054
0.1570001,-0.001271551
0.1560001,-0.001261741
0.1550001,-0.001251932
0.1540001,-0.001242735
0.1530001,-0.001233232
0.1520001,-0.001224036
0.1510001,-0.001214839
0.1500001,-0.001205949
0.1490001,-0.001197366
0.1480001,-0.001188476
0.1470001,-0.001179586
0.1460001,-0.001171309
0.1450001,-0.001162726
0.1440001,-0.001154449
0.1430001,-0.001146479
0.1420001,-0.001138202
0.1410001,-0.001130232
0.1400001,-0.001122262
0.1390001,-0.001114291
0.1380001,-0.001106628
0.1370001,-0.001098964
0.1360001,-0.0010913
0.1350001,-0.00108425
0.1340001,-0.001076892
0.1330001,-0.001069842
0.1320001,-0.001062791
0.1310001,-0.001055434
0.1300001,-0.00104869
0.1290001,-0.001041639
0.1280001,-0.001034589
0.1270001,-0.001027845
0.1260001,-0.001021101
0.1250001,-0.001014357
0.1240001,-0.001008226
0.1230001,-0.001001482
0.1220001,-0.0009953505
0.1210001,-0.000988913
0.1200001,-0.0009824756
0.1190001,-0.0009766511
0.1180001,-0.0009705202
0.1170001,-0.0009643892
0.1160001,-0.0009585648
0.1150001,-0.0009524338
0.1140001,-0.0009466094
0.1130001,-0.000940785
0.1120001,-0.0009349606
0.1110001,-0.0009294427
0.1100001,-0.0009239248
0.1090001,-0.0009184069
0.1080001,-0.0009131957
0.1070001,-0.0009076777
0.1060001,-0.0009021599
0.1050001,-0.0008972551
0.1040001,-0.0008917373
0.1030001,-0.0008868325
0.1020001,-0.0008819277
0.1010001,-0.0008764099
0.1000001,-0.0008715051
0.0990001,-0.0008666003
0.09800009,-0.0008616955
0.09700009,-0.0008564842
0.0960001,-0.0008515794
0.0950001,-0.0008469812
0.09400009,-0.0008420764
0.0930001,-0.0008374782
0.0920001,-0.0008331866
0.0910001,-0.0008285883
0.09000009,-0.0008239901
0.0890001,-0.0008196984
0.0880001,-0.0008147936
0.08700009,-0.0008108085
0.08600009,-0.0008062103
0.0850001,-0.0008019186
0.0840001,-0.000797627
0.08300009,-0.0007936418
0.08200009,-0.0007893501
0.0810001,-0.0007850585
0.0800001,-0.0007810733
0.07900009,-0.0007767816
0.0780001,-0.0007727966
0.0770001,-0.0007688114
0.07600009,-0.0007648263
0.07500009,-0.0007608412
0.0740001,-0.000756856
0.0730001,-0.0007531774
0.07200009,-0.0007494989
0.07100009,-0.0007455137
0.0700001,-0.0007418352
0.0690001,-0.0007384631
0.06800009,-0.0007347845
0.0670001,-0.000731106
0.0660001,-0.0007274274
0.06500009,-0.0007240553
0.06400009,-0.0007203768
0.0630001,-0.0007166982
0.0620001,-0.0007133262
0.06100009,-0.0007096475
0.0600001,-0.0007065821
0.0590001,-0.0007029035
0.0580001,-0.000699838
0.0570001,-0.000696466
0.05600009,-0.0006927875
0.0550001,-0.0006897219
0.05400009,-0.0006860433
0.0530001,-0.0006829779
0.05200009,-0.0006799124
0.0510001,-0.0006768469
0.05000009,-0.0006737814
0.0490001,-0.0006707159
0.04800009,-0.0006676505
0.0470001,-0.000664585
0.0460001,-0.0006615195
0.04500009,-0.000658454
0.0440001,-0.0006553886
0.04300009,-0.0006526296
0.0420001,-0.0006495641
0.04100009,-0.0006468052
0.0400001,-0.0006440463
0.03900009,-0.0006412873
0.0380001,-0.0006382219
0.03700009,-0.0006354629
0.0360001,-0.000632704
0.0350001,-0.000629945
0.03400009,-0.0006271861
0.0330001,-0.0006244272
0.03200009,-0.0006216682
0.03100009,-0.0006189093
0.0300001,-0.0006164569
0.0290001,-0.000613698
0.0280001,-0.0006112456
0.0270001,-0.0006084866
0.0260001,-0.0006060342
0.0250001,-0.0006032753
0.0240001,-0.000600823
0.0230001,-0.0005983706
0.02200009,-0.0005959182
0.02100009,-0.0005934658
0.02000009,-0.0005910134
0.0190001,-0.000588561
0.0180001,-0.0005861087
0.0170001,-0.0005836562
0.0160001,-0.0005812038
0.0150001,-0.000579058
0.0140001,-0.0005766057
0.0130001,-0.0005741533
0.0120001,-0.0005717009
0.01100009,-0.000569555
0.0100001,-0.0005671026
0.009000096,-0.0005649568
0.008000095,-0.000562811
0.007000095,-0.0005603586
0.006000096,-0.0005582127
0.005000095,-0.0005560669
0.004000095,-0.0005539211
0.003000095,-0.0005517752
0.002000095,-0.0005496293
0.001000095,-0.0005474835
9.536743E-08,-0.0005404329
0.0009999046,-0.0005287841
0.001999905,-0.0005183615
0.002999905,-0.000509165
0.003999905,-0.0005005816
0.004999904,-0.0004923049
0.005999905,-0.0004846411
0.006999905,-0.000477284
0.007999904,-0.0004702334
0.008999905,-0.0004634893
0.009999905,-0.0004570518
0.0109999,-0.0004509208
0.0119999,-0.0004447899
0.0129999,-0.000439272
0.0139999,-0.0004337541
0.0149999,-0.0004282363
0.0159999,-0.0004233315
0.0169999,-0.0004181202
0.0179999,-0.0004132154
0.0189999,-0.0004086172
0.0199999,-0.0004037124
0.0209999,-0.0003991142
0.0219999,-0.0003948225
0.02299991,-0.0003905308
0.02399991,-0.0003862391
0.02499991,-0.000382254
0.02599991,-0.0003782689
0.0269999,-0.0003742838
0.0279999,-0.0003702986
0.0289999,-0.0003666201
0.0299999,-0.0003629415
0.0309999,-0.0003589563
0.0319999,-0.0003555843
0.0329999,-0.0003519058
0.0339999,-0.0003485337
0.0349999,-0.0003451617
0.03599991,-0.0003417897
0.0369999,-0.0003387242
0.03799991,-0.0003353521
0.0389999,-0.0003319801
0.03999991,-0.0003289146
0.0409999,-0.0003258491
0.04199991,-0.0003227837
0.0429999,-0.0003200247
0.0439999,-0.0003169593
0.0449999,-0.0003138937
0.0459999,-0.0003111348
0.04699991,-0.0003083759
0.0479999,-0.000305617
0.04899991,-0.0003025515
0.0499999,-0.0003000991
0.05099991,-0.0002970336
0.0519999,-0.0002945812
0.05299991,-0.0002918223
0.0539999,-0.0002893699
0.0549999,-0.000286611
0.0559999,-0.0002841586
0.0569999,-0.0002817062
0.05799991,-0.0002792538
0.0589999,-0.0002768014
0.05999991,-0.000274349
0.0609999,-0.0002718967
0.06199991,-0.0002694443
0.0629999,-0.0002672984
0.06399991,-0.0002648461
0.06499991,-0.0002627002
0.0659999,-0.0002605543
0.0669999,-0.000258102
0.06799991,-0.0002556496
0.0689999,-0.0002538103
0.0699999,-0.0002513579
0.07099991,-0.0002492121
0.07199991,-0.0002470662
0.0729999,-0.0002449204
0.0739999,-0.0002427746
0.07499991,-0.0002409353
0.07599991,-0.0002387894
0.0769999,-0.0002366436
0.0779999,-0.0002348043
0.07899991,-0.0002326585
0.0799999,-0.0002308192
0.0809999,-0.0002289799
0.08199991,-0.0002268341
0.08299991,-0.0002249948
0.0839999,-0.0002228489
0.0849999,-0.0002210096
0.08599991,-0.0002194769
0.08699991,-0.000217331
0.0879999,-0.0002157983
0.0889999,-0.0002136525
0.08999991,-0.0002118132
0.0909999,-0.0002099739
0.0919999,-0.0002081346
0.09299991,-0.0002066019
0.09399991,-0.0002047626
0.0949999,-0.0002029233
0.0959999,-0.0002013905
0.09699991,-0.0001995512
0.09799991,-0.0001980185
0.0989999,-0.0001964858
0.0999999,-0.0001946465
0.1009999,-0.0001931137
0.1019999,-0.000191581
0.1029999,-0.0001897417
0.1039999,-0.000188209
0.1049999,-0.0001866762
0.1059999,-0.0001851435
0.1069999,-0.0001833042
0.1079999,-0.0001817715
0.1089999,-0.0001802387
0.1099999,-0.0001790125
0.1109999,-0.0001771732
0.1119999,-0.0001756405
0.1129999,-0.0001744143
0.1139999,-0.0001728816
0.1149999,-0.0001713488
0.1159999,-0.0001698161
0.1169999,-0.0001685899
0.1179999,-0.0001670571
0.1189999,-0.0001655244
0.1199999,-0.0001642982
0.1209999,-0.0001627655
0.1219999,-0.0001612327
0.1229999,-0.0001600065
0.1239999,-0.0001620709
0.1249999,-0.0001607834
0.1259999,-0.0001594959
0.1269999,-0.0001580551
0.1279999,-0.0001567983
0.1289999,-0.0001555108
0.1299999,-0.000154162
0.1309999,-0.0001529358
0.1319999,-0.0001516483
0.1329999,-0.0001503301
0.1339999,-0.0001490733
0.1349999,-0.0001478164
0.1359999,-0.0001465596
0.1369999,-0.0001453334
0.1379999,-0.0001441072
0.1389999,-0.000142881
0.1399999,-0.0001415935
0.1409999,-0.0001404286
0.1419999,-0.0001392637
0.1429999,-0.0001380069
0.1439999,-0.0001368113
0.1449999,-0.0001356464
0.1459999,-0.0001344816
0.1469999,-0.0001333167
0.1479999,-0.0001321824
0.1489999,-0.0001310789
0.1499999,-0.0001299446
0.1509999,-0.0001287797
0.1519999,-0.0001277068
0.1529999,-0.000126542
0.1539999,-0.0001254997
0.1549999,-0.0001243655
0.1559999,-0.0001232619
0.1569999,-0.0001222196
0.1579999,-0.0001211774
0.1589999,-0.0001201044
0.1599999,-0.0001190622
0.1609999,-0.0001180199
0.1619999,-0.0001169777
0.1629999,-0.0001159354
0.1639999,-0.0001148931
0.1649999,-0.0001138815
0.1659999,-0.0001128086
0.1669999,-0.0001117663
0.1679999,-0.0001107547
0.1689999,-0.0001097431
0.1699999,-0.0001087622
0.1709999,-0.0001077505
0.1719999,-0.0001067389
0.1729999,-0.0001058806
0.1739999,-0.0001049303
0.1749999,-0.00010398
0.1759999,-0.0001030297
0.1769999,-0.0001021101
0.1779999,-0.0001011291
0.1789999,-0.0001001482
0.1799999,-9.913654E-05
0.1809999,-9.827821E-05
0.1819999,-9.738921E-05
0.1829999,-9.646956E-05
0.1839999,-9.554992E-05
0.1849999,-9.469159E-05
0.1859999,-9.38026E-05
0.1869999,-9.300557E-05
0.1879999,-9.211658E-05
0.1889999,-9.119694E-05
0.1899999,-9.024664E-05
0.1909999,-8.929634E-05
0.1919999,-8.846866E-05
0.1929999,-8.764098E-05
0.1939999,-8.68133E-05
0.1949999,-8.598562E-05
0.1959999,-8.512728E-05
0.1969999,-8.42996E-05
0.1979999,-8.350258E-05
0.1989999,-8.270555E-05
0.1999999,-8.187787E-05
0.2009999,-8.108085E-05
0.2019999,-8.025316E-05
0.2029999,-7.945613E-05
0.2039999,-7.856715E-05
0.2049999,-7.780078E-05
0.2059999,-7.694244E-05
0.2069999,-7.608411E-05
0.2079999,-7.531774E-05
0.2089999,-7.458202E-05
0.2099999,-7.3785E-05
0.2109999,-7.304928E-05
0.2119999,-7.22216E-05
0.2129999,-7.148589E-05
0.2139999,-7.075017E-05
0.2149999,-6.995314E-05
0.2159999,-6.918678E-05
0.2169999,-6.848171E-05
0.2179999,-6.774599E-05
0.2189999,-6.697963E-05
0.2199999,-6.624391E-05
0.2209999,-6.553885E-05
0.2219999,-6.477248E-05
0.2229999,-6.409807E-05
0.2239999,-6.336236E-05
0.2249999,-6.265729E-05
0.2259999,-6.192158E-05
0.2269999,-6.118586E-05
0.2279999,-6.045015E-05
0.2289999,-5.974509E-05
0.2299999,-5.900937E-05
0.2309999,-5.8243E-05
0.2319999,-5.750729E-05
0.2329999,-5.677157E-05
0.2339999,-5.603585E-05
0.2349999,-5.53921E-05
0.2359999,-5.462573E-05
0.2369999,-5.392067E-05
0.2379999,-5.327692E-05
0.2389999,-5.260251E-05
0.2399999,-5.192811E-05
0.2409999,-5.122304E-05
0.2419999,-5.060995E-05
0.2429999,-4.987423E-05
0.2439999,-4.916917E-05
0.2449999,-4.84028E-05
0.2459999,-4.769774E-05
0.2469999,-4.702334E-05
0.2479999,-4.631827E-05
0.2489999,-4.561321E-05
0.2499999,-4.493881E-05
0.2509999,-4.432571E-05
0.2519999,-4.358999E-05
0.2529999,-4.29769E-05
0.2539999,-4.230249E-05
0.2549999,-4.162809E-05
0.2559999,-4.086172E-05
0.2569999,-4.015665E-05
0.2579999,-3.939028E-05
0.2589999,-3.868522E-05
0.2599999,-3.794951E-05
0.2609999,-3.72751E-05
0.2619999,-3.653938E-05
0.2629999,-3.589563E-05
0.2639999,-3.522123E-05
0.2649999,-3.457748E-05
0.2659999,-3.390307E-05
0.2669999,-3.316735E-05
0.2679999,-3.240098E-05
0.2689999,-3.157331E-05
0.2699999,-3.083759E-05
0.2709999,-3.010187E-05
0.2719999,-2.942747E-05
0.2729999,-2.87224E-05
0.2739999,-2.792538E-05
0.2749999,-2.722032E-05
0.2759999,-2.651526E-05
0.2769999,-2.577954E-05
0.2779999,-2.501317E-05
0.2789999,-2.418549E-05
0.2799999,-2.341912E-05
0.2809999,-2.259144E-05
0.2819999,-2.182507E-05
0.2829999,-2.093608E-05
0.2839999,-2.007774E-05
0.2849999,-1.921941E-05
0.2859999,-1.842238E-05
0.2869999,-1.756405E-05
0.2879999,-1.670571E-05
0.2889999,-1.581672E-05
0.2899999,-1.492773E-05
0.2909999,-1.403874E-05
0.2919999,-1.314975E-05
0.2929999,-1.251318E-05
0.2939999,-1.1615E-05
0.2949999,-1.06555E-05
0.2959999,-9.714397E-06
0.2969999,-8.785556E-06
0.2979999,-7.777013E-06
0.2989999,-6.838975E-06
0.2999999,-5.799776E-06
0.3009999,-4.732988E-06
0.3019999,-3.718314E-06
0.3029999,-2.630067E-06
0.3039999,-1.468249E-06
0.3049999,-3.370863E-07
0.3059999,8.369935E-07
0.3069999,2.072383E-06
0.3079999,3.366017E-06
0.3089999,4.59221E-06
0.3099999,5.876646E-06
0.3109999,7.216262E-06
0.3119999,8.470045E-06
0.3129999,9.809661E-06
0.3139999,1.121365E-05
0.3149999,1.253794E-05
0.3159999,1.414119E-05
0.3169999,1.560036E-05
0.3179999,1.704113E-05
0.3189999,1.870876E-05
0.3199999,2.030281E-05
0.3209999,2.193671E-05
0.3219999,2.369936E-05
0.3229999,2.572057E-05
0.3239999,2.759051E-05
0.3249999,2.94298E-05
0.3259999,3.13304E-05
0.3269999,3.344558E-05
0.3279999,3.540749E-05
0.3289999,3.761464E-05
0.3299999,3.988309E-05
0.3309999,4.209024E-05
0.3319999,4.463459E-05
0.3329999,4.705632E-05
0.3339999,4.963133E-05
0.3349999,5.239026E-05
0.3359999,5.51492E-05
0.3369999,5.812272E-05
0.3379999,6.131082E-05
0.3389999,6.459088E-05
0.3399999,6.799357E-05
0.3409999,7.170281E-05
0.3419999,7.553466E-05
0.3429999,7.970371E-05
0.3439999,8.399539E-05
0.3449999,8.877754E-05
0.3459999,9.38969E-05
0.3469999,9.923083E-05
0.3479999,0.0001053924
0.3489999,0.0001117073
0.3499999,0.0001188499
0.3509999,0.0001268202
0.3519999,0.0001353729
0.3529999,0.0001449985
0.3539999,0.0001558196
0.3549999,0.0001674378
0.3559999,0.0001810792
0.3569999,0.0001959468
0.3579999,0.0002131135
0.3589999,0.0002327633
0.3599999,0.0002548654
0.3609999,0.0002806461
0.3619999,0.0003109944
0.3629999,0.0003500898
0.3639999,0.0003927
0.3649999,0.0004438936
0.3659999,0.0005061228
0.3669999,0.0005821469
0.3679999,0.0006734983
0.3689999,0.000783549
0.3699999,0.0009119928
0.3709999,0.001060362
0.3719999,0.001228351
0.3729999,0.001410747
0.3739999,0.001607551
0.3749999,0.001813858
0.3759999,0.002022924
0.3769999,0.002235975
0.3779999,0.00244688
0.3789999,0.002651041
0.3799999,0.002853363
0.3809999,0.003047102
0.3819999,0.003264856
0.3829999,0.003445719
0.3839999,0.003620452
0.3849999,0.003795184
0.3859999,0.003966851
0.3869999,0.004135453
0.3879999,0.004304054
0.3889999,0.00446959
0.3899999,0.004638192
0.3909999,0.004806793
0.3919999,0.004972329
0.3929999,0.005143996
0.3939999,0.005315664
0.3949999,0.005490396
0.3959999,0.005668194
0.3969999,0.005849057
0.3979999,0.006029921
0.3989999,0.006216915
0.3999999,0.006400844
0.4009999,0.00659397
0.4019999,0.006787095
0.4029999,0.006983286
0.4039999,0.007185608
0.4049999,0.00738793
0.4059999,0.007593317
0.4069999,0.007804835
0.4079999,0.008016353
0.4089999,0.008230938
0.4099999,0.008460849
0.4109999,0.008681564
0.4119999,0.008905343
0.4129999,0.009132189
0.4139999,0.009359035
0.4149999,0.009595077
0.4159999,0.009824988
0.4169999,0.01006103
0.4179999,0.01029707
0.4189999,0.01053311
0.4199999,0.01077222
0.4209999,0.01101439
0.4219999,0.0112535
0.4229999,0.01149568
0.4239999,0.01173785
0.4249999,0.01197696
0.4259999,0.01221913
0.4269999,0.0124613
0.4279999,0.01269734
0.4289999,0.01293339
0.4299999,0.0131725
0.4309999,0.01340547
0.4319999,0.01363538
0.4329999,0.01386836
0.4339999,0.0140952
0.4349999,0.01431285
0.4359999,0.0145397
0.4369999,0.01474815
0.4379999,0.0149566
0.4389999,0.01517119
0.4399999,0.01536125
0.4409999,0.0155605
0.4419999,0.01575363
0.4429999,0.01593143
0.4439999,0.01611229
0.4449999,0.01627783
0.4459999,0.01643723
0.4469999,0.01659664
0.4479999,0.01674378
0.4489999,0.0168756
0.4499999,0.01701354
0.4509999,0.01712697
0.4519999,0.01723426
0.4529999,0.01734768
0.4539999,0.01743351
0.4549999,0.01751628
0.4559999,0.01759599
0.4569999,0.01765116
0.4579999,0.01770328
0.4589999,0.01775233
0.4599999,0.01777685
0.4609999,0.01779831
0.4619999,0.0178167
0.4629999,0.0178075
0.4639999,0.01779831
0.4649999,0.01778605
0.4659999,0.01774926
0.4669999,0.01771247
0.4679999,0.01767569
0.4689999,0.01761131
0.4699999,0.01755307
0.4709999,0.01749176
0.4719999,0.01740593
0.4729999,0.01733848
0.4739999,0.01726185
0.4749999,0.01716988
0.4759999,0.01709631
0.4769999,0.01701354
0.4779999,0.01692771
0.4789999,0.0168664
0.4799999,0.01679283
0.4809999,0.01673459
0.4819999,0.0166978
0.4829999,0.01665182
0.4839999,0.01663649
0.4849999,0.01663342
0.4859999,0.01663342
0.4869999,0.01666714
0.4879999,0.01671619
0.4889999,0.0167775
0.4899999,0.01686947
0.4909999,0.01697063
0.4919999,0.01708711
0.4929999,0.01723426
0.4939999,0.01738753
0.4949999,0.01755613
0.4959999,0.01774926
0.4969999,0.01795771
0.4979999,0.0181723
0.4989999,0.01840834
0.4999999,0.01865664
0.5009999,0.01890495
0.5019999,0.01917471
0.5029999,0.01945673
0.5039999,0.01973263
0.5049999,0.02003611
0.5059999,0.02034573
0.5069999,0.02064614
0.5079999,0.02096802
0.5089999,0.02129296
0.5099999,0.0216179
0.5109999,0.0219551
0.5119999,0.02229844
0.5129999,0.02264484
0.5139999,0.02298204
0.5149999,0.02334377
0.5159999,0.02369936
0.5169999,0.02405189
0.5179999,0.02442588
0.5189999,0.02477841
0.5199999,0.02515547
0.5209999,0.02552946
0.5219999,0.02588812
0.5229999,0.0262713
0.5239999,0.02665756
0.5249999,0.02702848
0.5259999,0.02742086
0.5269999,0.02781017
0.5279999,0.02818416
0.5289999,0.02858574
0.5299999,0.02897506
0.5309999,0.02935824
0.5319999,0.02975982
0.5329999,0.0301522
0.5339999,0.0313304
0.5349999,0.03169826
0.5359999,0.03209677
0.5369999,0.03249529
0.5379999,0.03292445
0.5389999,0.03332296
0.5399999,0.03372148
0.5409999,0.03415065
0.5419999,0.03454916
0.5429999,0.03494767
0.5439999,0.03537684
0.5449999,0.035806
0.5459999,0.03620452
0.5469999,0.03663369
0.5479999,0.03706285
0.5489999,0.03746137
0.5499999,0.03792119
0.5509999,0.03835035
0.5519999,0.03874887
0.5529999,0.03917804
0.5539999,0.0396072
0.5549999,0.04003637
0.5559999,0.04046554
0.5569999,0.04089471
0.5579999,0.04132387
0.5589999,0.04175304
0.5599999,0.04218221
0.5609999,0.04261138
0.5619999,0.04304054
0.5629999,0.04350037
0.5639999,0.04392953
0.5649999,0.0443587
0.5659999,0.04478787
0.5669999,0.04521704
0.5679999,0.04567686
0.5689999,0.04610603
0.5699999,0.04656585
0.5709999,0.04699502
0.5719999,0.04745484
0.5729999,0.04785335
0.5739999,0.04831317
0.5749999,0.04874234
0.5759999,0.04920216
0.5769999,0.04966199
0.5779999,0.05009115
0.5789999,0.05052032
0.5799999,0.05094949
0.5809999,0.05140931
0.5819999,0.05183848
0.5829999,0.0522983
0.5839999,0.05275812
0.5849999,0.05318729
0.5859999,0.05364711
0.5869999,0.05410693
0.5879999,0.05456676
0.5889999,0.05499592
0.5899999,0.05545575
0.5909999,0.05588492
0.5919999,0.05637539
0.5929999,0.05680456
0.5939999,0.05726438
0.5949999,0.05775486
0.5959999,0.05818403
0.5969999,0.05864385
0.5979999,0.05910368
0.5989999,0.05953284
0.5999999,0.05999266
0.6009999,0.06045249
0.6019999,0.06091231
0.6029999,0.06137213
0.6039999,0.06183195
0.6049999,0.06229177
0.6059999,0.0627516
0.6069999,0.06321142
0.6079999,0.06364059
0.6089999,0.06413107
0.6099999,0.06459089
0.6109999,0.06502005
0.6119999,0.06551053
0.6129999,0.06597035
0.6139999,0.06643017
0.6149999,0.06688999
0.6159999,0.06734982
0.6169999,0.06777899
0.6179999,0.06826947
0.6189999,0.06872929
0.6199999,0.06918911
0.6209999,0.06967959
0.6219999,0.07013941
0.6229999,0.07056858
0.6239999,0.07105906
0.6249999,0.07151888
0.6259999,0.0719787
0.6269999,0.07246917
0.6279999,0.07289835
0.6289999,0.07338882
0.6299999,0.07384864
0.6309999,0.07430847
0.6319999,0.07476829
0.6329999,0.07525877
0.6339999,0.07571859
0.6349999,0.07617841
0.6359999,0.07666889
0.6369999,0.07712871
0.6379999,0.07761919
0.6389999,0.07807901
0.6399999,0.07853883
0.6409999,0.07902931
0.6419999,0.07945848
0.6429999,0.07994895
0.6439999,0.08040877
0.6449999,0.08086859
0.6459999,0.08135908
0.6469999,0.08178824
0.6479999,0.08227872
0.6489999,0.08273854
0.6499999,0.08319836
0.6509999,0.08368885
0.6519999,0.08414867
0.6529999,0.08460849
0.6539999,0.08509897
0.6549999,0.08555879
0.6559999,0.08604927
0.6569999,0.08653974
0.6579999,0.08699957
0.6589999,0.08749004
0.6599999,0.08798052
0.6609999,0.08840968
0.6619999,0.08890016
0.6629999,0.08939064
0.6639999,0.08981981
0.6649999,0.09031029
0.6659999,0.09080076
0.6669999,0.09126058
0.6679999,0.09175106
0.6689999,0.09224154
0.6699999,0.09267071
0.6709999,0.09316119
0.6719999,0.09365166
0.6729999,0.09411149
0.6739999,0.09460196
0.6749999,0.09509244
0.6759999,0.09552161
0.6769999,0.09601208
0.6779999,0.09650256
0.6789999,0.09696238
0.6799999,0.09745286
0.6809999,0.09791268
0.6819999,0.09840316
0.6829999,0.09886298
0.6839999,0.09938411
0.6849999,0.09981328
0.6859999,0.1003038
0.6869999,0.1007942
0.6879999,0.101254
0.6889999,0.1017752
0.6899999,0.1022657
0.6909999,0.1026948
0.6919999,0.1031853
0.6929999,0.1036758
0.6939999,0.1041356
0.6949999,0.1046567
0.6959999,0.1051166
0.6969999,0.1055764
0.6979999,0.1060669
0.6989999,0.1065573
0.6999999,0.1066493
0.6990002,0.1062201
0.6980002,0.1057297
0.6970002,0.1052392
0.6960002,0.10481
0.6950002,0.1043195
0.6940002,0.1038291
0.6930002,0.1033692
0.6920002,0.1028788
0.6910002,0.1024189
0.6900002,0.1019591
0.6890002,0.1014686
0.6880002,0.1010088
0.6870002,0.100549
0.6860002,0.1000279
0.6850002,0.09956805
0.6840002,0.09910822
0.6830002,0.09861775
0.6820002,0.09818857
0.6810002,0.0976981
0.6800002,0.09720763
0.6790002,0.09677845
0.6780002,0.09625732
0.6770002,0.09576684
0.6760002,0.09533768
0.6750002,0.09484719
0.6740002,0.09438737
0.6730002,0.09392755
0.6720002,0.09346773
0.6710002,0.0929466
0.6700002,0.09251743
0.6690002,0.09202696
0.6680002,0.09153648
0.6670002,0.09110731
0.6660002,0.09058618
0.6650002,0.09012636
0.6640002,0.08969719
0.6630002,0.08920672
0.6620002,0.08874689
0.6610002,0.08828707
0.6600002,0.08776593
0.6590002,0.08733677
0.6580002,0.08687695
0.6570002,0.08638646
0.6560002,0.08592664
0.6550002,0.08546682
0.6540002,0.08494569
0.6530002,0.08451653
0.6520002,0.08402605
0.6510002,0.08353557
0.6500002,0.0831064
0.6490002,0.08264658
0.6480002,0.08215611
0.6470002,0.08169628
0.6460002,0.08123646
0.6450002,0.08074598
0.6440002,0.08031681
0.6430002,0.07982634
0.6420002,0.07933586
0.6410002,0.07890669
0.6400002,0.07844687
0.6390002,0.07795639
0.6380002,0.07755788
0.6370002,0.0770674
0.6360002,0.07657693
0.6350002,0.07614776
0.6340002,0.07565728
0.6330002,0.07519746
0.6320002,0.07473763
0.6310002,0.07427781
0.6300002,0.07381799
0.6290002,0.07335817
0.6280002,0.07286769
0.6270002,0.07240786
0.6260002,0.07194804
0.6250002,0.07148822
0.6240002,0.0710284
0.6230002,0.07056858
0.6220002,0.07010876
0.6210002,0.06964894
0.6200002,0.06915846
0.6190002,0.06872929
0.6180002,0.06826947
0.6170002,0.06780964
0.6160002,0.06734982
0.6150002,0.06688999
0.6140002,0.06643017
0.6130002,0.06597035
0.6120002,0.06551053
0.6110002,0.06505071
0.6100002,0.06459089
0.6090002,0.06413107
0.6080002,0.06367125
0.6070002,0.06321142
0.6060002,0.06278225
0.6050002,0.06232243
0.6040002,0.06186261
0.6030002,0.06140279
0.6020002,0.06094296
0.6010002,0.06048314
0.6000002,0.06002332
0.5990002,0.0595635
0.5980002,0.05913433
0.5970002,0.0586745
0.5960002,0.05821468
0.5950002,0.05775486
0.5940002,0.05729504
0.5930002,0.05686587
0.5920002,0.05640605
0.5910002,0.05597688
0.5900002,0.05551706
0.5890002,0.05505724
0.5880002,0.05462807
0.5870002,0.05416824
0.5860002,0.05370842
0.5850002,0.05327926
0.5840002,0.05281943
0.5830002,0.05235961
0.5820002,0.05193045
0.5810002,0.05147062
0.5800002,0.0510108
0.5790002,0.05058163
0.5780002,0.05012181
0.5770002,0.04972329
0.5760002,0.04926347
0.5750002,0.04880365
0.5740002,0.04834383
0.5730002,0.04791466
0.5720002,0.04748549
0.5710002,0.04705633
0.5700002,0.0465965
0.5690002,0.04616734
0.5680002,0.04573817
0.5670002,0.04527835
0.5660002,0.04484918
0.5650002,0.04438936
0.5640002,0.04396019
0.5630002,0.04353102
0.5620002,0.0430712
0.5610002,0.04264203
0.5600002,0.04221286
0.5590002,0.0417837
0.5580002,0.04135453
0.5570002,0.04089471
0.5560002,0.04046554
0.5550002,0.04006703
0.5540002,0.0396072
0.5530002,0.03917804
0.5520002,0.03874887
0.5510002,0.0383197
0.5500002,0.03789053
0.5490002,0.03746137
0.5480002,0.0370322
0.5470002,0.03660303
0.5460002,0.03620452
0.5450002,0.03577535
0.5440002,0.03534618
0.5430002,0.03491702
0.5420002,0.03448785
0.5410002,0.03408933
0.5400002,0.03366017
0.5390002,0.033231
0.5380002,0.03283248
0.5370002,0.03240332
0.5360002,0.03200481
0.5350002,0.03157564
0.5340002,0.03114647
0.5330002,0.03074796
0.5320002,0.03031879
0.5310002,0.02988962
0.5300002,0.02949111
0.5290002,0.0290926
0.5280002,0.02866343
0.5270002,0.02826492
0.5260002,0.02786641
0.5250002,0.02743724
0.5240002,0.02703872
0.5230002,0.02667087
0.5220002,0.0262417
0.5210002,0.02584319
0.5200002,0.02544468
0.5190002,0.02504616
0.5180002,0.02464765
0.5170002,0.02424913
0.5160002,0.02385062
0.5150002,0.02348276
0.5140002,0.02308425
0.5130002,0.02268574
0.5120002,0.02228723
0.5110002,0.02188871
0.5100002,0.02152086
0.5090002,0.02112234
0.5080002,0.02075448
0.5070002,0.02035597
0.5060002,0.01998811
0.5050002,0.01962026
0.5040002,0.01922174
0.5030002,0.01885389
0.5020002,0.01848603
0.5010002,0.01811817
0.5000002,0.01775031
0.4990002,0.01738245
0.4980002,0.0170146
0.4970002,0.01664674
0.4960002,0.01630954
0.4950002,0.01594168
0.4940002,0.01557382
0.4930002,0.01523662
0.4920002,0.01486876
0.4910002,0.01453156
0.4900002,0.0141637
0.4890002,0.01382649
0.4880002,0.01348929
0.4870002,0.01312143
0.4860002,0.01230803
0.4850002,0.01198002
0.4840002,0.01164588
0.4830002,0.01133014
0.4820002,0.01100213
0.4810002,0.01067719
0.4800002,0.01036451
0.4790002,0.01004877
0.4780002,0.009736089
0.4770002,0.009432606
0.4760002,0.009122993
0.4750002,0.00881951
0.4740002,0.008522158
0.4730002,0.008224807
0.4720002,0.007933586
0.4710002,0.007645431
0.4700002,0.00736034
0.4690002,0.007078316
0.4680002,0.006796291
0.4670002,0.006526529
0.4660002,0.00624757
0.4650002,0.005983938
0.4640002,0.005723373
0.4630002,0.005456676
0.4620002,0.005208372
0.4610002,0.004953937
0.4600002,0.004702567
0.4590002,0.004466525
0.4580002,0.004224352
0.4570002,0.003988309
0.4560002,0.003761464
0.4550002,0.003531553
0.4540002,0.003310838
0.4530002,0.003096254
0.4520002,0.00288167
0.4510002,0.002676283
0.4500002,0.002470896
0.4490002,0.002271639
0.4480002,0.002078514
0.4470002,0.001885388
0.4460002,0.001704525
0.4450002,0.001523662
0.4440002,0.001342798
0.4430002,0.001174197
0.4420002,0.0009739156
0.4410002,0.0008108319
0.4400002,0.000656025
0.4390002,0.0004990723
0.4380002,0.0003507029
0.4370002,0.0002057056
0.4360002,6.285407E-05
0.4350002,-7.516446E-05
0.4340002,-0.0002085743
0.4330002,-0.0003360677
0.4320002,-0.0004601173
0.4310002,-0.0005833497
0.4300002,-0.0006986118
0.4290002,-0.0008141805
0.4280002,-0.0009282165
0.4270002,-0.001031217
0.4260002,-0.001137282
0.4250002,-0.00123875
0.4240002,-0.00133378
0.4230002,-0.001432489
0.4220002,-0.001525066
0.4210002,-0.001613659
0.4200002,-0.001702864
0.4190002,-0.001784712
0.4180002,-0.0018684
0.4170002,-0.001949635
0.4160002,-0.002028725
0.4150002,-0.002106895
0.4140002,-0.002179547
0.4130002,-0.002254651
0.4120002,-0.002326996
0.4110002,-0.00239413
0.4100002,-0.00247138
0.4090002,-0.002544339
0.4080002,-0.002606262
0.4070002,-0.002673702
0.4060002,-0.002733786
0.4050002,-0.002796935
0.4040002,-0.002863149
0.4030002,-0.002922313
0.4020002,-0.002985155
0.4010002,-0.003045852
0.4000002,-0.003068431
0.3990002,-0.003129741
0.3980002,-0.003187985
0.3970002,-0.003246229
0.3960002,-0.003310604
0.3950002,-0.003365783
0.3940002,-0.003424027
0.3930002,-0.003485337
0.3920002,-0.003540515
0.3910002,-0.003601825
0.3900002,-0.003660069
0.3890002,-0.003721379
0.3880002,-0.003779623
0.3870002,-0.003837867
0.3860002,-0.003899177
0.3850002,-0.003957421
0.3840002,-0.004018731
0.3830002,-0.004083106
0.3820002,-0.00414135
0.3810002,-0.00420266
0.3800002,-0.004267035
0.3790002,-0.004325279
0.3780002,-0.00439272
0.3770002,-0.004457095
0.3760002,-0.004518405
0.3750002,-0.004585845
0.3740002,-0.004647155
0.3730002,-0.004714595
0.3720002,-0.004782036
0.3710002,-0.004849477
0.3700002,-0.004919983
0.3690002,-0.004987423
0.3680002,-0.005054864
0.3670002,-0.00512537
0.3660002,-0.005192811
0.3650002,-0.005266382
0.3640002,-0.005336888
0.3630002,-0.005407395
0.3620002,-0.005484032
0.3610002,-0.005554538
0.3600002,-0.005628109
0.3590002,-0.005707812
0.3580002,-0.005784449
0.3570002,-0.005858021
0.3560002,-0.005937723
0.3550002,-0.006011295
0.3540002,-0.006090997
0.3530002,-0.006167634
0.3520002,-0.006244271
0.3510002,-0.006330105
0.3500002,-0.006406742
0.3490002,-0.006486444
0.3480002,-0.006569212
0.3470002,-0.00665198
0.3460002,-0.006734748
0.3450002,-0.006817516
0.3440002,-0.006897219
0.3430002,-0.006983052
0.3420002,-0.007065821
0.3410002,-0.007145523
0.3400002,-0.007231356
0.3390002,-0.007314125
0.3380002,-0.007399958
0.3370002,-0.007482726
0.3360002,-0.007565494
0.3350002,-0.007651328
0.3340002,-0.007734096
0.3330002,-0.007816863
0.3320002,-0.007902697
0.3310002,-0.007985465
0.3300002,-0.008071299
0.3290002,-0.008154066
0.3280002,-0.00823377
0.3270002,-0.008322668
0.3260002,-0.008399305
0.3250002,-0.008485138
0.3240002,-0.008567907
0.3230002,-0.008644544
0.3220002,-0.008727312
0.3210002,-0.00881008
0.3200002,-0.008886717
0.3190002,-0.00896642
0.3180002,-0.009043057
0.3170002,-0.009119694
0.3160002,-0.009199396
0.3150002,-0.009272968
0.3140002,-0.00934654
0.3130002,-0.009423177
0.3120002,-0.009493683
0.3110002,-0.009567254
0.3100002,-0.009643891
0.3090002,-0.009711332
0.3080002,-0.009781837
0.3070002,-0.00985541
0.3060002,-0.009925916
0.3050002,-0.009990291
0.3040002,-0.01005467
0.3030002,-0.01012211
0.3020002,-0.01018035
0.3010002,-0.01024473
0.3000002,-0.01030604
0.2990002,-0.01035815
0.2980002,-0.01041946
0.2970002,-0.01047157
0.2960002,-0.01051449
0.2950002,-0.01056967
0.2940002,-0.01060952
0.2930002,-0.01064631
0.2920002,-0.01068309
0.2910002,-0.01070455
0.2900002,-0.01072294
0.2890002,-0.01073214
0.2880002,-0.0107352
0.2870002,-0.01072294
0.2860002,-0.01069842
0.2850002,-0.0106647
0.2840002,-0.01060645
0.2830002,-0.01053288
0.2820002,-0.01043172
0.2810002,-0.01029684
0.2800002,-0.01013744
0.2790002,-0.00992285
0.2780002,-0.009659219
0.2770002,-0.009343474
0.2760002,-0.008978682
0.2750002,-0.008598561
0.2740002,-0.008203114
0.2730002,-0.007795405
0.2720002,-0.007415285
0.2710002,-0.007056624
0.2700002,-0.006707159
0.2690002,-0.006403676
0.2680002,-0.006133914
0.2670002,-0.005876414
0.2660002,-0.005658764
0.2650002,-0.005459507
0.2640002,-0.005269447
0.2630002,-0.005106977
0.2620002,-0.004947572
0.2610002,-0.004797364
0.2600002,-0.004662482
0.2590002,-0.004533732
0.2580002,-0.004411113
0.2570002,-0.004294624
0.2560002,-0.004181202
0.2550002,-0.004073909
0.2540002,-0.003975814
0.2530002,-0.003877719
0.2520002,-0.003785754
0.2510002,-0.003699921
0.2500002,-0.003617153
0.2490002,-0.00353745
0.2480002,-0.003460813
0.2470002,-0.003387242
0.2460002,-0.003316735
0.2450002,-0.00325236
0.2440002,-0.003187985
0.2430002,-0.003126675
0.2420002,-0.003071497
0.2410002,-0.003016318
0.2400002,-0.002964205
0.2390002,-0.002915157
0.2380002,-0.002863044
0.2370002,-0.002817062
0.2360002,-0.002774145
0.2350002,-0.002728163
0.2340002,-0.002685246
0.2330002,-0.002645395
0.2320002,-0.002605543
0.2310002,-0.002568757
0.2300002,-0.002531972
0.2290002,-0.002495186
0.2280002,-0.002461466
0.2270002,-0.00242468
0.2260002,-0.00239096
0.2250002,-0.002360305
0.2240002,-0.00232965
0.2230002,-0.002298995
0.2220002,-0.002271406
0.2210002,-0.002240751
0.2200002,-0.002213162
0.2190002,-0.002188638
0.2180002,-0.002161048
0.2170002,-0.002133459
0.2160002,-0.002108935
0.2150002,-0.002084411
0.2140002,-0.002059887
0.2130002,-0.002035364
0.2120002,-0.002013905
0.2110002,-0.001992447
0.2100002,-0.001967923
0.2090002,-0.001946465
0.2080002,-0.001925006
0.2070002,-0.001906613
0.2060002,-0.001885155
0.2050002,-0.001866762
0.2040002,-0.001845304
0.2030002,-0.001826911
0.2020002,-0.001808518
0.2010002,-0.001790125
0.2000002,-0.001771732
0.1990002,-0.001756405
0.1980002,-0.001738012
0.1970002,-0.001719619
0.1960002,-0.001704292
0.1950002,-0.001688964
0.1940002,-0.001670571
0.1930002,-0.001655244
0.1920002,-0.001639916
0.1910002,-0.001624589
0.1900002,-0.001609262
0.1890002,-0.001632051
0.1880002,-0.001617337
0.1870002,-0.001603236
0.1860002,-0.001589748
0.1850002,-0.001575646
0.1840002,-0.001562158
0.1830002,-0.001549283
0.1820002,-0.001536102
0.1810002,-0.001523533
0.1800002,-0.001510965
0.1790002,-0.00149809
0.1780002,-0.001486134
0.1770002,-0.001474179
0.1760002,-0.001461917
0.1750002,-0.001450881
0.1740002,-0.001439232
0.1730002,-0.001428197
0.1720002,-0.001417161
0.1710002,-0.001406125
0.1700002,-0.001394783
0.1690002,-0.00138436
0.1680002,-0.001373938
0.1670002,-0.001363822
0.1660002,-0.001353706
0.1650002,-0.00134359
0.1640002,-0.001333473
0.1630002,-0.001323664
0.1620002,-0.001313854
0.1610002,-0.001304351
0.1600002,-0.001295155
0.1590002,-0.001286265
0.1580002,-0.001276762
0.1570002,-0.001267872
0.1560002,-0.001259289
0.1550002,-0.001250399
0.1540002,-0.001241815
0.1530002,-0.001233539
0.1520002,-0.001224649
0.1510002,-0.001216678
0.1500002,-0.001208708
0.1490002,-0.001200431
0.1480002,-0.001192461
0.1470002,-0.001184797
0.1460002,-0.001176827
0.1450002,-0.001169164
0.1440002,-0.0011615
0.1430002,-0.001154143
0.1420002,-0.001146479
0.1410002,-0.001139122
0.1400002,-0.001131765
0.1390002,-0.001125021
0.1380002,-0.00111797
0.1370002,-0.001110919
0.1360002,-0.001103869
0.1350002,-0.001097125
0.1340002,-0.001090381
0.1330002,-0.001083637
0.1320002,-0.001077199
0.1310002,-0.001070761
0.1300002,-0.001064631
0.1290002,-0.001058193
0.1280002,-0.001051756
0.1270002,-0.001045624
0.1260002,-0.001039187
0.1250002,-0.001033363
0.1240002,-0.001027232
0.1230002,-0.001021101
0.1220002,-0.001015583
0.1210002,-0.001009758
0.1200002,-0.001003934
0.1190002,-0.0009984161
0.1180002,-0.0009928982
0.1170002,-0.0009870738
0.1160002,-0.0009815559
0.1150002,-0.0009763446
0.1140002,-0.0009708267
0.1130002,-0.0009656154
0.1120002,-0.0009600975
0.1110002,-0.0009548862
0.1100002,-0.0009496749
0.1090002,-0.0009447701
0.1080002,-0.0009395588
0.1070002,-0.000934654
0.1060002,-0.0009297492
0.1050002,-0.000925151
0.1040002,-0.0009199397
0.1030002,-0.0009150349
0.1020002,-0.0009104367
0.1010002,-0.0009058384
0.1000002,-0.0009012403
0.09900019,-0.000896642
0.09800019,-0.0008920438
0.09700019,-0.0008874455
0.09600019,-0.0008828474
0.09500019,-0.0008785557
0.09400019,-0.0008739574
0.09300019,-0.0008696658
0.09200019,-0.0008653741
0.09100019,-0.0008607759
0.09000019,-0.0008567907
0.08900019,-0.0008528056
0.08800019,-0.000848514
0.08700019,-0.0008442223
0.08600019,-0.0008402371
0.08500019,-0.000836252
0.08400019,-0.0008322669
0.08300019,-0.0008282817
0.08200019,-0.0008242966
0.08100019,-0.0008206181
0.08000019,-0.0008166329
0.07900019,-0.0008129543
0.07800019,-0.0008092758
0.07700019,-0.0008052906
0.07600019,-0.000801612
0.07500019,-0.0007979335
0.07400019,-0.0007939483
0.07300019,-0.0007905763
0.07200019,-0.0007868978
0.07100019,-0.0007835258
0.07000019,-0.0007798471
0.06900019,-0.0007764751
0.06800019,-0.0007731031
0.06700019,-0.0007694245
0.06600019,-0.0007660525
0.06500019,-0.0007626804
0.06400019,-0.0007593084
0.06300019,-0.0007562429
0.06200019,-0.0007528709
0.06100019,-0.0007494989
0.06000019,-0.0007464333
0.05900019,-0.0007430614
0.05800019,-0.0007399959
0.05700019,-0.0007369304
0.05600019,-0.0007338649
0.05500019,-0.0007304929
0.05400019,-0.0007277339
0.05300019,-0.0007246684
0.05200019,-0.0007216029
0.05100019,-0.0007185375
0.05000019,-0.000715472
0.04900019,-0.0007121
0.04800019,-0.000709341
0.04700019,-0.0007065821
0.04600019,-0.0007035166
0.04500019,-0.0007007577
0.04400019,-0.0006979987
0.04300019,-0.0006949333
0.04200019,-0.0006921744
0.04100019,-0.0006894154
0.04000019,-0.0006863499
0.03900019,-0.0006838975
0.03800019,-0.0006808321
0.03700019,-0.0006780731
0.03600019,-0.0006756207
0.03500019,-0.0006728618
0.03400019,-0.0006704094
0.03300019,-0.0006676505
0.03200019,-0.0006651981
0.03100019,-0.0006624392
0.03000019,-0.0006599867
0.02900019,-0.0006572278
0.02800019,-0.0006550819
0.02700019,-0.0006526296
0.02600019,-0.0006498707
0.02500019,-0.0006474183
0.02400019,-0.0006449659
0.02300019,-0.0006425135
0.02200019,-0.0006400611
0.02100019,-0.0006376088
0.02000019,-0.0006348498
0.01900019,-0.000632704
0.01800019,-0.0006302515
0.01700019,-0.0006277992
0.01600019,-0.0006253468
0.01500019,-0.000623201
0.01400019,-0.0006207486
0.01300019,-0.0006186027
0.01200019,-0.0006161503
0.01100019,-0.000613698
0.01000019,-0.0006115522
0.009000191,-0.0006094063
0.00800019,-0.0006072604
0.007000191,-0.0006051146
0.006000191,-0.0006026622
0.005000191,-0.0006005164
0.004000191,-0.0005986771
0.003000191,-0.0005965313
0.002000191,-0.0005943854
0.001000191,-0.0005922396
1.907349E-07,-0.0005848824
0.0009998092,-0.0005723139
0.001999809,-0.0005615847
0.002999809,-0.0005514687
0.003999809,-0.0005422722
0.004999809,-0.0005336889
0.005999809,-0.0005251055
0.006999809,-0.0005174418
0.007999809,-0.0005100847
0.00899981,-0.0005027275
0.009999809,-0.0004959835
0.01099981,-0.0004892393
0.01199981,-0.0004828018
0.01299981,-0.0004766709
0.01399981,-0.0004708465
0.01499981,-0.0004650221
0.01599981,-0.0004595042
0.01699981,-0.0004539863
0.01799981,-0.000448775
0.01899981,-0.0004435637
0.01999981,-0.0004386589
0.02099981,-0.0004337541
0.02199981,-0.0004288494
0.02299981,-0.0004242511
0.02399981,-0.0004196529
0.02499981,-0.0004150547
0.02599981,-0.0004104565
0.02699981,-0.0004061648
0.02799981,-0.0004018731
0.02899981,-0.000397888
0.02999981,-0.0003939029
0.03099981,-0.0003899177
0.03199981,-0.0003859326
0.03299981,-0.0003819475
0.03399981,-0.0003782689
0.03499981,-0.0003742838
0.03599981,-0.0003706052
0.03699981,-0.0003669266
0.03799981,-0.0003635546
0.03899981,-0.000359876
0.03999981,-0.000356504
0.04099981,-0.0003531319
0.04199981,-0.0003497599
0.04299981,-0.0003463879
0.04399981,-0.0003433224
0.04499981,-0.0003399504
0.04599981,-0.0003365783
0.04699981,-0.0003335129
0.04799981,-0.0003301408
0.04899981,-0.0003270753
0.04999981,-0.0003243164
0.05099981,-0.0003212509
0.05199981,-0.0003181854
0.05299981,-0.0003151199
0.05399981,-0.000312361
0.05499981,-0.0003092955
0.05599981,-0.0003065366
0.05699981,-0.0003037777
0.05799981,-0.0003007122
0.05899981,-0.0002982598
0.05999981,-0.0002955009
0.06099981,-0.0002927419
0.06199981,-0.0002902895
0.06299981,-0.0002875306
0.06399981,-0.0002850782
0.06499981,-0.0002826258
0.06599981,-0.0002798669
0.06699981,-0.0002774145
0.06799981,-0.0002749621
0.06899981,-0.0002725097
0.06999981,-0.0002700574
0.07099981,-0.0002676049
0.07199981,-0.0002651526
0.07299981,-0.0002630067
0.07399981,-0.0002605543
0.07499981,-0.000258102
0.07599981,-0.0002559561
0.07699981,-0.0002538103
0.07799981,-0.0002516645
0.07899981,-0.0002492121
0.07999981,-0.0002470662
0.08099981,-0.0002446139
0.08199981,-0.000242468
0.08299981,-0.0002406287
0.08399981,-0.0002384829
0.08499981,-0.000236337
0.08599981,-0.0002341912
0.08699981,-0.0002320454
0.08799981,-0.0002298995
0.08899981,-0.0002280602
0.08999981,-0.0002259144
0.09099981,-0.0002240751
0.09199981,-0.0002222358
0.09299981,-0.00022009
0.09399981,-0.0002182507
0.09499981,-0.0002161049
0.09599981,-0.0002142656
0.09699981,-0.0002124263
0.09799981,-0.0002108935
0.09899981,-0.0002090542
0.09999981,-0.0002069084
0.1009998,-0.0002053757
0.1019998,-0.0002032298
0.1029998,-0.0002013905
0.1039998,-0.0001995512
0.1049998,-0.0001980185
0.1059998,-0.0001961792
0.1069998,-0.0001946465
0.1079998,-0.0001928072
0.1089998,-0.0001912744
0.1099998,-0.0001894352
0.1109998,-0.0001879024
0.1119998,-0.0001860631
0.1129998,-0.0001845304
0.1139998,-0.0001829976
0.1149998,-0.0001814649
0.1159998,-0.0001796256
0.1169998,-0.0001780929
0.1179998,-0.0001765601
0.1189998,-0.0001747208
0.1199998,-0.0001734946
0.1209998,-0.0001719619
0.1219998,-0.0001704292
0.1229998,-0.0001688964
0.1239998,-0.0001673637
0.1249998,-0.0001658309
0.1259998,-0.0001642982
0.1269998,-0.0001627655
0.1279998,-0.0001615393
0.1289998,-0.0001600065
0.1299998,-0.0001619176
0.1309998,-0.0001605688
0.1319998,-0.0001591894
0.1329998,-0.0001578099
0.1339998,-0.0001563691
0.1349998,-0.000154959
0.1359998,-0.0001536102
0.1369998,-0.0001522001
0.1379998,-0.0001507899
0.1389998,-0.0001494718
0.1399998,-0.0001480923
0.1409998,-0.0001468355
0.1419998,-0.0001455786
0.1429998,-0.0001442605
0.1439998,-0.0001430649
0.1449998,-0.0001418081
0.1459998,-0.0001404899
0.1469998,-0.000139233
0.1479998,-0.0001379455
0.1489998,-0.0001366274
0.1499998,-0.0001354932
0.1509998,-0.000134267
0.1519998,-0.0001330101
0.1529998,-0.0001318146
0.1539998,-0.0001306804
0.1549998,-0.0001295155
0.1559998,-0.0001283506
0.1569998,-0.0001271857
0.1579998,-0.0001260821
0.1589998,-0.0001248866
0.1599998,-0.0001237524
0.1609998,-0.0001225262
0.1619998,-0.0001213306
0.1629998,-0.0001202271
0.1639998,-0.0001190928
0.1649998,-0.0001180199
0.1659998,-0.000116947
0.1669998,-0.0001158434
0.1679998,-0.0001148318
0.1689998,-0.0001137282
0.1699998,-0.0001127166
0.1709998,-0.0001116744
0.1719998,-0.0001106628
0.1729998,-0.0001096205
0.1739998,-0.0001085476
0.1749998,-0.0001075053
0.1759998,-0.0001065244
0.1769998,-0.0001054821
0.1779998,-0.0001043785
0.1789998,-0.0001033976
0.1799998,-0.0001023553
0.1809998,-0.0001013437
0.1819998,-0.0001003627
0.1829998,-9.938178E-05
0.1839998,-9.849279E-05
0.1849998,-9.754248E-05
0.1859998,-9.656153E-05
0.1869998,-9.567254E-05
0.1879998,-9.469159E-05
0.1889998,-9.38026E-05
0.1899998,-9.291361E-05
0.1909998,-9.193265E-05
0.1919998,-9.107432E-05
0.1929998,-9.018533E-05
0.1939998,-8.926568E-05
0.1949998,-8.837669E-05
0.1959998,-8.742639E-05
0.1969998,-8.656806E-05
0.1979998,-8.561776E-05
0.1989998,-8.472877E-05
0.1999998,-8.380912E-05
0.2009998,-8.292013E-05
0.2019998,-8.20618E-05
0.2029998,-8.123412E-05
0.2039998,-8.034513E-05
0.2049998,-7.945613E-05
0.2059998,-7.872043E-05
0.2069998,-7.783144E-05
0.2079998,-7.706506E-05
0.2089998,-7.623738E-05
0.2099998,-7.537904E-05
0.2109998,-7.458202E-05
0.2119998,-7.369304E-05
0.2129998,-7.292666E-05
0.2139998,-7.219095E-05
0.2149998,-7.139392E-05
0.2159998,-7.056624E-05
0.2169998,-6.979987E-05
0.2179998,-6.900284E-05
0.2189998,-6.823648E-05
0.2199998,-6.743945E-05
0.2209998,-6.664242E-05
0.2219998,-6.587605E-05
0.2229998,-6.517099E-05
0.2239998,-6.440462E-05
0.2249998,-6.363825E-05
0.2259998,-6.284122E-05
0.2269998,-6.213617E-05
0.2279998,-6.133914E-05
0.2289998,-6.063408E-05
0.2299998,-5.989836E-05
0.2309998,-5.910133E-05
0.2319998,-5.833496E-05
0.2329998,-5.75686E-05
0.2339998,-5.683288E-05
0.2349998,-5.609716E-05
0.2359998,-5.530014E-05
0.2369998,-5.453377E-05
0.2379998,-5.379805E-05
0.2389998,-5.306234E-05
0.2399998,-5.229596E-05
0.2409998,-5.162156E-05
0.2419998,-5.085519E-05
0.2429998,-5.015012E-05
0.2439998,-4.938375E-05
0.2449998,-4.86787E-05
0.2459998,-4.794298E-05
0.2469998,-4.723792E-05
0.2479998,-4.653286E-05
0.2489998,-4.58278E-05
0.2499998,-4.509208E-05
0.2509998,-4.438702E-05
0.2519998,-4.368196E-05
0.2529998,-4.294624E-05
0.2539998,-4.233315E-05
0.2549998,-4.153612E-05
0.2559998,-4.086172E-05
0.2569998,-4.015665E-05
0.2579998,-3.935963E-05
0.2589998,-3.85626E-05
0.2599998,-3.776558E-05
0.2609998,-3.706052E-05
0.2619998,-3.63248E-05
0.2629998,-3.561974E-05
0.2639998,-3.491468E-05
0.2649998,-3.427093E-05
0.2659998,-3.350456E-05
0.2669998,-3.27995E-05
0.2679998,-3.206378E-05
0.2689998,-3.114414E-05
0.2699998,-3.037777E-05
0.2709998,-2.958074E-05
0.2719998,-2.887568E-05
0.2729998,-2.810931E-05
0.2739998,-2.737359E-05
0.2749998,-2.660722E-05
0.2759998,-2.58102E-05
0.2769998,-2.498252E-05
0.2779998,-2.412418E-05
0.2789998,-2.320453E-05
0.2799998,-2.249947E-05
0.2809998,-2.167179E-05
0.2819998,-2.07828E-05
0.2829998,-2.001643E-05
0.2839998,-1.912744E-05
0.2849998,-1.833042E-05
0.2859998,-1.747208E-05
0.2869998,-1.655244E-05
0.2879998,-1.572476E-05
0.2889998,-1.483577E-05
0.2899998,-1.391612E-05
0.2909998,-1.296582E-05
0.2919998,-1.222196E-05
0.2929998,-1.127779E-05
0.2939998,-1.032136E-05
0.2949998,-9.312819E-06
0.2959998,-8.252162E-06
0.2969998,-7.209898E-06
0.2979998,-6.121652E-06
0.2989998,-5.119239E-06
0.2999998,-3.972749E-06
0.3009998,-2.896764E-06
0.3019998,-1.817714E-06
0.3029998,-6.129798E-07
0.3039998,4.997904E-07
0.3049998,1.661608E-06
0.3059998,2.915391E-06
0.3069998,4.205959E-06
0.3079998,5.401497E-06
0.3089998,6.682868E-06
0.3099998,7.93052E-06
0.3109998,9.319184E-06
0.3119998,1.064347E-05
0.3129998,1.205359E-05
0.3139998,1.355261E-05
0.3149998,1.495047E-05
0.3159998,1.657212E-05
0.3169998,1.818149E-05
0.3179998,1.982153E-05
0.3189998,2.147076E-05
0.3199998,2.316904E-05
0.3209998,2.516878E-05
0.3219998,2.697741E-05
0.3229998,2.878605E-05
0.3239998,3.07173E-05
0.3249998,3.258725E-05
0.3259998,3.457981E-05
0.3269998,3.669499E-05
0.3279998,3.884083E-05
0.3289998,4.107863E-05
0.3299998,4.331644E-05
0.3309998,4.570751E-05
0.3319998,4.834383E-05
0.3329998,5.085752E-05
0.3339998,5.35858E-05
0.3349998,5.646735E-05
0.3359998,5.941022E-05
0.3369998,6.256767E-05
0.3379998,6.59397E-05
0.3389998,6.925042E-05
0.3399998,7.299031E-05
0.3409998,7.676085E-05
0.3419998,8.071532E-05
0.3429998,8.506831E-05
0.3439998,8.960522E-05
0.3449998,9.450999E-05
0.3459998,9.999721E-05
0.3469998,0.0001055151
0.3479998,0.0001119526
0.3489998,0.0001187273
0.3499998,0.0001260845
0.3509998,0.0001343306
0.3519998,0.0001434657
0.3529998,0.0001536125
0.3539998,0.0001650774
0.3549998,0.0001778605
0.3559998,0.0001925135
0.3569998,0.0002088832
0.3579998,0.0002277972
0.3589998,0.0002498993
0.3599998,0.0002750056
0.3609998,0.0003051087
0.3619998,0.0003442654
0.3629998,0.000386569
0.3639998,0.0004386822
0.3649998,0.0005024443
0.3659998,0.0005803076
0.3669998,0.000675031
0.3679998,0.0007884538
0.3689998,0.0009230285
0.3699998,0.001076303
0.3709998,0.001248889
0.3719998,0.00143803
0.3729998,0.00163606
0.3739998,0.001843286
0.3749998,0.002054192
0.3759998,0.002262338
0.3769998,0.002469871
0.3779998,0.0026725
0.3789998,0.002867771
0.3799998,0.003059363
0.3809998,0.003270986
0.3819998,0.003448785
0.3829998,0.003623517
0.3839998,0.003795184
0.3849998,0.003963786
0.3859998,0.004132387
0.3869998,0.004297923
0.3879998,0.004466525
0.3889998,0.004632061
0.3899998,0.004797597
0.3909998,0.004966198
0.3919998,0.0051348
0.3929998,0.005306467
0.3939998,0.005481199
0.3949998,0.005655932
0.3959998,0.00583373
0.3969998,0.006014594
0.3979998,0.006198522
0.3989998,0.006382451
0.3999998,0.006572511
0.4009998,0.006765637
0.4019998,0.006958762
0.4029998,0.007158018
0.4039998,0.00736034
0.4049998,0.007562662
0.4059998,0.007771115
0.4069998,0.007979568
0.4079998,0.00818802
0.4089998,0.008408736
0.4099998,0.008632516
0.4109998,0.008850165
0.4119998,0.009077011
0.4129998,0.009297726
0.4139998,0.009521506
0.4149998,0.009751417
0.4159998,0.009978263
0.4169998,0.01021124
0.4179998,0.01044115
0.4189998,0.01067413
0.4199998,0.0109071
0.4209998,0.01113701
0.4219998,0.01136999
0.4229998,0.01160603
0.4239998,0.01183288
0.4249998,0.01206585
0.4259998,0.01229577
0.4269998,0.01252261
0.4279998,0.01275252
0.4289998,0.01297017
0.4299998,0.01319702
0.4309998,0.01341773
0.4319998,0.01362925
0.4329998,0.0138469
0.4339998,0.01405842
0.4349998,0.01425461
0.4359998,0.01446
0.4369998,0.01465619
0.4379998,0.01484318
0.4389998,0.01503018
0.4399998,0.01521104
0.4409998,0.01538271
0.4419998,0.01555131
0.4429998,0.01571378
0.4439998,0.01586705
0.4449998,0.01600807
0.4459998,0.01615214
0.4469998,0.01628089
0.4479998,0.01640351
0.4489998,0.01652307
0.4499998,0.01662729
0.4509998,0.01671926
0.4519998,0.01681429
0.4529998,0.01689399
0.4539998,0.0169553
0.4549998,0.01702581
0.4559998,0.01707485
0.4569998,0.01711471
0.4579998,0.01715762
0.4589998,0.01717602
0.4599998,0.01719747
0.4609998,0.0172036
0.4619998,0.01720054
0.4629998,0.01719747
0.4639998,0.01717602
0.4649998,0.01715149
0.4659998,0.0171239
0.4669998,0.01708099
0.4679998,0.01703807
0.4689998,0.01699515
0.4699998,0.01693384
0.4709998,0.01687866
0.4719998,0.01682348
0.4729998,0.01675911
0.4739998,0.01669473
0.4749998,0.01663955
0.4759998,0.01657825
0.4769998,0.01651694
0.4779998,0.01648015
0.4789998,0.01643417
0.4799998,0.01640045
0.4809998,0.01637899
0.4819998,0.0163606
0.4829998,0.01636673
0.4839998,0.01638206
0.4849998,0.01640351
0.4859998,0.01645563
0.4869998,0.01651387
0.4879998,0.01658744
0.4889998,0.01669167
0.4899998,0.01680509
0.4909998,0.01692465
0.4919998,0.01707792
0.4929998,0.01723732
0.4939998,0.01740593
0.4949998,0.01760825
0.4959998,0.0178075
0.4969998,0.01802822
0.4979998,0.01827346
0.4989998,0.01850643
0.4999998,0.018767
0.5009998,0.01903676
0.5019998,0.01930652
0.5029998,0.01958548
0.5039998,0.0198859
0.5049998,0.02018632
0.5059998,0.0204898
0.5069998,0.02080861
0.5079998,0.02112436
0.5089998,0.02144317
0.5099998,0.02177731
0.5109998,0.02211144
0.5119998,0.02245478
0.5129998,0.02280424
0.5139998,0.02315064
0.5149998,0.02350624
0.5159998,0.02386183
0.5169998,0.02421436
0.5179998,0.02458222
0.5189998,0.02495315
0.5199998,0.02530874
0.5209998,0.02568886
0.5219998,0.02605672
0.5229998,0.02642458
0.5239998,0.02681389
0.5249998,0.02718788
0.5259998,0.02756187
0.5269998,0.02795732
0.5279998,0.02833437
0.5289998,0.02871756
0.5299998,0.02910994
0.5309998,0.02950232
0.5319998,0.02989164
0.5329998,0.03102385
0.5339998,0.03142237
0.5349998,0.03182088
0.5359998,0.03221939
0.5369998,0.03264856
0.5379998,0.03304707
0.5389998,0.03344558
0.5399998,0.03384409
0.5409998,0.03424261
0.5419998,0.03467178
0.5429998,0.03507029
0.5439998,0.03549946
0.5449998,0.03589797
0.5459998,0.03629648
0.5469998,0.03672565
0.5479998,0.03715482
0.5489998,0.03758398
0.5499998,0.0379825
0.5509998,0.03844232
0.5519998,0.03884083
0.5529998,0.03927
0.5539998,0.03969917
0.5549998,0.04009768
0.5559998,0.0405575
0.5569998,0.04098667
0.5579998,0.04138518
0.5589998,0.04184501
0.5599998,0.04227417
0.5609998,0.04267269
0.5619998,0.04313251
0.5629998,0.04356168
0.5639998,0.04399084
0.5649998,0.04442001
0.5659998,0.04484918
0.5669998,0.045309
0.5679998,0.04573817
0.5689998,0.04616734
0.5699998,0.04662716
0.5709998,0.04705633
0.5719998,0.04748549
0.5729998,0.04794532
0.5739998,0.04837449
0.5749998,0.04880365
0.5759998,0.04926347
0.5769998,0.04969264
0.5779998,0.05012181
0.5789998,0.05058163
0.5799998,0.05098015
0.5809998,0.05143997
0.5819998,0.05189979
0.5829998,0.05232896
0.5839998,0.05275812
0.5849998,0.05321795
0.5859998,0.05367777
0.5869998,0.05413759
0.5879998,0.05456676
0.5889998,0.05499592
0.5899998,0.05545575
0.5909998,0.05591557
0.5919998,0.05634474
0.5929998,0.05680456
0.5939998,0.05726438
0.5949998,0.05769355
0.5959998,0.05818403
0.5969998,0.05864385
0.5979998,0.05904236
0.5989998,0.05953284
0.5999998,0.05999266
0.6009998,0.06042183
0.6019998,0.06088165
0.6029998,0.06137213
0.6039998,0.0618013
0.6049998,0.06226112
0.6059998,0.06272095
0.6069998,0.06315011
0.6079998,0.06360994
0.6089998,0.06410041
0.6099998,0.06452958
0.6109998,0.0649894
0.6119998,0.06544922
0.6129998,0.06587839
0.6139998,0.06636887
0.6149998,0.06682869
0.6159998,0.06725786
0.6169998,0.06774833
0.6179998,0.06817751
0.6189998,0.06863733
0.6199998,0.06915846
0.6209998,0.06958763
0.6219998,0.07004745
0.6229998,0.07053792
0.6239998,0.07099774
0.6249998,0.07142691
0.6259998,0.07191739
0.6269998,0.07237721
0.6279998,0.07280638
0.6289998,0.07332751
0.6299998,0.07375668
0.6309998,0.07421651
0.6319998,0.07467633
0.6329998,0.07516681
0.6339998,0.07559597
0.6349998,0.07605579
0.6359998,0.07654627
0.6369998,0.07700609
0.6379998,0.07746591
0.6389998,0.07795639
0.6399998,0.07841621
0.6409998,0.07887604
0.6419998,0.07933586
0.6429998,0.07979568
0.6439998,0.08028616
0.6449998,0.08074598
0.6459998,0.08120581
0.6469998,0.08169628
0.6479998,0.08212545
0.6489998,0.08261593
0.6499998,0.0831064
0.6509998,0.08353557
0.6519998,0.08399539
0.6529998,0.08448587
0.6539998,0.08494569
0.6549998,0.08543617
0.6559998,0.08589599
0.6569998,0.08635581
0.6579998,0.08684629
0.6589998,0.08730611
0.6599998,0.08779659
0.6609998,0.08825641
0.6619998,0.08868558
0.6629998,0.08920672
0.6639998,0.08963588
0.6649998,0.0900957
0.6659998,0.09064749
0.6669998,0.09107666
0.6679998,0.09153648
0.6689998,0.09205761
0.6699998,0.09251743
0.6709998,0.09297726
0.6719998,0.09346773
0.6729998,0.09392755
0.6739998,0.09438737
0.6749998,0.09490851
0.6759998,0.09533768
0.6769998,0.09582815
0.6779998,0.09634929
0.6789998,0.09680911
0.6799998,0.09726893
0.6809998,0.09779006
0.6819998,0.09821923
0.6829998,0.09870971
0.6839998,0.09916953
0.6849998,0.09962936
0.6859998,0.1001198
0.6869998,0.1005796
0.6879998,0.1010395
0.6889998,0.1015606
0.6899998,0.1020204
0.6909998,0.1024496
0.6919998,0.1029401
0.6929998,0.1034305
0.6939998,0.1038904
0.6949998,0.1043808
0.6959998,0.104902
0.6969998,0.1053618
0.6979998,0.1058523
0.6989998,0.1063121
0.6999998,0.1064347
0.6990003,0.1059442
0.6980003,0.1054538
0.6970003,0.1049939
0.6960003,0.1045648
0.6950003,0.1040743
0.6940003,0.1036145
0.6930003,0.103124
0.6920003,0.1026335
0.6910003,0.1022043
0.6900003,0.1017139
0.6890003,0.1012234
0.6880003,0.1007942
0.6870003,0.1003038
0.6860003,0.09984394
0.6850003,0.09935346
0.6840003,0.09889363
0.6830003,0.09837251
0.6820003,0.09791268
0.6810003,0.09745286
0.6800003,0.09699304
0.6790003,0.09653322
0.6780003,0.0960734
0.6770003,0.09558292
0.6760003,0.0951231
0.6750003,0.09466327
0.6740003,0.0941728
0.6730003,0.09374363
0.6720003,0.09325315
0.6710003,0.09276267
0.6700003,0.09230285
0.6690003,0.09181237
0.6680003,0.09132189
0.6670003,0.09092338
0.6660003,0.09040225
0.6650003,0.08991177
0.6640003,0.08951326
0.6630003,0.08899213
0.6620003,0.08853231
0.6610003,0.08807249
0.6600003,0.08758201
0.6590003,0.08712219
0.6580003,0.08666236
0.6570003,0.08617189
0.6560003,0.08574272
0.6550003,0.08525224
0.6540003,0.08479242
0.6530003,0.08433259
0.6520003,0.08387277
0.6510003,0.0833823
0.6500003,0.08292247
0.6490003,0.08246265
0.6480003,0.08197217
0.6470003,0.08154301
0.6460003,0.08108319
0.6450003,0.08062336
0.6440003,0.08016354
0.6430003,0.07970371
0.6420003,0.07921324
0.6410003,0.07878407
0.6400003,0.07832425
0.6390003,0.07783377
0.6380003,0.0774046
0.6370003,0.07691412
0.6360003,0.07642365
0.6350003,0.07596382
0.6340003,0.075504
0.6330003,0.07504418
0.6320003,0.07461502
0.6310003,0.07412454
0.6300003,0.07366472
0.6290003,0.07323555
0.6280003,0.07274507
0.6270003,0.07228525
0.6260003,0.07185608
0.6250003,0.0713656
0.6240003,0.07090578
0.6230003,0.07047661
0.6220003,0.07001679
0.6210003,0.06952631
0.6200003,0.06909715
0.6190003,0.06860667
0.6180003,0.06814685
0.6170003,0.06768703
0.6160003,0.06722721
0.6150003,0.06679803
0.6140003,0.06630756
0.6130003,0.06584774
0.6120003,0.06541856
0.6110003,0.06495874
0.6100003,0.06449892
0.6090003,0.0640391
0.6080003,0.06357928
0.6070003,0.06315011
0.6060003,0.06269029
0.6050003,0.06223046
0.6040003,0.06177064
0.6030003,0.06131082
0.6020003,0.060851
0.6010003,0.06039118
0.6000003,0.059962
0.5990003,0.05950218
0.5980003,0.05907302
0.5970003,0.05861319
0.5960003,0.05815337
0.5950003,0.05769355
0.5940003,0.05723373
0.5930003,0.05680456
0.5920003,0.05634474
0.5910003,0.05588492
0.5900003,0.05545575
0.5890003,0.05499592
0.5880003,0.0545361
0.5870003,0.05410693
0.5860003,0.05367777
0.5850003,0.05318729
0.5840003,0.05275812
0.5830003,0.05232896
0.5820003,0.05186913
0.5810003,0.05143997
0.5800003,0.0510108
0.5790003,0.05055097
0.5780003,0.05009115
0.5770003,0.04969264
0.5760003,0.04920216
0.5750003,0.048773
0.5740003,0.04834383
0.5730003,0.04788401
0.5720003,0.04748549
0.5710003,0.04702567
0.5700003,0.04656585
0.5690003,0.04613668
0.5680003,0.04570751
0.5670003,0.04524769
0.5660003,0.04484918
0.5650003,0.04438936
0.5640003,0.04392953
0.5630003,0.04353102
0.5620003,0.0430712
0.5610003,0.04264203
0.5600003,0.04221286
0.5590003,0.0417837
0.5580003,0.04135453
0.5570003,0.04092536
0.5560003,0.04049619
0.5550003,0.04006703
0.5540003,0.03963786
0.5530003,0.03920869
0.5520003,0.03877952
0.5510003,0.03835035
0.5500003,0.03789053
0.5490003,0.03749202
0.5480003,0.03706285
0.5470003,0.03663369
0.5460003,0.03620452
0.5450003,0.035806
0.5440003,0.03534618
0.5430003,0.03494767
0.5420003,0.0345185
0.5410003,0.03411999
0.5400003,0.03369082
0.5390003,0.03329231
0.5380003,0.03286314
0.5370003,0.03243398
0.5360003,0.03203546
0.5350003,0.03160629
0.5340003,0.03120778
0.5330003,0.03077861
0.5320003,0.0303801
0.5310003,0.02995093
0.5300003,0.02955242
0.5290003,0.02915391
0.5280003,0.02872474
0.5270003,0.02832623
0.5260003,0.02792772
0.5250003,0.0275292
0.5240003,0.02710003
0.5230003,0.02673218
0.5220003,0.02633366
0.5210003,0.0259045
0.5200003,0.02553664
0.5190003,0.02510747
0.5180003,0.02470896
0.5170003,0.0243411
0.5160003,0.02394259
0.5150003,0.02354407
0.5140003,0.02314556
0.5130003,0.0227777
0.5120003,0.02237919
0.5110003,0.02198068
0.5100003,0.02161282
0.5090003,0.02121431
0.5080003,0.02084645
0.5070003,0.02044794
0.5060003,0.02008008
0.5050003,0.01968157
0.5040003,0.01931371
0.5030003,0.01894585
0.5020003,0.01857799
0.5010003,0.01824079
0.5000003,0.01787293
0.4990003,0.01750507
0.4980003,0.01713721
0.4970003,0.01676936
0.4960003,0.0164015
0.4950003,0.0160643
0.4940003,0.01569644
0.4930003,0.01532858
0.4920003,0.01499138
0.4910003,0.01462352
0.4900003,0.01428632
0.4890003,0.01394911
0.4880003,0.01361191
0.4870003,0.01327471
0.4860003,0.01243678
0.4850003,0.01210571
0.4840003,0.0117777
0.4830003,0.01145582
0.4820003,0.01113395
0.4810003,0.01081514
0.4800003,0.01049939
0.4790003,0.01018058
0.4780003,0.009870971
0.4770003,0.009564422
0.4760003,0.009254809
0.4750003,0.008957457
0.4740003,0.008653974
0.4730003,0.008356622
0.4720003,0.008068467
0.4710003,0.007777246
0.4700003,0.007492156
0.4690003,0.007210132
0.4680003,0.006931173
0.4670003,0.006655279
0.4660003,0.006385517
0.4650003,0.006115754
0.4640003,0.005852123
0.4630003,0.005591557
0.4620003,0.005337122
0.4610003,0.005082687
0.4600003,0.004834383
0.4590003,0.004595275
0.4580003,0.004350036
0.4570003,0.00411706
0.4560003,0.003887149
0.4550003,0.003654172
0.4540003,0.003433457
0.4530003,0.003218873
0.4520003,0.002998159
0.4510003,0.002792771
0.4500003,0.002587384
0.4490003,0.002385062
0.4480003,0.002188871
0.4470003,0.00199268
0.4460003,0.001811817
0.4450003,0.001627888
0.4440003,0.001447024
0.4430003,0.001275357
0.4420003,0.001073237
0.4410003,0.0009086208
0.4400003,0.0007498288
0.4390003,0.0005910367
0.4380003,0.0004411346
0.4370003,0.0002924587
0.4360003,0.0001459287
0.4350003,1.104741E-05
0.4340003,-0.0001302819
0.4330003,-0.0002611166
0.4320003,-0.0003865457
0.4310003,-0.000512537
0.4300003,-0.0006305581
0.4290003,-0.0007482726
0.4280003,-0.0008641479
0.4270003,-0.0009717464
0.4260003,-0.001078425
0.4250003,-0.001182038
0.4240003,-0.00128136
0.4230003,-0.001381908
0.4220003,-0.001476631
0.4210003,-0.001568596
0.4200003,-0.001658721
0.4190003,-0.001743941
0.4180003,-0.001830695
0.4170003,-0.001911623
0.4160003,-0.001991939
0.4150003,-0.002072561
0.4140003,-0.002147052
0.4130003,-0.00222185
0.4120003,-0.002296954
0.4110003,-0.002367461
0.4100003,-0.002445324
0.4090003,-0.002519815
0.4080003,-0.002583271
0.4070003,-0.002651631
0.4060003,-0.00271478
0.4050003,-0.002778848
0.4040003,-0.002843224
0.4030003,-0.002904533
0.4020003,-0.002969828
0.4010003,-0.003030524
0.4000003,-0.003056169
0.3990003,-0.003117479
0.3980003,-0.003175723
0.3970003,-0.003237033
0.3960003,-0.003301408
0.3950003,-0.003353521
0.3940003,-0.003417896
0.3930003,-0.00347614
0.3920003,-0.003534385
0.3910003,-0.00359876
0.3900003,-0.003657004
0.3890003,-0.003715248
0.3880003,-0.003779623
0.3870003,-0.003834802
0.3860003,-0.003896111
0.3850003,-0.003960487
0.3840003,-0.004018731
0.3830003,-0.004083106
0.3820003,-0.004144416
0.3810003,-0.004208791
0.3800003,-0.004270101
0.3790003,-0.00433141
0.3780003,-0.004398851
0.3770003,-0.00446016
0.3760003,-0.004524535
0.3750003,-0.004591976
0.3740003,-0.004653286
0.3730003,-0.004720726
0.3720003,-0.004791233
0.3710003,-0.004855608
0.3700003,-0.004926114
0.3690003,-0.00499662
0.3680003,-0.005060995
0.3670003,-0.005137632
0.3660003,-0.005205072
0.3650003,-0.005275579
0.3640003,-0.00534915
0.3630003,-0.005419657
0.3620003,-0.005493228
0.3610003,-0.005569865
0.3600003,-0.005640371
0.3590003,-0.005717008
0.3580003,-0.00579671
0.3570003,-0.005870283
0.3560003,-0.005946919
0.3550003,-0.006023556
0.3540003,-0.006100194
0.3530003,-0.00617683
0.3520003,-0.006256533
0.3510003,-0.006336236
0.3500003,-0.006415938
0.3490003,-0.006495641
0.3480003,-0.006575344
0.3470003,-0.006655046
0.3460003,-0.006740879
0.3450003,-0.006820582
0.3440003,-0.00690335
0.3430003,-0.006986118
0.3420003,-0.007065821
0.3410003,-0.007151654
0.3400003,-0.007234422
0.3390003,-0.007314125
0.3380003,-0.007399958
0.3370003,-0.00747966
0.3360003,-0.007562429
0.3350003,-0.007651328
0.3340003,-0.007724899
0.3330003,-0.007810732
0.3320003,-0.007896566
0.3310003,-0.007970138
0.3300003,-0.008059037
0.3290003,-0.00814487
0.3280003,-0.008215376
0.3270003,-0.008304276
0.3260003,-0.008390109
0.3250003,-0.008460615
0.3240003,-0.008543383
0.3230003,-0.008623085
0.3220003,-0.008696658
0.3210003,-0.008779425
0.3200003,-0.008859128
0.3190003,-0.008932699
0.3180003,-0.009009337
0.3170003,-0.009089039
0.3160003,-0.009159545
0.3150003,-0.009233117
0.3140003,-0.009312819
0.3130003,-0.009377195
0.3120003,-0.009450765
0.3110003,-0.009524337
0.3100003,-0.009591779
0.3090003,-0.009665349
0.3080003,-0.009729725
0.3070003,-0.009797165
0.3060003,-0.009867672
0.3050003,-0.009928982
0.3040003,-0.009990291
0.3030003,-0.01005773
0.3020003,-0.01010985
0.3010003,-0.01016502
0.3000003,-0.0102294
0.2990003,-0.01027845
0.2980003,-0.01032749
0.2970003,-0.01037961
0.2960003,-0.01041639
0.2950003,-0.01045318
0.2940003,-0.01048997
0.2930003,-0.01050836
0.2920003,-0.01052675
0.2910003,-0.01053595
0.2900003,-0.01053595
0.2890003,-0.01052675
0.2880003,-0.01049916
0.2870003,-0.01046238
0.2860003,-0.01041026
0.2850003,-0.01033056
0.2840003,-0.01023247
0.2830003,-0.01011598
0.2820003,-0.009953505
0.2810003,-0.009757314
0.2800003,-0.009524337
0.2790003,-0.009230051
0.2780003,-0.008889783
0.2770003,-0.008528056
0.2760003,-0.008135674
0.2750003,-0.007749423
0.2740003,-0.007384631
0.2730003,-0.007013707
0.2720003,-0.006685701
0.2710003,-0.006391414
0.2700003,-0.00610939
0.2690003,-0.005873348
0.2680003,-0.005652633
0.2670003,-0.005447246
0.2660003,-0.005272513
0.2650003,-0.005110043
0.2640003,-0.004953703
0.2630003,-0.004815756
0.2620003,-0.004683941
0.2610003,-0.004558256
0.2600003,-0.004441767
0.2590003,-0.004334475
0.2580003,-0.004227184
0.2570003,-0.004129088
0.2560003,-0.004037124
0.2550003,-0.003942094
0.2540003,-0.003853195
0.2530003,-0.003770427
0.2520003,-0.003687659
0.2510003,-0.003607956
0.2500003,-0.003531319
0.2490003,-0.003457748
0.2480003,-0.003384176
0.2470003,-0.00331367
0.2460003,-0.003246229
0.2450003,-0.003181854
0.2440003,-0.003120545
0.2430003,-0.0030623
0.2420003,-0.003007122
0.2410003,-0.002955008
0.2400003,-0.002902895
0.2390003,-0.002853847
0.2380003,-0.002807865
0.2370003,-0.002761883
0.2360003,-0.002718966
0.2350003,-0.002676049
0.2340003,-0.002636198
0.2330003,-0.002599412
0.2320003,-0.002559561
0.2310003,-0.002522775
0.2300003,-0.00248599
0.2290003,-0.002449204
0.2280003,-0.002418549
0.2270003,-0.002384829
0.2260003,-0.002354174
0.2250003,-0.002323519
0.2240003,-0.002292864
0.2230003,-0.002262209
0.2220003,-0.00223462
0.2210003,-0.002207031
0.2200003,-0.002179441
0.2190003,-0.002154917
0.2180003,-0.002130394
0.2170003,-0.00210587
0.2160003,-0.002081346
0.2150003,-0.002056822
0.2140003,-0.002032298
0.2130003,-0.00201084
0.2120003,-0.001986316
0.2110003,-0.001967923
0.2100003,-0.001943399
0.2090003,-0.001925006
0.2080003,-0.001903548
0.2070003,-0.001885155
0.2060003,-0.001863697
0.2050003,-0.001845304
0.2040003,-0.001826911
0.2030003,-0.001808518
0.2020003,-0.001790125
0.2010003,-0.001774798
0.2000003,-0.001756405
0.1990003,-0.001738012
0.1980003,-0.001722684
0.1970003,-0.001704292
0.1960003,-0.001688964
0.1950003,-0.001673637
0.1940003,-0.001658309
0.1930003,-0.001642982
0.1920003,-0.001627655
0.1910003,-0.001612327
0.1900003,-0.00163481
0.1890003,-0.001620403
0.1880003,-0.001606608
0.1870003,-0.001592813
0.1860003,-0.001579325
0.1850003,-0.001566143
0.1840003,-0.001552962
0.1830003,-0.001540087
0.1820003,-0.001527825
0.1810003,-0.001515256
0.1800003,-0.001502995
0.1790003,-0.001491039
0.1780003,-0.00147939
0.1770003,-0.001467742
0.1760003,-0.001456399
0.1750003,-0.00144475
0.1740003,-0.001434021
0.1730003,-0.001422985
0.1720003,-0.00141195
0.1710003,-0.001401527
0.1700003,-0.001391411
0.1690003,-0.001380988
0.1680003,-0.001370872
0.1670003,-0.001361063
0.1660003,-0.001351253
0.1650003,-0.001341444
0.1640003,-0.001331941
0.1630003,-0.001322438
0.1620003,-0.001313548
0.1610003,-0.001304351
0.1600003,-0.001294848
0.1590003,-0.001286265
0.1580003,-0.001277375
0.1570003,-0.001268485
0.1560003,-0.001260208
0.1550003,-0.001251625
0.1540003,-0.001243348
0.1530003,-0.001235071
0.1520003,-0.001226795
0.1510003,-0.001218824
0.1500003,-0.001211161
0.1490003,-0.00120319
0.1480003,-0.001195527
0.1470003,-0.001187863
0.1460003,-0.001180506
0.1450003,-0.001172842
0.1440003,-0.001165485
0.1430003,-0.001158128
0.1420003,-0.001150771
0.1410003,-0.001144027
0.1400003,-0.001136976
0.1390003,-0.001129925
0.1380003,-0.001123181
0.1370003,-0.001116437
0.1360003,-0.001109693
0.1350003,-0.001103256
0.1340003,-0.001096511
0.1330003,-0.001090074
0.1320003,-0.001083943
0.1310003,-0.001077506
0.1300003,-0.001071375
0.1290003,-0.001065244
0.1280003,-0.001059113
0.1270003,-0.001052982
0.1260003,-0.001047157
0.1250003,-0.001041026
0.1240003,-0.001035508
0.1230003,-0.001029684
0.1220003,-0.00102386
0.1210003,-0.001018035
0.1200003,-0.001012517
0.1190003,-0.001007306
0.1180003,-0.001001788
0.1170003,-0.0009962702
0.1160003,-0.0009910589
0.1150003,-0.0009858476
0.1140003,-0.0009806362
0.1130003,-0.0009754249
0.1120003,-0.0009702136
0.1110003,-0.0009653088
0.1100003,-0.0009600975
0.1090003,-0.0009554993
0.1080003,-0.0009505945
0.1070003,-0.0009453832
0.1060003,-0.000940785
0.1050003,-0.0009361868
0.1040003,-0.0009312819
0.1030003,-0.0009269903
0.1020003,-0.0009223921
0.1010003,-0.0009177938
0.1000003,-0.0009135022
0.09900028,-0.000908904
0.09800029,-0.0009046123
0.09700029,-0.0009003207
0.09600028,-0.0008957224
0.09500029,-0.0008914307
0.09400029,-0.000887139
0.09300029,-0.0008828474
0.09200028,-0.0008785557
0.09100029,-0.0008745705
0.09000029,-0.0008702789
0.08900028,-0.0008662938
0.08800028,-0.0008620021
0.08700029,-0.000858017
0.08600029,-0.0008543384
0.08500028,-0.0008503532
0.08400029,-0.0008463681
0.08300029,-0.000842383
0.08200029,-0.0008387044
0.08100028,-0.0008347193
0.08000029,-0.0008310407
0.07900029,-0.0008273621
0.07800028,-0.0008236835
0.07700028,-0.0008203115
0.07600029,-0.0008163264
0.07500029,-0.0008126478
0.07400028,-0.0008092758
0.07300029,-0.0008059037
0.07200029,-0.0008019186
0.07100029,-0.0007985466
0.07000028,-0.0007951746
0.06900029,-0.000791496
0.06800029,-0.0007884305
0.06700028,-0.0007847519
0.06600028,-0.0007816864
0.06500029,-0.0007783144
0.06400029,-0.0007749424
0.06300028,-0.0007718769
0.06200029,-0.0007685049
0.06100029,-0.0007654394
0.06000029,-0.0007623739
0.05900029,-0.0007590018
0.05800029,-0.0007559364
0.05700029,-0.0007531774
0.05600028,-0.000750112
0.05500029,-0.0007470464
0.05400028,-0.000743981
0.05300029,-0.0007409155
0.05200029,-0.00073785
0.05100029,-0.000735091
0.05000029,-0.0007320256
0.04900029,-0.0007292667
0.04800029,-0.0007262012
0.04700029,-0.0007234422
0.04600029,-0.0007203768
0.04500028,-0.0007176179
0.04400029,-0.0007145524
0.04300028,-0.0007117934
0.04200029,-0.0007090345
0.04100028,-0.0007062756
0.04000029,-0.0007035166
0.03900029,-0.0007007577
0.03800029,-0.0006979987
0.03700029,-0.0006952398
0.03600029,-0.0006927875
0.03500029,-0.0006900285
0.03400028,-0.0006872696
0.03300029,-0.0006845106
0.03200028,-0.0006820582
0.03100029,-0.0006796059
0.03000029,-0.0006768469
0.02900029,-0.0006743945
0.02800029,-0.0006716356
0.02700029,-0.0006691832
0.02600029,-0.0006667308
0.02500029,-0.0006642784
0.02400029,-0.0006618261
0.02300029,-0.0006593736
0.02200029,-0.0006569213
0.02100029,-0.0006544688
0.02000029,-0.0006520165
0.01900029,-0.0006492576
0.01800029,-0.0006468052
0.01700029,-0.0006443528
0.01600029,-0.0006419004
0.01500029,-0.0006397546
0.01400029,-0.0006373022
0.01300029,-0.0006348498
0.01200029,-0.0006323974
0.01100029,-0.000629945
0.01000029,-0.0006277992
0.009000286,-0.0006253468
0.008000286,-0.000623201
0.007000286,-0.0006207486
0.006000286,-0.0006186027
0.005000286,-0.0006161503
0.004000286,-0.0006140045
0.003000286,-0.0006115522
0.002000286,-0.0006090997
0.001000286,-0.0006069539
2.861023E-07,-0.0005992902
0.0009997139,-0.0005861087
0.001999714,-0.0005750729
0.002999714,-0.0005649568
0.003999714,-0.0005551472
0.004999714,-0.0005459508
0.005999714,-0.0005373674
0.006999714,-0.0005293972
0.007999714,-0.000521427
0.008999714,-0.0005140697
0.009999714,-0.0005070192
0.01099971,-0.0004999685
0.01199971,-0.0004932245
0.01299971,-0.000486787
0.01399971,-0.0004803495
0.01499971,-0.0004742185
0.01599971,-0.0004683941
0.01699971,-0.0004625697
0.01799971,-0.0004570518
0.01899971,-0.0004515339
0.01999971,-0.0004463226
0.02099971,-0.0004411113
0.02199971,-0.0004359
0.02299971,-0.0004309952
0.02399971,-0.0004260904
0.02499971,-0.0004214922
0.02599971,-0.000416894
0.02699971,-0.0004122957
0.02799971,-0.0004076975
0.02899971,-0.0004030993
0.02999971,-0.0003988076
0.03099971,-0.000394516
0.03199971,-0.0003902243
0.03299971,-0.0003862391
0.03399972,-0.000382254
0.03499971,-0.0003782689
0.03599972,-0.0003742838
0.03699971,-0.0003706052
0.03799972,-0.0003669266
0.03899971,-0.0003632481
0.03999971,-0.0003595694
0.04099971,-0.0003561974
0.04199971,-0.0003525188
0.04299971,-0.0003491468
0.04399971,-0.0003454682
0.04499971,-0.0003424028
0.04599971,-0.0003387242
0.04699972,-0.0003353521
0.04799971,-0.0003322866
0.04899972,-0.0003292212
0.04999971,-0.0003258491
0.05099971,-0.0003227837
0.05199971,-0.0003194116
0.05299971,-0.0003166527
0.05399971,-0.0003135872
0.05499971,-0.0003105217
0.05599971,-0.0003077628
0.05699971,-0.0003046973
0.05799972,-0.0003019384
0.05899971,-0.0002991795
0.05999972,-0.000296114
0.06099971,-0.000293355
0.06199971,-0.0002905961
0.06299971,-0.0002878372
0.06399971,-0.0002853848
0.06499971,-0.0002826258
0.06599972,-0.0002801734
0.06699971,-0.0002777211
0.06799971,-0.0002749621
0.06899972,-0.0002725097
0.06999972,-0.0002700574
0.07099971,-0.0002676049
0.07199971,-0.0002651526
0.07299972,-0.0002627002
0.07399971,-0.0002602478
0.07499971,-0.000258102
0.07599971,-0.0002556496
0.07699972,-0.0002535038
0.07799971,-0.0002510514
0.07899971,-0.0002489055
0.07999972,-0.0002464531
0.08099972,-0.0002443073
0.08199971,-0.0002421615
0.08299971,-0.0002400156
0.08399972,-0.0002375632
0.08499971,-0.000235724
0.08599971,-0.0002335781
0.08699971,-0.0002314323
0.08799972,-0.0002292864
0.08899971,-0.0002271406
0.08999971,-0.0002253013
0.09099972,-0.0002231555
0.09199972,-0.0002213162
0.09299971,-0.0002191703
0.09399971,-0.000217331
0.09499972,-0.0002151852
0.09599971,-0.0002133459
0.09699971,-0.0002115066
0.09799971,-0.0002096674
0.09899972,-0.0002078281
0.09999971,-0.0002059888
0.1009997,-0.0002041495
0.1019997,-0.0002023102
0.1029997,-0.0002004709
0.1039997,-0.0001986316
0.1049997,-0.0001967923
0.1059997,-0.000194953
0.1069997,-0.0001934203
0.1079997,-0.000191581
0.1089997,-0.0001897417
0.1099997,-0.000188209
0.1109997,-0.0001863697
0.1119997,-0.0001848369
0.1129997,-0.0001833042
0.1139997,-0.0001814649
0.1149997,-0.0001799322
0.1159997,-0.0001783994
0.1169997,-0.0001765601
0.1179997,-0.0001750274
0.1189997,-0.0001734946
0.1199997,-0.0001719619
0.1209997,-0.0001704292
0.1219997,-0.0001688964
0.1229997,-0.0001673637
0.1239997,-0.0001658309
0.1249997,-0.0001642982
0.1259997,-0.0001627655
0.1269997,-0.0001612327
0.1279997,-0.0001597
0.1289997,-0.0001617337
0.1299997,-0.0001603849
0.1309997,-0.0001589748
0.1319997,-0.0001576259
0.1329997,-0.0001562465
0.1339997,-0.0001548364
0.1349997,-0.0001533649
0.1359997,-0.0001519548
0.1369997,-0.0001505753
0.1379997,-0.0001492572
0.1389997,-0.0001479084
0.1399997,-0.0001465902
0.1409997,-0.0001452414
0.1419997,-0.0001440459
0.1429997,-0.0001427277
0.1439997,-0.0001415015
0.1449997,-0.0001402753
0.1459997,-0.0001388958
0.1469997,-0.0001376084
0.1479997,-0.0001363515
0.1489997,-0.0001350333
0.1499997,-0.0001338685
0.1509997,-0.0001325503
0.1519997,-0.0001314161
0.1529997,-0.0001301899
0.1539997,-0.0001289943
0.1549997,-0.0001278908
0.1559997,-0.0001266952
0.1569997,-0.000125561
0.1579997,-0.0001243961
0.1589997,-0.0001232312
0.1599997,-0.0001220357
0.1609997,-0.0001208708
0.1619997,-0.0001197366
0.1629997,-0.000118633
0.1639997,-0.0001175294
0.1649997,-0.0001164872
0.1659997,-0.0001154449
0.1669997,-0.000114372
0.1679997,-0.0001132991
0.1689997,-0.0001121648
0.1699997,-0.0001110306
0.1709997,-0.000110019
0.1719997,-0.0001089767
0.1729997,-0.0001079958
0.1739997,-0.0001069842
0.1749997,-0.0001059419
0.1759997,-0.0001048997
0.1769997,-0.0001037961
0.1779997,-0.0001028151
0.1789997,-0.0001018648
0.1799997,-0.0001008839
0.1809997,-9.993356E-05
0.1819997,-9.898326E-05
0.1829997,-9.791034E-05
0.1839997,-9.699071E-05
0.1849997,-9.594844E-05
0.1859997,-9.496748E-05
0.1869997,-9.410914E-05
0.1879997,-9.312819E-05
0.1889997,-9.22392E-05
0.1899997,-9.135022E-05
0.1909997,-9.036926E-05
0.1919997,-8.93883E-05
0.1929997,-8.852997E-05
0.1939997,-8.757967E-05
0.1949997,-8.669068E-05
0.1959997,-8.5863E-05
0.1969997,-8.500466E-05
0.1979997,-8.414633E-05
0.1989997,-8.319603E-05
0.1999997,-8.227638E-05
0.2009997,-8.138739E-05
0.2019997,-8.052905E-05
0.2029997,-7.970138E-05
0.2039997,-7.878173E-05
0.2049997,-7.801536E-05
0.2059997,-7.715703E-05
0.2069997,-7.642131E-05
0.2079997,-7.556297E-05
0.2089997,-7.467398E-05
0.2099997,-7.372369E-05
0.2109997,-7.298797E-05
0.2119997,-7.219095E-05
0.2129997,-7.136327E-05
0.2139997,-7.056624E-05
0.2149997,-6.983052E-05
0.2159997,-6.90335E-05
0.2169997,-6.823648E-05
0.2179997,-6.737814E-05
0.2189997,-6.655046E-05
0.2199997,-6.575343E-05
0.2209997,-6.498706E-05
0.2219997,-6.422069E-05
0.2229997,-6.348498E-05
0.2239997,-6.281057E-05
0.2249997,-6.201354E-05
0.2259997,-6.118586E-05
0.2269997,-6.035818E-05
0.2279997,-5.959181E-05
0.2289997,-5.88561E-05
0.2299997,-5.815104E-05
0.2309997,-5.741532E-05
0.2319997,-5.671026E-05
0.2329997,-5.594389E-05
0.2339997,-5.511621E-05
0.2349997,-5.438049E-05
0.2359997,-5.364477E-05
0.2369997,-5.290906E-05
0.2379997,-5.223465E-05
0.2389997,-5.152959E-05
0.2399997,-5.076322E-05
0.2409997,-4.987423E-05
0.2419997,-4.919983E-05
0.2429997,-4.849477E-05
0.2439997,-4.77897E-05
0.2449997,-4.71153E-05
0.2459997,-4.641024E-05
0.2469997,-4.55519E-05
0.2479997,-4.490815E-05
0.2489997,-4.411113E-05
0.2499997,-4.337541E-05
0.2509997,-4.285428E-05
0.2519997,-4.20266E-05
0.2529997,-4.119892E-05
0.2539997,-4.052451E-05
0.2549997,-3.97888E-05
0.2559997,-3.899177E-05
0.2569997,-3.840933E-05
0.2579997,-3.764296E-05
0.2589997,-3.681528E-05
0.2599997,-3.604891E-05
0.2609997,-3.531319E-05
0.2619997,-3.466944E-05
0.2629997,-3.396438E-05
0.2639997,-3.319801E-05
0.2649997,-3.237033E-05
0.2659997,-3.157331E-05
0.2669997,-3.092955E-05
0.2679997,-3.013253E-05
0.2689997,-2.936616E-05
0.2699997,-2.86611E-05
0.2709997,-2.786407E-05
0.2719997,-2.706704E-05
0.2729997,-2.617805E-05
0.2739997,-2.541168E-05
0.2749997,-2.467597E-05
0.2759997,-2.384829E-05
0.2769997,-2.308192E-05
0.2779997,-2.23462E-05
0.2789997,-2.148786E-05
0.2799997,-2.069084E-05
0.2809997,-1.974054E-05
0.2819997,-1.891286E-05
0.2829997,-1.808518E-05
0.2839997,-1.713488E-05
0.2849997,-1.636851E-05
0.2859997,-1.554083E-05
0.2869997,-1.462118E-05
0.2879997,-1.376285E-05
0.2889997,-1.297914E-05
0.2899997,-1.203497E-05
0.2909997,-1.116131E-05
0.2919997,-1.012824E-05
0.2929997,-9.25764E-06
0.2939997,-8.325734E-06
0.2949997,-7.286535E-06
0.2959997,-6.320909E-06
0.2969997,-5.272513E-06
0.2979997,-4.092302E-06
0.2989997,-2.958074E-06
0.2999997,-1.885155E-06
0.3009997,-7.999742E-07
0.3019997,3.526472E-07
0.3029997,1.471548E-06
0.3039997,2.618039E-06
0.3049997,3.749202E-06
0.3059997,4.94474E-06
0.3069997,6.327272E-06
0.3079997,7.666888E-06
0.3089997,8.994242E-06
0.3099997,1.026642E-05
0.3109997,1.174091E-05
0.3119997,1.307133E-05
0.3129997,1.451211E-05
0.3139997,1.597741E-05
0.3149997,1.735688E-05
0.3159997,1.896013E-05
0.3169997,2.052965E-05
0.3179997,2.219728E-05
0.3189997,2.399978E-05
0.3199997,2.605777E-05
0.3209997,2.771313E-05
0.3219997,2.955242E-05
0.3229997,3.136105E-05
0.3239997,3.329231E-05
0.3249997,3.51929E-05
0.3259997,3.730809E-05
0.3269997,3.948458E-05
0.3279997,4.17837E-05
0.3289997,4.408281E-05
0.3299997,4.641257E-05
0.3309997,4.874234E-05
0.3319997,5.140931E-05
0.3329997,5.3923E-05
0.3339997,5.662063E-05
0.3349997,5.965546E-05
0.3359997,6.259832E-05
0.3369997,6.587839E-05
0.3379997,6.91278E-05
0.3389997,7.253049E-05
0.3399997,7.636234E-05
0.3409997,8.013288E-05
0.3419997,8.414866E-05
0.3429997,8.859361E-05
0.3439997,9.309987E-05
0.3449997,9.809661E-05
0.3459997,0.0001035838
0.3469997,0.0001092856
0.3479997,0.0001157844
0.3489997,0.0001226205
0.3499997,0.0001300389
0.3509997,0.0001384997
0.3519997,0.0001476041
0.3529997,0.0001578735
0.3539997,0.0001693691
0.3549997,0.0001822135
0.3559997,0.000197081
0.3569997,0.000213696
0.3579997,0.0002330085
0.3589997,0.0002559077
0.3599997,0.0002821482
0.3609997,0.0003134467
0.3619997,0.0003543815
0.3629997,0.0003997506
0.3639997,0.0004552359
0.3649997,0.000522983
0.3659997,0.0006063642
0.3669997,0.0007078316
0.3679997,0.0008286117
0.3689997,0.0009711566
0.3699997,0.001132708
0.3709997,0.001312345
0.3719997,0.001507309
0.3729997,0.001709325
0.3739997,0.001919617
0.3749997,0.002131442
0.3759997,0.002338669
0.3769997,0.002546508
0.3779997,0.002747298
0.3789997,0.002940423
0.3799997,0.003160629
0.3809997,0.003341493
0.3819997,0.003519291
0.3829997,0.003697089
0.3839997,0.003868756
0.3849997,0.004037357
0.3859997,0.004205959
0.3869997,0.00437456
0.3879997,0.004540097
0.3889997,0.004708698
0.3899997,0.0048773
0.3909997,0.005048967
0.3919997,0.005217568
0.3929997,0.0053923
0.3939997,0.005567033
0.3949997,0.005744831
0.3959997,0.005925694
0.3969997,0.006106558
0.3979997,0.006293552
0.3989997,0.006480547
0.3999997,0.006664475
0.4009997,0.006863732
0.4019997,0.007059923
0.4029997,0.007253048
0.4039997,0.007461501
0.4049997,0.007660758
0.4059997,0.00786308
0.4069997,0.008080728
0.4079997,0.008286116
0.4089997,0.008503765
0.4099997,0.008733677
0.4109997,0.00894826
0.4119997,0.009168975
0.4129997,0.009392755
0.4139997,0.009616536
0.4149997,0.00983725
0.4159997,0.01006716
0.4169997,0.01029707
0.4179997,0.01052392
0.4189997,0.01075383
0.4199997,0.01098374
0.4209997,0.01120752
0.4219997,0.01143743
0.4229997,0.01166428
0.4239997,0.01189112
0.4249997,0.01211797
0.4259997,0.01233868
0.4269997,0.0125594
0.4279997,0.01278624
0.4289997,0.01299776
0.4299997,0.01321235
0.4309997,0.01343306
0.4319997,0.01363232
0.4329997,0.0138377
0.4339997,0.01404309
0.4349997,0.01423315
0.4359997,0.01442628
0.4369997,0.01461021
0.4379997,0.01479107
0.4389997,0.0149658
0.4399997,0.0151344
0.4409997,0.01529994
0.4419997,0.01545628
0.4429997,0.01560955
0.4439997,0.01575056
0.4449997,0.01588545
0.4459997,0.01601113
0.4469997,0.01613069
0.4479997,0.01624717
0.4489997,0.01635447
0.4499997,0.01644643
0.4509997,0.01653533
0.4519997,0.01661197
0.4529997,0.01667941
0.4539997,0.01674685
0.4549997,0.01679589
0.4559997,0.01683575
0.4569997,0.01687866
0.4579997,0.01690625
0.4589997,0.01692465
0.4599997,0.01693997
0.4609997,0.01694304
0.4619997,0.01693997
0.4629997,0.01693078
0.4639997,0.01691238
0.4649997,0.01689092
0.4659997,0.0168664
0.4669997,0.01682962
0.4679997,0.01678976
0.4689997,0.01675298
0.4699997,0.01669473
0.4709997,0.01664875
0.4719997,0.01660277
0.4729997,0.01654759
0.4739997,0.01650774
0.4749997,0.01646176
0.4759997,0.01641271
0.4769997,0.01637286
0.4779997,0.01634833
0.4789997,0.01631461
0.4799997,0.01629929
0.4809997,0.01629622
0.4819997,0.01628703
0.4829997,0.01631461
0.4839997,0.0163422
0.4849997,0.01637899
0.4859997,0.01645256
0.4869997,0.01652
0.4879997,0.0166089
0.4889997,0.01672846
0.4899997,0.01684188
0.4909997,0.01697982
0.4919997,0.01714843
0.4929997,0.0173109
0.4939997,0.01749176
0.4949997,0.01769715
0.4959997,0.0179056
0.4969997,0.01812631
0.4979997,0.01836542
0.4989997,0.01861373
0.4999997,0.0188651
0.5009997,0.01913792
0.5019997,0.01941688
0.5029997,0.01969584
0.5039997,0.01999013
0.5049997,0.02029668
0.5059997,0.02059403
0.5069997,0.02091284
0.5079997,0.02123472
0.5089997,0.02155046
0.5099997,0.0218846
0.5109997,0.02221873
0.5119997,0.02256514
0.5129997,0.02291767
0.5139997,0.0232518
0.5149997,0.02361353
0.5159997,0.02397219
0.5169997,0.02431553
0.5179997,0.02468645
0.5189997,0.02505124
0.5199997,0.02540071
0.5209997,0.02578389
0.5219997,0.02615175
0.5229997,0.02651654
0.5239997,0.02689666
0.5249997,0.02727678
0.5259997,0.02765383
0.5269997,0.02803702
0.5279997,0.02842634
0.5289997,0.02880339
0.5299997,0.02919271
0.5309997,0.02957896
0.5319997,0.02997134
0.5329997,0.03111582
0.5339997,0.03151433
0.5349997,0.03188219
0.5359997,0.0322807
0.5369997,0.03270987
0.5379997,0.03307773
0.5389997,0.03350689
0.5399997,0.03390541
0.5409997,0.03430392
0.5419997,0.03473309
0.5429997,0.0351316
0.5439997,0.03553011
0.5449997,0.03595928
0.5459997,0.03635779
0.5469997,0.03678696
0.5479997,0.03718547
0.5489997,0.03761464
0.5499997,0.03804381
0.5509997,0.03847298
0.5519997,0.03887149
0.5529997,0.03930065
0.5539997,0.03972982
0.5549997,0.04015899
0.5559997,0.0405575
0.5569997,0.04101732
0.5579997,0.04141584
0.5589997,0.04184501
0.5599997,0.04227417
0.5609997,0.04270334
0.5619997,0.04313251
0.5629997,0.04356168
0.5639997,0.0440215
0.5649997,0.04442001
0.5659997,0.04487984
0.5669997,0.045309
0.5679997,0.04573817
0.5689997,0.04619799
0.5699997,0.0465965
0.5709997,0.04702567
0.5719997,0.04748549
0.5729997,0.04791466
0.5739997,0.04834383
0.5749997,0.04880365
0.5759997,0.04923282
0.5769997,0.04966199
0.5779997,0.05009115
0.5789997,0.05052032
0.5799997,0.05094949
0.5809997,0.05140931
0.5819997,0.05183848
0.5829997,0.0522983
0.5839997,0.05272747
0.5849997,0.05318729
0.5859997,0.05364711
0.5869997,0.05407628
0.5879997,0.0545361
0.5889997,0.05499592
0.5899997,0.0554251
0.5909997,0.05585426
0.5919997,0.05631408
0.5929997,0.05677391
0.5939997,0.05720307
0.5949997,0.05766289
0.5959997,0.05812272
0.5969997,0.05855189
0.5979997,0.05901171
0.5989997,0.05947153
0.5999997,0.05993135
0.6009997,0.06039118
0.6019997,0.06082034
0.6029997,0.06128017
0.6039997,0.06177064
0.6049997,0.06216915
0.6059997,0.06265964
0.6069997,0.06311946
0.6079997,0.06354862
0.6089997,0.06400844
0.6099997,0.06446826
0.6109997,0.06489744
0.6119997,0.06535726
0.6129997,0.06584774
0.6139997,0.06630756
0.6149997,0.06673672
0.6159997,0.06719655
0.6169997,0.06765637
0.6179997,0.06811619
0.6189997,0.06860667
0.6199997,0.06903584
0.6209997,0.06949566
0.6219997,0.06995548
0.6229997,0.0704153
0.6239997,0.07087513
0.6249997,0.07133495
0.6259997,0.07176412
0.6269997,0.07225459
0.6279997,0.07271441
0.6289997,0.07317424
0.6299997,0.07366472
0.6309997,0.07409389
0.6319997,0.07458436
0.6329997,0.07504418
0.6339997,0.075504
0.6349997,0.07596382
0.6359997,0.07642365
0.6369997,0.07688347
0.6379997,0.07734329
0.6389997,0.07783377
0.6399997,0.07829359
0.6409997,0.07875342
0.6419997,0.07921324
0.6429997,0.07967306
0.6439997,0.08016354
0.6449997,0.08062336
0.6459997,0.08108319
0.6469997,0.08154301
0.6479997,0.08197217
0.6489997,0.08246265
0.6499997,0.08295313
0.6509997,0.0833823
0.6519997,0.08387277
0.6529997,0.08433259
0.6539997,0.08479242
0.6549997,0.08528289
0.6559997,0.08574272
0.6569997,0.08620254
0.6579997,0.08666236
0.6589997,0.08712219
0.6599997,0.08761266
0.6609997,0.08807249
0.6619997,0.08853231
0.6629997,0.08899213
0.6639997,0.08945195
0.6649997,0.08997308
0.6659997,0.0904329
0.6669997,0.09089272
0.6679997,0.0913832
0.6689997,0.09184303
0.6699997,0.09230285
0.6709997,0.09279333
0.6719997,0.0932838
0.6729997,0.09374363
0.6739997,0.0942341
0.6749997,0.09472458
0.6759997,0.09515375
0.6769997,0.09564423
0.6779997,0.09613471
0.6789997,0.09659453
0.6799997,0.09705435
0.6809997,0.09754483
0.6819997,0.09800465
0.6829997,0.09849513
0.6839997,0.09895495
0.6849997,0.09944542
0.6859997,0.0999359
0.6869997,0.1003957
0.6879997,0.1008555
0.6889997,0.101346
0.6899997,0.1018058
0.6909997,0.1022657
0.6919997,0.1027868
0.6929997,0.103216
0.6939997,0.1037064
0.6949997,0.1041969
0.6959997,0.1046261
0.6969997,0.1051472
0.6979997,0.1056377
0.6989997,0.1060362
0.6999997,0.1061588
0.6990004,0.105699
0.6980004,0.1053005
0.6970004,0.1047794
0.6960004,0.1043808
0.6950004,0.1038597
0.6940004,0.1033999
0.6930004,0.1029094
0.6920004,0.1024496
0.6910004,0.1019591
0.6900004,0.1015606
0.6890004,0.1010395
0.6880004,0.1006103
0.6870004,0.1000892
0.6860004,0.0995987
0.6850004,0.09916953
0.6840004,0.09867906
0.6830004,0.09818857
0.6820004,0.09772875
0.6810004,0.09729959
0.6800004,0.09677845
0.6790004,0.09631863
0.6780004,0.09592012
0.6770004,0.09536833
0.6760004,0.09493916
0.6750004,0.09451
0.6740004,0.09398887
0.6730004,0.09352904
0.6720004,0.09306922
0.6710004,0.09257875
0.6700004,0.09208827
0.6690004,0.09162845
0.6680004,0.09116862
0.6670004,0.0907088
0.6660004,0.09021832
0.6650004,0.0897585
0.6640004,0.08929868
0.6630004,0.0888082
0.6620004,0.08837903
0.6610004,0.08791921
0.6600004,0.08742873
0.6590004,0.08696891
0.6580004,0.08650909
0.6570004,0.08601861
0.6560004,0.08558945
0.6550004,0.08509897
0.6540004,0.08457784
0.6530004,0.08414867
0.6520004,0.08368885
0.6510004,0.08322902
0.6500004,0.0827692
0.6490004,0.08230938
0.6480004,0.0818189
0.6470004,0.08135908
0.6460004,0.08092991
0.6450004,0.08047009
0.6440004,0.08001027
0.6430004,0.07955044
0.6420004,0.07905997
0.6410004,0.07860014
0.6400004,0.07817098
0.6390004,0.0776805
0.6380004,0.07722067
0.6370004,0.07676085
0.6360004,0.07630103
0.6350004,0.07584121
0.6340004,0.07538139
0.6330004,0.07495221
0.6320004,0.07446174
0.6310004,0.07403257
0.6300004,0.07351144
0.6290004,0.07308228
0.6280004,0.07262245
0.6270004,0.07213198
0.6260004,0.07170281
0.6250004,0.07127364
0.6240004,0.07081382
0.6230004,0.07035399
0.6220004,0.06989417
0.6210004,0.0694037
0.6200004,0.06897452
0.6190004,0.06848405
0.6180004,0.06802423
0.6170004,0.06759506
0.6160004,0.06713524
0.6150004,0.06664476
0.6140004,0.0662156
0.6130004,0.06572511
0.6120004,0.06529595
0.6110004,0.06486678
0.6100004,0.0643763
0.6090004,0.06394713
0.6080004,0.06348731
0.6070004,0.06302749
0.6060004,0.06256767
0.6050004,0.0621385
0.6040004,0.06167868
0.6030004,0.06121886
0.6020004,0.06075903
0.6010004,0.06029921
0.6000004,0.05987004
0.5990004,0.05941022
0.5980004,0.0589504
0.5970004,0.05852123
0.5960004,0.05806141
0.5950004,0.05760158
0.5940004,0.05717242
0.5930004,0.0567126
0.5920004,0.05628343
0.5910004,0.05585426
0.5900004,0.05539444
0.5890004,0.05493462
0.5880004,0.05450545
0.5870004,0.05404563
0.5860004,0.0535858
0.5850004,0.05315664
0.5840004,0.05272747
0.5830004,0.05226765
0.5820004,0.05180782
0.5810004,0.05137866
0.5800004,0.05091884
0.5790004,0.05048966
0.5780004,0.0500605
0.5770004,0.04963133
0.5760004,0.04917151
0.5750004,0.04874234
0.5740004,0.04828252
0.5730004,0.04785335
0.5720004,0.04742418
0.5710004,0.04696436
0.5700004,0.04653519
0.5690004,0.04610603
0.5680004,0.0456462
0.5670004,0.04521704
0.5660004,0.04478787
0.5650004,0.04432805
0.5640004,0.04392953
0.5630004,0.04350037
0.5620004,0.04304054
0.5610004,0.04261138
0.5600004,0.04218221
0.5590004,0.04175304
0.5580004,0.04132387
0.5570004,0.04089471
0.5560004,0.04046554
0.5550004,0.04003637
0.5540004,0.03963786
0.5530004,0.03917804
0.5520004,0.03874887
0.5510004,0.0383197
0.5500004,0.03789053
0.5490004,0.03746137
0.5480004,0.0370322
0.5470004,0.03663369
0.5460004,0.03620452
0.5450004,0.03577535
0.5440004,0.03537684
0.5430004,0.03494767
0.5420004,0.0345185
0.5410004,0.03411999
0.5400004,0.03369082
0.5390004,0.03326165
0.5380004,0.03286314
0.5370004,0.03246463
0.5360004,0.03203546
0.5350004,0.03163695
0.5340004,0.03123844
0.5330004,0.03080927
0.5320004,0.0303801
0.5310004,0.02998159
0.5300004,0.02955242
0.5290004,0.02915391
0.5280004,0.02875539
0.5270004,0.02835688
0.5260004,0.02795837
0.5250004,0.02755986
0.5240004,0.02713069
0.5230004,0.02676283
0.5220004,0.02633366
0.5210004,0.02593515
0.5200004,0.02556729
0.5190004,0.02513812
0.5180004,0.02473961
0.5170004,0.02437175
0.5160004,0.02397324
0.5150004,0.02357473
0.5140004,0.02320687
0.5130004,0.02280836
0.5120004,0.02240985
0.5110004,0.02201133
0.5100004,0.02164347
0.5090004,0.02127562
0.5080004,0.0208771
0.5070004,0.02047859
0.5060004,0.02011073
0.5050004,0.01974287
0.5040004,0.01937502
0.5030004,0.01900716
0.5020004,0.0186393
0.5010004,0.01827144
0.5000004,0.01790359
0.4990004,0.01753573
0.4980004,0.01716787
0.4970004,0.01683067
0.4960004,0.01646281
0.4950004,0.01609495
0.4940004,0.01575775
0.4930004,0.01542055
0.4920004,0.01505269
0.4910004,0.01468483
0.4900004,0.01434763
0.4890004,0.01401042
0.4880004,0.01367322
0.4870004,0.01333602
0.4860004,0.01250422
0.4850004,0.01217621
0.4840004,0.01185127
0.4830004,0.01152327
0.4820004,0.01120446
0.4810004,0.01088871
0.4800004,0.01056683
0.4790004,0.01025415
0.4780004,0.009944541
0.4770004,0.009634929
0.4760004,0.009331445
0.4750004,0.009031028
0.4740004,0.008730611
0.4730004,0.00843939
0.4720004,0.008148169
0.4710004,0.007856948
0.4700004,0.007574924
0.4690004,0.0072929
0.4680004,0.00700781
0.4670004,0.006738048
0.4660004,0.006465219
0.4650004,0.006195457
0.4640004,0.005934891
0.4630004,0.005668194
0.4620004,0.005413759
0.4610004,0.005162389
0.4600004,0.004907954
0.4590004,0.004668847
0.4580004,0.004429739
0.4570004,0.004190631
0.4560004,0.00396072
0.4550004,0.003730809
0.4540004,0.003507029
0.4530004,0.003289379
0.4520004,0.00307173
0.4510004,0.002863277
0.4500004,0.002654824
0.4490004,0.002455568
0.4480004,0.002256312
0.4470004,0.002063187
0.4460004,0.001876192
0.4450004,0.001692263
0.4440004,0.0015114
0.4430004,0.001339733
0.4420004,0.001165
0.4410004,0.0009677846
0.4400004,0.000808686
0.4390004,0.0006471351
0.4380004,0.0004963133
0.4370004,0.000347944
0.4360004,0.000199268
0.4350004,6.193443E-05
0.4340004,-8.034513E-05
0.4330004,-0.0002131112
0.4320004,-0.0003402674
0.4310004,-0.0004680876
0.4300004,-0.000587948
0.4290004,-0.0007062756
0.4280004,-0.0008227639
0.4270004,-0.0009315885
0.4260004,-0.001041946
0.4250004,-0.001146479
0.4240004,-0.001247027
0.4230004,-0.001349107
0.4220004,-0.001443218
0.4210004,-0.001537941
0.4200004,-0.001630825
0.4190004,-0.001715126
0.4180004,-0.001803718
0.4170004,-0.001888632
0.4160004,-0.001968028
0.4150004,-0.002051409
0.4140004,-0.002126514
0.4130004,-0.002201618
0.4120004,-0.002279175
0.4110004,-0.002349374
0.4100004,-0.002426931
0.4090004,-0.002503568
0.4080004,-0.00256825
0.4070004,-0.00263569
0.4060004,-0.002700985
0.4050004,-0.002767813
0.4040004,-0.002831575
0.4030004,-0.002894724
0.4020004,-0.002959099
0.4010004,-0.003019489
0.4000004,-0.003046973
0.3990004,-0.003108283
0.3980004,-0.003166527
0.3970004,-0.003227836
0.3960004,-0.003292212
0.3950004,-0.00334739
0.3940004,-0.003411765
0.3930004,-0.003473075
0.3920004,-0.003528254
0.3910004,-0.003595694
0.3900004,-0.003653938
0.3890004,-0.003712183
0.3880004,-0.003773492
0.3870004,-0.003834802
0.3860004,-0.003893046
0.3850004,-0.003957421
0.3840004,-0.004015665
0.3830004,-0.00408004
0.3820004,-0.00414135
0.3810004,-0.004205726
0.3800004,-0.004267035
0.3790004,-0.00433141
0.3780004,-0.004395785
0.3770004,-0.004457095
0.3760004,-0.00452147
0.3750004,-0.004591976
0.3740004,-0.004656351
0.3730004,-0.004720726
0.3720004,-0.004791233
0.3710004,-0.004858673
0.3700004,-0.004929179
0.3690004,-0.00499662
0.3680004,-0.00506406
0.3670004,-0.005134566
0.3660004,-0.005205072
0.3650004,-0.005278645
0.3640004,-0.005352216
0.3630004,-0.005419657
0.3620004,-0.005496293
0.3610004,-0.005569865
0.3600004,-0.005640371
0.3590004,-0.005720073
0.3580004,-0.00579671
0.3570004,-0.005870283
0.3560004,-0.005949985
0.3550004,-0.006020491
0.3540004,-0.006103259
0.3530004,-0.006182961
0.3520004,-0.006256533
0.3510004,-0.006339301
0.3500004,-0.006419003
0.3490004,-0.006495641
0.3480004,-0.006578409
0.3470004,-0.006658111
0.3460004,-0.006737814
0.3450004,-0.006820582
0.3440004,-0.006900284
0.3430004,-0.006983052
0.3420004,-0.007062755
0.3410004,-0.007145523
0.3400004,-0.007228291
0.3390004,-0.007311059
0.3380004,-0.007396893
0.3370004,-0.007473529
0.3360004,-0.007556298
0.3350004,-0.007642131
0.3340004,-0.007718768
0.3330004,-0.007801536
0.3320004,-0.007884304
0.3310004,-0.007960942
0.3300004,-0.008046775
0.3290004,-0.008126478
0.3280004,-0.008203114
0.3270004,-0.008288948
0.3260004,-0.00836865
0.3250004,-0.008442222
0.3240004,-0.008528056
0.3230004,-0.008601627
0.3220004,-0.00868133
0.3210004,-0.008764098
0.3200004,-0.008834604
0.3190004,-0.008914307
0.3180004,-0.008990943
0.3170004,-0.009061449
0.3160004,-0.009141153
0.3150004,-0.009208593
0.3140004,-0.009282164
0.3130004,-0.009355736
0.3120004,-0.009426242
0.3110004,-0.009496748
0.3100004,-0.009564188
0.3090004,-0.009634695
0.3080004,-0.009696005
0.3070004,-0.009769576
0.3060004,-0.009833951
0.3050004,-0.009892195
0.3040004,-0.00995657
0.3030004,-0.01001175
0.3020004,-0.01006999
0.3010004,-0.01012824
0.3000004,-0.01017729
0.2990004,-0.01022327
0.2980004,-0.01027232
0.2970004,-0.01030604
0.2960004,-0.01034282
0.2950004,-0.01037961
0.2940004,-0.01039494
0.2930004,-0.0104072
0.2920004,-0.01041946
0.2910004,-0.01040413
0.2900004,-0.01039187
0.2890004,-0.01036428
0.2880004,-0.0103091
0.2870004,-0.01025392
0.2860004,-0.01017422
0.2850004,-0.0100608
0.2840004,-0.009935113
0.2830004,-0.009766511
0.2820004,-0.009558057
0.2810004,-0.009312819
0.2800004,-0.009015468
0.2790004,-0.008672133
0.2780004,-0.008313472
0.2770004,-0.007933352
0.2760004,-0.007553232
0.2750004,-0.007194571
0.2740004,-0.006854302
0.2730004,-0.006532426
0.2720004,-0.006247337
0.2710004,-0.005999033
0.2700004,-0.005759925
0.2690004,-0.005560669
0.2680004,-0.005376739
0.2670004,-0.005198942
0.2660004,-0.005051799
0.2650004,-0.004904655
0.2640004,-0.004769774
0.2630004,-0.00465022
0.2620004,-0.004530666
0.2610004,-0.004420309
0.2600004,-0.004319148
0.2590004,-0.004221053
0.2580004,-0.004126023
0.2570004,-0.004037124
0.2560004,-0.003948225
0.2550004,-0.003865457
0.2540004,-0.003785754
0.2530004,-0.003712183
0.2520004,-0.003635545
0.2510004,-0.003565039
0.2500004,-0.003494533
0.2490004,-0.003424027
0.2480004,-0.003359652
0.2470004,-0.003295277
0.2460004,-0.003230902
0.2450004,-0.003166527
0.2440004,-0.003105217
0.2430004,-0.003050038
0.2420004,-0.002991794
0.2410004,-0.002939681
0.2400004,-0.002890633
0.2390004,-0.002841586
0.2380004,-0.002795603
0.2370004,-0.002752687
0.2360004,-0.002706704
0.2350004,-0.002663787
0.2340004,-0.002627002
0.2330004,-0.002587151
0.2320004,-0.002550365
0.2310004,-0.002516645
0.2300004,-0.002479859
0.2290004,-0.002443073
0.2280004,-0.002412418
0.2270004,-0.002378698
0.2260004,-0.002348043
0.2250004,-0.002317388
0.2240004,-0.002286733
0.2230004,-0.002262209
0.2220004,-0.00223462
0.2210004,-0.002203965
0.2200004,-0.002179441
0.2190004,-0.002151852
0.2180004,-0.002127328
0.2170004,-0.002102804
0.2160004,-0.00207828
0.2150004,-0.002053756
0.2140004,-0.002032298
0.2130004,-0.00201084
0.2120004,-0.001989381
0.2110004,-0.001967923
0.2100004,-0.001946465
0.2090004,-0.001925006
0.2080004,-0.001906613
0.2070004,-0.001885155
0.2060004,-0.001866762
0.2050004,-0.001848369
0.2040004,-0.001829976
0.2030004,-0.001811583
0.2020004,-0.00179319
0.2010004,-0.001774798
0.2000004,-0.00175947
0.1990004,-0.001741077
0.1980004,-0.00172575
0.1970004,-0.001710422
0.1960004,-0.00169203
0.1950004,-0.001676702
0.1940004,-0.001661375
0.1930004,-0.001646047
0.1920004,-0.00163072
0.1910004,-0.001618458
0.1900004,-0.001639102
0.1890004,-0.001625307
0.1880004,-0.001611206
0.1870004,-0.001598025
0.1860004,-0.001584536
0.1850004,-0.001571355
0.1840004,-0.00155848
0.1830004,-0.001545605
0.1820004,-0.001533343
0.1810004,-0.001520774
0.1800004,-0.001508512
0.1790004,-0.001496557
0.1780004,-0.001485215
0.1770004,-0.001473259
0.1760004,-0.001461917
0.1750004,-0.001450881
0.1740004,-0.001439846
0.1730004,-0.001429116
0.1720004,-0.001418694
0.1710004,-0.001407658
0.1700004,-0.001397849
0.1690004,-0.001387732
0.1680004,-0.001377616
0.1670004,-0.00136842
0.1660004,-0.001358304
0.1650004,-0.001348801
0.1640004,-0.001339298
0.1630004,-0.001329795
0.1620004,-0.001320598
0.1610004,-0.001311708
0.1600004,-0.001302512
0.1590004,-0.001293929
0.1580004,-0.001285345
0.1570004,-0.001276455
0.1560004,-0.001268485
0.1550004,-0.001259902
0.1540004,-0.001251318
0.1530004,-0.001243348
0.1520004,-0.001235378
0.1510004,-0.001227101
0.1500004,-0.001219437
0.1490004,-0.001211774
0.1480004,-0.00120411
0.1470004,-0.001196753
0.1460004,-0.001189396
0.1450004,-0.001181732
0.1440004,-0.001174681
0.1430004,-0.001167631
0.1420004,-0.001160274
0.1410004,-0.00115353
0.1400004,-0.001146785
0.1390004,-0.001139428
0.1380004,-0.001132991
0.1370004,-0.001126247
0.1360004,-0.001119503
0.1350004,-0.001113372
0.1340004,-0.001106628
0.1330004,-0.001100497
0.1320004,-0.001094366
0.1310004,-0.001087928
0.1300004,-0.001081797
0.1290004,-0.001075666
0.1280004,-0.001069842
0.1270004,-0.001064017
0.1260004,-0.001058193
0.1250004,-0.001052369
0.1240004,-0.001046544
0.1230004,-0.001041026
0.1220004,-0.001035508
0.1210004,-0.001029991
0.1200004,-0.001024473
0.1190004,-0.001018955
0.1180004,-0.001013437
0.1170004,-0.001008226
0.1160004,-0.001003014
0.1150004,-0.0009978029
0.1140004,-0.0009928982
0.1130004,-0.0009876869
0.1120004,-0.0009824756
0.1110004,-0.0009778773
0.1100004,-0.000972666
0.1090004,-0.0009677612
0.1080004,-0.0009628565
0.1070004,-0.0009579517
0.1060004,-0.0009533535
0.1050004,-0.0009484487
0.1040004,-0.0009435439
0.1030004,-0.0009392523
0.1020004,-0.0009349606
0.1010004,-0.0009303623
0.1000004,-0.0009260707
0.09900038,-0.0009214724
0.09800038,-0.0009171807
0.09700038,-0.0009128891
0.09600038,-0.0009085974
0.09500038,-0.0009043057
0.09400038,-0.0009000141
0.09300038,-0.0008957224
0.09200038,-0.0008917373
0.09100038,-0.0008874455
0.09000038,-0.0008834605
0.08900038,-0.0008794753
0.08800038,-0.0008754902
0.08700038,-0.0008715051
0.08600038,-0.0008675199
0.08500038,-0.0008635348
0.08400038,-0.0008598563
0.08300038,-0.0008558711
0.08200038,-0.0008521925
0.08100038,-0.000848514
0.08000038,-0.0008445288
0.07900038,-0.0008408502
0.07800038,-0.0008371716
0.07700038,-0.0008331866
0.07600038,-0.0008298145
0.07500038,-0.0008261359
0.07400038,-0.0008224574
0.07300038,-0.0008190853
0.07200038,-0.0008157133
0.07100038,-0.0008123412
0.07000038,-0.0008089693
0.06900038,-0.0008052906
0.06800038,-0.0008022251
0.06700038,-0.0007988531
0.06600038,-0.0007951746
0.06500039,-0.0007918025
0.06400038,-0.000788737
0.06300038,-0.0007856716
0.06200038,-0.0007822995
0.06100038,-0.000779234
0.06000038,-0.000775862
0.05900038,-0.0007727966
0.05800038,-0.000769731
0.05700038,-0.0007666656
0.05600038,-0.0007632935
0.05500038,-0.0007605346
0.05400038,-0.0007574691
0.05300038,-0.0007547102
0.05200038,-0.0007516447
0.05100038,-0.0007485792
0.05000038,-0.0007458202
0.04900038,-0.0007427548
0.04800038,-0.0007396893
0.04700038,-0.0007369304
0.04600038,-0.0007341714
0.04500038,-0.000731106
0.04400038,-0.000728347
0.04300038,-0.0007252816
0.04200038,-0.0007225226
0.04100038,-0.0007197637
0.04000038,-0.0007170048
0.03900038,-0.0007139393
0.03800038,-0.0007111803
0.03700038,-0.0007084214
0.03600038,-0.0007053559
0.03500038,-0.000702597
0.03400038,-0.0007001446
0.03300038,-0.0006973856
0.03200038,-0.0006946267
0.03100038,-0.0006918678
0.03000038,-0.0006891088
0.02900038,-0.0006866565
0.02800038,-0.0006838975
0.02700038,-0.0006811386
0.02600038,-0.0006786863
0.02500038,-0.0006756207
0.02400038,-0.0006728618
0.02300038,-0.0006704094
0.02200038,-0.000667344
0.02100038,-0.0006648915
0.02000038,-0.0006624392
0.01900038,-0.0006593736
0.01800038,-0.0006569213
0.01700038,-0.0006541623
0.01600038,-0.0006514034
0.01500038,-0.000648951
0.01400038,-0.0006461921
0.01300038,-0.0006434331
0.01200038,-0.0006412873
0.01100038,-0.0006385284
0.01000038,-0.0006357695
0.009000381,-0.0006333171
0.008000381,-0.0006305581
0.007000382,-0.0006281057
0.006000381,-0.0006256534
0.005000381,-0.0006228944
0.004000382,-0.000620442
0.003000381,-0.0006179896
0.002000381,-0.0006152307
0.001000381,-0.0006127784
3.814697E-07,-0.000604808
0.0009996186,-0.0005913199
0.001999618,-0.0005799776
0.002999618,-0.0005692485
0.003999618,-0.0005591324
0.004999619,-0.0005499359
0.005999619,-0.000541046
0.006999618,-0.0005324627
0.007999619,-0.0005244924
0.008999619,-0.0005168287
0.009999619,-0.000509165
0.01099962,-0.0005021144
0.01199962,-0.0004950638
0.01299962,-0.0004883197
0.01399962,-0.0004818822
0.01499962,-0.0004757512
0.01599962,-0.0004696203
0.01699962,-0.0004637959
0.01799962,-0.0004579714
0.01899962,-0.0004524536
0.01999962,-0.0004469357
0.02099962,-0.0004417244
0.02199962,-0.000436513
0.02299962,-0.0004313017
0.02399962,-0.000426397
0.02499962,-0.0004214922
0.02599962,-0.000416894
0.02699962,-0.0004122957
0.02799962,-0.0004076975
0.02899962,-0.0004030993
0.02999962,-0.0003988076
0.03099962,-0.000394516
0.03199962,-0.0003902243
0.03299962,-0.0003862391
0.03399962,-0.000382254
0.03499962,-0.0003782689
0.03599962,-0.0003742838
0.03699962,-0.0003706052
0.03799962,-0.0003666201
0.03899962,-0.0003629415
0.03999962,-0.0003592629
0.04099962,-0.0003555843
0.04199962,-0.0003519058
0.04299962,-0.0003485337
0.04399962,-0.0003451617
0.04499962,-0.0003417897
0.04599962,-0.0003384176
0.04699962,-0.0003350456
0.04799962,-0.0003319801
0.04899962,-0.0003286081
0.04999962,-0.0003255426
0.05099962,-0.0003224771
0.05199962,-0.0003194116
0.05299962,-0.0003163462
0.05399962,-0.0003132806
0.05499962,-0.0003102152
0.05599962,-0.0003074562
0.05699962,-0.0003043908
0.05799962,-0.0003016318
0.05899962,-0.0002988729
0.05999962,-0.0002958074
0.06099962,-0.0002930485
0.06199962,-0.0002902895
0.06299962,-0.0002878372
0.06399962,-0.0002850782
0.06499962,-0.0002826258
0.06599962,-0.0002798669
0.06699962,-0.0002774145
0.06799962,-0.0002746556
0.06899962,-0.0002722032
0.06999962,-0.0002697508
0.07099961,-0.0002672984
0.07199962,-0.0002651526
0.07299962,-0.0002627002
0.07399962,-0.0002602478
0.07499962,-0.0002577954
0.07599962,-0.000255343
0.07699962,-0.0002531972
0.07799962,-0.0002510514
0.07899962,-0.000248599
0.07999962,-0.0002461466
0.08099962,-0.0002440007
0.08199961,-0.0002418549
0.08299962,-0.0002397091
0.08399962,-0.0002372567
0.08499962,-0.0002354174
0.08599962,-0.0002332716
0.08699962,-0.0002311257
0.08799962,-0.0002289799
0.08899962,-0.0002271406
0.08999962,-0.0002249948
0.09099962,-0.0002231555
0.09199962,-0.0002210096
0.09299962,-0.0002191703
0.09399962,-0.000217331
0.09499962,-0.0002151852
0.09599962,-0.0002133459
0.09699962,-0.0002115066
0.09799962,-0.0002096674
0.09899962,-0.0002075215
0.09999962,-0.0002056822
0.1009996,-0.0002038429
0.1019996,-0.0002020036
0.1029996,-0.0002001643
0.1039996,-0.0001986316
0.1049996,-0.0001967923
0.1059996,-0.000194953
0.1069996,-0.0001934203
0.1079996,-0.000191581
0.1089996,-0.0001900483
0.1099996,-0.000188209
0.1109996,-0.0001863697
0.1119996,-0.0001848369
0.1129996,-0.0001829976
0.1139996,-0.0001814649
0.1149996,-0.0001799322
0.1159996,-0.0001780929
0.1169996,-0.0001765601
0.1179996,-0.0001750274
0.1189996,-0.0001734946
0.1199996,-0.0001719619
0.1209996,-0.0001701226
0.1219996,-0.0001688964
0.1229996,-0.0001670571
0.1239996,-0.0001658309
0.1249996,-0.0001642982
0.1259996,-0.0001627655
0.1269996,-0.0001612327
0.1279996,-0.0001597
0.1289996,-0.0001615498
0.1299996,-0.0001601396
0.1309996,-0.0001587602
0.1319996,-0.0001573194
0.1329996,-0.0001559399
0.1339996,-0.0001545298
0.1349996,-0.0001532116
0.1359996,-0.0001519241
0.1369996,-0.0001505447
0.1379996,-0.0001491039
0.1389996,-0.0001477551
0.1399996,-0.000146345
0.1409996,-0.0001449962
0.1419996,-0.0001437393
0.1429996,-0.0001424212
0.1439996,-0.0001411643
0.1449996,-0.0001399381
0.1459996,-0.00013862
0.1469996,-0.0001374244
0.1479996,-0.0001361369
0.1489996,-0.0001349107
0.1499996,-0.0001336539
0.1509996,-0.0001323664
0.1519996,-0.0001310789
0.1529996,-0.000129914
0.1539996,-0.0001286878
0.1549996,-0.0001275229
0.1559996,-0.0001263887
0.1569996,-0.0001251931
0.1579996,-0.0001241509
0.1589996,-0.000122986
0.1599996,-0.0001218211
0.1609996,-0.0001205643
0.1619996,-0.0001193994
0.1629996,-0.0001183265
0.1639996,-0.0001171309
0.1649996,-0.0001160274
0.1659996,-0.0001150157
0.1669996,-0.0001139428
0.1679996,-0.0001128699
0.1689996,-0.000111797
0.1699996,-0.0001107547
0.1709996,-0.0001097125
0.1719996,-0.0001086395
0.1729996,-0.000107536
0.1739996,-0.000106463
0.1749996,-0.0001053901
0.1759996,-0.0001043785
0.1769996,-0.0001033976
0.1779996,-0.0001023247
0.1789996,-0.000101405
0.1799996,-0.000100424
0.1809996,-9.944309E-05
0.1819996,-9.852344E-05
0.1829996,-9.751183E-05
0.1839996,-9.656153E-05
0.1849996,-9.554992E-05
0.1859996,-9.453831E-05
0.1869996,-9.361867E-05
0.1879996,-9.260706E-05
0.1889996,-9.168741E-05
0.1899996,-9.076777E-05
0.1909996,-8.987878E-05
0.1919996,-8.898979E-05
0.1929996,-8.803949E-05
0.1939996,-8.718116E-05
0.1949996,-8.635347E-05
0.1959996,-8.540318E-05
0.1969996,-8.448353E-05
0.1979996,-8.353323E-05
0.1989996,-8.258293E-05
0.1999996,-8.175525E-05
0.2009996,-8.086627E-05
0.2019996,-8.000793E-05
0.2029996,-7.918024E-05
0.2039996,-7.829125E-05
0.2049996,-7.743292E-05
0.2059996,-7.666655E-05
0.2069996,-7.577756E-05
0.2079996,-7.494988E-05
0.2089996,-7.41222E-05
0.2099996,-7.326387E-05
0.2109996,-7.237487E-05
0.2119996,-7.145523E-05
0.2129996,-7.068886E-05
0.2139996,-6.983052E-05
0.2149996,-6.90335E-05
0.2159996,-6.826713E-05
0.2169996,-6.753141E-05
0.2179996,-6.670374E-05
0.2189996,-6.593736E-05
0.2199996,-6.520165E-05
0.2209996,-6.440462E-05
0.2219996,-6.366891E-05
0.2229996,-6.277992E-05
0.2239996,-6.195223E-05
0.2249996,-6.112456E-05
0.2259996,-6.035818E-05
0.2269996,-5.962246E-05
0.2279996,-5.882544E-05
0.2289996,-5.805907E-05
0.2299996,-5.735401E-05
0.2309996,-5.664895E-05
0.2319996,-5.591323E-05
0.2329996,-5.514687E-05
0.2339996,-5.438049E-05
0.2349996,-5.361412E-05
0.2359996,-5.278644E-05
0.2369996,-5.202007E-05
0.2379996,-5.128435E-05
0.2389996,-5.054864E-05
0.2399996,-4.984358E-05
0.2409996,-4.910786E-05
0.2419996,-4.834149E-05
0.2429996,-4.772839E-05
0.2439996,-4.687006E-05
0.2449996,-4.613434E-05
0.2459996,-4.536797E-05
0.2469996,-4.463226E-05
0.2479996,-4.389654E-05
0.2489996,-4.319148E-05
0.2499996,-4.248642E-05
0.2509996,-4.184267E-05
0.2519996,-4.104565E-05
0.2529996,-4.027928E-05
0.2539996,-3.948225E-05
0.2549996,-3.874653E-05
0.2559996,-3.798016E-05
0.2569996,-3.733641E-05
0.2579996,-3.663135E-05
0.2589996,-3.595694E-05
0.2599996,-3.509861E-05
0.2609996,-3.433224E-05
0.2619996,-3.359652E-05
0.2629996,-3.276884E-05
0.2639996,-3.209443E-05
0.2649996,-3.135872E-05
0.2659996,-3.0623E-05
0.2669996,-2.988729E-05
0.2679996,-2.896764E-05
0.2689996,-2.817062E-05
0.2699996,-2.74349E-05
0.2709996,-2.660722E-05
0.2719996,-2.593282E-05
0.2729996,-2.522776E-05
0.2739996,-2.436942E-05
0.2749996,-2.354174E-05
0.2759996,-2.259144E-05
0.2769996,-2.176376E-05
0.2779996,-2.102804E-05
0.2789996,-2.016971E-05
0.2799996,-1.937268E-05
0.2809996,-1.857566E-05
0.2819996,-1.762536E-05
0.2829996,-1.673637E-05
0.2839996,-1.578607E-05
0.2849996,-1.492773E-05
0.2859996,-1.400809E-05
0.2869996,-1.308844E-05
0.2879996,-1.253158E-05
0.2889996,-1.165178E-05
0.2899996,-1.064937E-05
0.2909996,-9.689873E-06
0.2919996,-8.518859E-06
0.2929996,-7.586952E-06
0.2939996,-6.520164E-06
0.2949996,-5.523883E-06
0.2959996,-4.564387E-06
0.2969996,-3.479206E-06
0.2979996,-2.384829E-06
0.2989996,-1.241404E-06
0.2999996,-6.014232E-09
0.3009996,1.143542E-06
0.3019996,2.234853E-06
0.3029996,3.445719E-06
0.3039996,4.543162E-06
0.3049996,5.680456E-06
0.3059996,7.066054E-06
0.3069996,8.427128E-06
0.3079996,9.883232E-06
0.3089996,1.115234E-05
0.3099996,1.250728E-05
0.3109996,1.390208E-05
0.3119996,1.525396E-05
0.3129996,1.671313E-05
0.3139996,1.83317E-05
0.3149996,1.996254E-05
0.3159996,2.153513E-05
0.3169996,2.314451E-05
0.3179996,2.475082E-05
0.3189996,2.685479E-05
0.3199996,2.84795E-05
0.3209996,3.028813E-05
0.3219996,3.215808E-05
0.3229996,3.415065E-05
0.3239996,3.629648E-05
0.3249996,3.822774E-05
0.3259996,4.034292E-05
0.3269996,4.261137E-05
0.3279996,4.466525E-05
0.3289996,4.699502E-05
0.3299996,4.947805E-05
0.3309996,5.19611E-05
0.3319996,5.478134E-05
0.3329996,5.735634E-05
0.3339996,6.008463E-05
0.3349996,6.311945E-05
0.3359996,6.609297E-05
0.3369996,6.91891E-05
0.3379996,7.26531E-05
0.3389996,7.614775E-05
0.3399996,8.001026E-05
0.3409996,8.393408E-05
0.3419996,8.804183E-05
0.3429996,9.242546E-05
0.3439996,9.699303E-05
0.3449996,0.0001019898
0.3459996,0.0001075076
0.3469996,0.0001132401
0.3479996,0.0001197389
0.3489996,0.0001265443
0.3499996,0.0001339627
0.3509996,0.0001422702
0.3519996,0.0001512827
0.3529996,0.0001613988
0.3539996,0.0001728944
0.3549996,0.0001854935
0.3559996,0.0002004837
0.3569996,0.0002170986
0.3579996,0.0002364725
0.3589996,0.0002590344
0.3599996,0.0002852137
0.3609996,0.0003197415
0.3619996,0.000357447
0.3629996,0.0004025096
0.3639996,0.0004589144
0.3649996,0.0005272747
0.3659996,0.0006112689
0.3669996,0.000713656
0.3679996,0.0008353557
0.3689996,0.0009788203
0.3699996,0.001141904
0.3709996,0.001323381
0.3719996,0.001519878
0.3729996,0.001724652
0.3739996,0.001936171
0.3749996,0.002149528
0.3759996,0.002358901
0.3769996,0.002567047
0.3779996,0.002769063
0.3789996,0.002964947
0.3799996,0.003185153
0.3809996,0.003369082
0.3819996,0.00354688
0.3829996,0.003727744
0.3839996,0.003899411
0.3849996,0.004074143
0.3859996,0.004242745
0.3869996,0.004411346
0.3879996,0.004583013
0.3889996,0.004751615
0.3899996,0.004923282
0.3909996,0.005091883
0.3919996,0.00526355
0.3929996,0.005441349
0.3939996,0.00561608
0.3949996,0.005790813
0.3959996,0.005977808
0.3969996,0.006158671
0.3979996,0.0063426
0.3989996,0.006535726
0.3999996,0.00672272
0.4009996,0.00691278
0.4019996,0.007115101
0.4029996,0.007311293
0.4039996,0.007510548
0.4049996,0.007715936
0.4059996,0.007921323
0.4069996,0.008129776
0.4079996,0.008341295
0.4089996,0.008558944
0.4099996,0.008779659
0.4109996,0.008997308
0.4119996,0.009221088
0.4129996,0.009435672
0.4139996,0.009659452
0.4149996,0.009883232
0.4159996,0.01010395
0.4169996,0.01033386
0.4179996,0.0105607
0.4189996,0.01078448
0.4199996,0.01101746
0.4209996,0.01123511
0.4219996,0.01146196
0.4229996,0.0116888
0.4239996,0.01190338
0.4249996,0.01213023
0.4259996,0.01235401
0.4269996,0.01256553
0.4279996,0.01278318
0.4289996,0.0129947
0.4299996,0.01320621
0.4309996,0.01340854
0.4319996,0.01361392
0.4329996,0.01381318
0.4339996,0.01400324
0.4349996,0.01419943
0.4359996,0.01438029
0.4369996,0.01455809
0.4379996,0.01473896
0.4389996,0.01490756
0.4399996,0.0150639
0.4409996,0.0152233
0.4419996,0.01537351
0.4429996,0.01551452
0.4439996,0.01565247
0.4449996,0.01577815
0.4459996,0.01589771
0.4469996,0.0160142
0.4479996,0.01611229
0.4489996,0.01621958
0.4499996,0.01630542
0.4509996,0.01637899
0.4519996,0.01646482
0.4529996,0.01652613
0.4539996,0.01657518
0.4549996,0.01663342
0.4559996,0.01667021
0.4569996,0.01670086
0.4579996,0.01673152
0.4589996,0.01674072
0.4599996,0.01675604
0.4609996,0.01676524
0.4619996,0.01675604
0.4629996,0.01675298
0.4639996,0.01673459
0.4649996,0.01671006
0.4659996,0.0166886
0.4669996,0.01666101
0.4679996,0.01662116
0.4689996,0.01658744
0.4699996,0.01655372
0.4709996,0.01650161
0.4719996,0.01646176
0.4729996,0.0164311
0.4739996,0.01638206
0.4749996,0.0163422
0.4759996,0.01631461
0.4769996,0.01627783
0.4779996,0.01626557
0.4789996,0.01624717
0.4799996,0.01623798
0.4809996,0.0162533
0.4819996,0.01625637
0.4829996,0.01629009
0.4839996,0.0163422
0.4849996,0.01638206
0.4859996,0.01645563
0.4869996,0.01654146
0.4879996,0.01662423
0.4889996,0.01674685
0.4899996,0.01688479
0.4909996,0.01701661
0.4919996,0.01718215
0.4929996,0.01736301
0.4939996,0.01754694
0.4949996,0.01774619
0.4959996,0.01796078
0.4969996,0.01818456
0.4979996,0.01842367
0.4989996,0.01866584
0.4999996,0.01892947
0.5009996,0.0192023
0.5019996,0.019469
0.5029996,0.01975715
0.5039996,0.02005144
0.5049996,0.02034266
0.5059996,0.02065534
0.5069996,0.02097415
0.5079996,0.02128989
0.5089996,0.0216087
0.5099996,0.0219551
0.5109996,0.02227391
0.5119996,0.02261418
0.5129996,0.02296978
0.5139996,0.02330392
0.5149996,0.02365031
0.5159996,0.02401511
0.5169996,0.02436457
0.5179996,0.02472323
0.5189996,0.02509109
0.5199996,0.02544669
0.5209996,0.02581454
0.5219996,0.02618854
0.5229996,0.02655639
0.5239996,0.02693345
0.5249996,0.0273105
0.5259996,0.02768756
0.5269996,0.02806461
0.5279996,0.02844779
0.5289996,0.02882485
0.5299996,0.02921417
0.5309996,0.02960655
0.5319996,0.02999586
0.5329996,0.03114647
0.5339996,0.03151433
0.5349996,0.03191284
0.5359996,0.03231135
0.5369996,0.03270987
0.5379996,0.03310838
0.5389996,0.03350689
0.5399996,0.03393606
0.5409996,0.03430392
0.5419996,0.03470243
0.5429996,0.0351316
0.5439996,0.03553011
0.5449996,0.03595928
0.5459996,0.03635779
0.5469996,0.03678696
0.5479996,0.03721613
0.5489996,0.03761464
0.5499996,0.03804381
0.5509996,0.03847298
0.5519996,0.03887149
0.5529996,0.03930065
0.5539996,0.03972982
0.5549996,0.04012834
0.5559996,0.0405575
0.5569996,0.04098667
0.5579996,0.04141584
0.5589996,0.04181435
0.5599996,0.04227417
0.5609996,0.04267269
0.5619996,0.04310185
0.5629996,0.04353102
0.5639996,0.04399084
0.5649996,0.04438936
0.5659996,0.04484918
0.5669996,0.04524769
0.5679996,0.04567686
0.5689996,0.04613668
0.5699996,0.04656585
0.5709996,0.04699502
0.5719996,0.04745484
0.5729996,0.04788401
0.5739996,0.04831317
0.5749996,0.04874234
0.5759996,0.04917151
0.5769996,0.04963133
0.5779996,0.0500605
0.5789996,0.05045901
0.5799996,0.05091884
0.5809996,0.05137866
0.5819996,0.05177717
0.5829996,0.05223699
0.5839996,0.05266616
0.5849996,0.05312598
0.5859996,0.05355515
0.5869996,0.05401497
0.5879996,0.0544748
0.5889996,0.05490396
0.5899996,0.05536379
0.5909996,0.05579295
0.5919996,0.05625277
0.5929996,0.0567126
0.5939996,0.05714176
0.5949996,0.05760158
0.5959996,0.05806141
0.5969996,0.05849057
0.5979996,0.0589504
0.5989996,0.05937957
0.5999996,0.05980873
0.6009996,0.06026856
0.6019996,0.06072838
0.6029996,0.0611882
0.6039996,0.06164802
0.6049996,0.06207719
0.6059996,0.06253701
0.6069996,0.06299683
0.6079996,0.063426
0.6089996,0.06391648
0.6099996,0.06434565
0.6109996,0.06480547
0.6119996,0.06526529
0.6129996,0.06572511
0.6139996,0.06615429
0.6149996,0.06664476
0.6159996,0.06707393
0.6169996,0.06753375
0.6179996,0.06799357
0.6189996,0.06848405
0.6199996,0.06891321
0.6209996,0.0694037
0.6219996,0.06986352
0.6229996,0.07029268
0.6239996,0.07078316
0.6249996,0.07121233
0.6259996,0.07167216
0.6269996,0.07216263
0.6279996,0.07262245
0.6289996,0.07305162
0.6299996,0.0735421
0.6309996,0.07397126
0.6319996,0.07443108
0.6329996,0.0748909
0.6339996,0.07532008
0.6349996,0.07581055
0.6359996,0.07627037
0.6369996,0.0767302
0.6379996,0.07722067
0.6389996,0.0776805
0.6399996,0.07810967
0.6409996,0.0786308
0.6419996,0.07905997
0.6429996,0.07948913
0.6439996,0.08001027
0.6449996,0.08047009
0.6459996,0.08089925
0.6469996,0.08138973
0.6479996,0.0818189
0.6489996,0.08227872
0.6499996,0.0827692
0.6509996,0.08322902
0.6519996,0.08368885
0.6529996,0.08417932
0.6539996,0.08463915
0.6549996,0.08509897
0.6559996,0.08558945
0.6569996,0.08604927
0.6579996,0.08650909
0.6589996,0.08696891
0.6599996,0.08745939
0.6609996,0.08791921
0.6619996,0.08837903
0.6629996,0.08883885
0.6639996,0.08929868
0.6649996,0.08978915
0.6659996,0.09024898
0.6669996,0.0907088
0.6679996,0.09119927
0.6689996,0.0916591
0.6699996,0.09214958
0.6709996,0.0926094
0.6719996,0.09309988
0.6729996,0.09362101
0.6739996,0.09405018
0.6749996,0.09454065
0.6759996,0.09500048
0.6769996,0.0954603
0.6779996,0.09595077
0.6789996,0.09641059
0.6799996,0.09683976
0.6809996,0.09733024
0.6819996,0.09782072
0.6829996,0.09828054
0.6839996,0.09877102
0.6849996,0.09923084
0.6859996,0.09969067
0.6869996,0.1001811
0.6879996,0.100641
0.6889996,0.1011008
0.6899996,0.1016219
0.6909996,0.1020511
0.6919996,0.1025416
0.6929996,0.103032
0.6939996,0.1034919
0.6949996,0.1039517
0.6959996,0.1044728
0.6969996,0.1049326
0.6979996,0.1053925
0.6989996,0.1059136
0.6999996,0.1060055
0.6990005,0.1055457
0.6980005,0.1050859
0.6970005,0.1045954
0.6960005,0.1041356
0.6950005,0.1036758
0.6940005,0.1031853
0.6930005,0.1027255
0.6920004,0.1022657
0.6910005,0.1017752
0.6900005,0.101346
0.6890005,0.1008555
0.6880005,0.1003651
0.6870005,0.09990525
0.6860005,0.09944542
0.6850005,0.09895495
0.6840005,0.09849513
0.6830005,0.0980353
0.6820005,0.09751417
0.6810005,0.097085
0.6800005,0.09662518
0.6790005,0.09616536
0.6780005,0.09570553
0.6770005,0.09521506
0.6760005,0.09472458
0.6750005,0.09429541
0.6740005,0.09380494
0.6730005,0.09331446
0.6720005,0.09288529
0.6710005,0.09239481
0.6700005,0.09193499
0.6690005,0.09147517
0.6680005,0.09101535
0.6670005,0.09052487
0.6660005,0.09006505
0.6650005,0.08957457
0.6640005,0.08911475
0.6630005,0.08868558
0.6620005,0.08819511
0.6610005,0.08773528
0.6600005,0.08727546
0.6590005,0.08681564
0.6580005,0.08632516
0.6570005,0.08586534
0.6560005,0.08540551
0.6550004,0.08494569
0.6540005,0.08448587
0.6530005,0.08402605
0.6520005,0.08356623
0.6510005,0.0831064
0.6500005,0.08261593
0.6490005,0.08218676
0.6480005,0.08169628
0.6470005,0.08126711
0.6460005,0.08080729
0.6450005,0.08031681
0.6440005,0.07985699
0.6430005,0.07939716
0.6420005,0.07893734
0.6410004,0.07850818
0.6400005,0.0780177
0.6390005,0.07752723
0.6380005,0.07709806
0.6370005,0.07663824
0.6360005,0.07614776
0.6350005,0.07574924
0.6340005,0.07525877
0.6330005,0.07479894
0.6320005,0.07436978
0.6310005,0.07387929
0.6300005,0.07341947
0.6290005,0.07299031
0.6280005,0.07249983
0.6270005,0.07204001
0.6260005,0.07158019
0.6250005,0.07112037
0.6240005,0.07066055
0.6230005,0.07023137
0.6220005,0.06977155
0.6210005,0.06931173
0.6200005,0.06885191
0.6190005,0.06839209
0.6180004,0.06793226
0.6170005,0.06747244
0.6160005,0.06701262
0.6150005,0.0665528
0.6140005,0.06612363
0.6130005,0.06563315
0.6120005,0.06520399
0.6110005,0.06477482
0.6100005,0.06428434
0.6090005,0.06385517
0.6080005,0.06339534
0.6070005,0.06293552
0.6060005,0.06247571
0.6050005,0.06204654
0.6040004,0.06155606
0.6030005,0.06112689
0.6020005,0.06069772
0.6010005,0.06020725
0.6000005,0.05980873
0.5990005,0.05934891
0.5980005,0.05888909
0.5970005,0.05845992
0.5960005,0.05796945
0.5950005,0.05750962
0.5940005,0.05708046
0.5930005,0.05662064
0.5920005,0.05619146
0.5910005,0.05573164
0.5900005,0.05530247
0.5890005,0.05484265
0.5880005,0.05441349
0.5870005,0.05398431
0.5860005,0.05349384
0.5850005,0.05306467
0.5840005,0.05260485
0.5830005,0.05217568
0.5820005,0.05174651
0.5810004,0.05128669
0.5800005,0.05085753
0.5790005,0.05042836
0.5780005,0.04996854
0.5770005,0.04953937
0.5760005,0.0491102
0.5750005,0.04865038
0.5740005,0.04822121
0.5730005,0.04779204
0.5720005,0.04736288
0.5710005,0.04690305
0.5700005,0.04647389
0.5690005,0.04601406
0.5680005,0.04561555
0.5670004,0.04518638
0.5660005,0.04472656
0.5650005,0.04429739
0.5640005,0.04386823
0.5630005,0.04343906
0.5620005,0.04300989
0.5610005,0.04258072
0.5600005,0.0421209
0.5590005,0.04169173
0.5580005,0.04129322
0.5570005,0.04083339
0.5560005,0.04043488
0.5550005,0.04000572
0.5540005,0.03954589
0.5530005,0.03914738
0.5520005,0.03871821
0.5510005,0.03828905
0.5500005,0.03785988
0.5490005,0.03743071
0.5480005,0.03700154
0.5470005,0.03660303
0.5460005,0.03617386
0.5450005,0.03574469
0.5440005,0.03534618
0.5430005,0.03491702
0.5420005,0.03448785
0.5410005,0.03408933
0.5400005,0.03366017
0.5390005,0.033231
0.5380005,0.03283248
0.5370005,0.03240332
0.5360005,0.03200481
0.5350005,0.03160629
0.5340005,0.03120778
0.5330005,0.03077861
0.5320005,0.0303801
0.5310005,0.02995093
0.5300004,0.02955242
0.5290005,0.02915391
0.5280005,0.02875539
0.5270005,0.02832623
0.5260005,0.02792772
0.5250005,0.0275292
0.5240005,0.02713069
0.5230005,0.02673218
0.5220005,0.02633366
0.5210005,0.02593515
0.5200005,0.02553664
0.5190005,0.02513812
0.5180005,0.02477027
0.5170005,0.02437175
0.5160004,0.02397324
0.5150005,0.02357473
0.5140005,0.02320687
0.5130005,0.02280836
0.5120005,0.02240985
0.5110005,0.02201133
0.5100005,0.02164347
0.5090005,0.02127562
0.5080005,0.0208771
0.5070005,0.02050925
0.5060005,0.02014139
0.5050005,0.01974287
0.5040005,0.01940567
0.5030005,0.01900716
0.5020005,0.0186393
0.5010005,0.0183021
0.5000005,0.01793424
0.4990005,0.01756638
0.4980005,0.01719853
0.4970005,0.01683067
0.4960005,0.01649346
0.4950005,0.01612561
0.4940005,0.0157884
0.4930005,0.01542055
0.4920005,0.01508334
0.4910005,0.01474614
0.4900005,0.01437828
0.4890005,0.01404108
0.4880005,0.01370388
0.4870005,0.01336667
0.4860005,0.01254407
0.4850005,0.01220687
0.4840005,0.01188499
0.4830005,0.01156312
0.4820005,0.01123511
0.4810005,0.01092243
0.4800005,0.01060975
0.4790005,0.01029094
0.4780005,0.009984394
0.4770005,0.00968091
0.4760005,0.009371297
0.4750005,0.009077011
0.4740005,0.008773527
0.4730005,0.008476176
0.4720005,0.00818802
0.4710005,0.0078968
0.4700005,0.007614775
0.4690005,0.007332751
0.4680005,0.007053792
0.4670005,0.006780964
0.4660005,0.006508136
0.4650005,0.006238374
0.4640005,0.005980873
0.4630005,0.005717242
0.4620005,0.005459741
0.4610005,0.005208372
0.4600005,0.004957002
0.4590005,0.004717894
0.4580005,0.004472656
0.4570005,0.004236614
0.4560005,0.004009768
0.4550005,0.003776791
0.4540005,0.003556076
0.4530005,0.003335362
0.4520005,0.003117712
0.4510005,0.00290926
0.4500005,0.002700807
0.4490005,0.002498485
0.4480005,0.002302294
0.4470005,0.002103038
0.4460005,0.001919109
0.4450005,0.00173518
0.4440005,0.001551251
0.4430005,0.001379584
0.4420005,0.001204851
0.4410005,0.001007329
0.4400005,0.0008476177
0.4390005,0.0006863733
0.4380005,0.0005340188
0.4370005,0.0003825839
0.4360005,0.0002342146
0.4350005,9.626783E-05
0.4340005,-4.443782E-05
0.4330005,-0.0001810462
0.4320005,-0.0003097352
0.4310005,-0.0004389654
0.4300005,-0.0005575996
0.4290005,-0.00067746
0.4280005,-0.0007960942
0.4270005,-0.0009043057
0.4260005,-0.001015276
0.4250005,-0.001121648
0.4240005,-0.001222196
0.4230005,-0.001325197
0.4220005,-0.001422372
0.4210005,-0.001516483
0.4200005,-0.001609673
0.4190005,-0.001696427
0.4180005,-0.001784406
0.4170005,-0.00187024
0.4160005,-0.001951475
0.4150005,-0.002034243
0.4140005,-0.00210996
0.4130005,-0.00218813
0.4120005,-0.002265687
0.4110005,-0.002335886
0.4100005,-0.002415895
0.4090005,-0.002493452
0.4080005,-0.002556601
0.4070005,-0.002627107
0.4060005,-0.002691789
0.4050005,-0.002755244
0.4040005,-0.002822991
0.4030005,-0.002886754
0.4020005,-0.002950209
0.4010005,-0.003013051
0.4000005,-0.003040842
0.3990005,-0.003102152
0.3980005,-0.003160396
0.3970005,-0.003224771
0.3960005,-0.003286081
0.3950005,-0.003344325
0.3940005,-0.0034087
0.3930005,-0.003466944
0.3920005,-0.003525188
0.3910005,-0.003589563
0.3900005,-0.003647808
0.3890005,-0.003712183
0.3880005,-0.003773492
0.3870005,-0.003828671
0.3860005,-0.003893046
0.3850005,-0.003954356
0.3840005,-0.0040126
0.3830005,-0.00408004
0.3820005,-0.004138284
0.3810005,-0.00420266
0.3800005,-0.004267035
0.3790005,-0.004328344
0.3780005,-0.004395785
0.3770005,-0.00446016
0.3760005,-0.00452147
0.3750005,-0.00458891
0.3740005,-0.004656351
0.3730005,-0.004720726
0.3720005,-0.004788167
0.3710005,-0.004858673
0.3700005,-0.004926114
0.3690005,-0.00499662
0.3680005,-0.005060995
0.3670005,-0.005134566
0.3660005,-0.005205072
0.3650005,-0.005275579
0.3640005,-0.00534915
0.3630005,-0.005422722
0.3620005,-0.005493228
0.3610005,-0.0055668
0.3600005,-0.005643437
0.3590005,-0.005720073
0.3580005,-0.00579671
0.3570005,-0.005873348
0.3560005,-0.005946919
0.3550005,-0.006023556
0.3540005,-0.006103259
0.3530005,-0.00617683
0.3520005,-0.006256533
0.3510005,-0.006339301
0.3500005,-0.006412873
0.3490005,-0.006492575
0.3480005,-0.006575344
0.3470005,-0.006648915
0.3460005,-0.006737814
0.3450005,-0.006820582
0.3440005,-0.006894153
0.3430005,-0.006979987
0.3420005,-0.00705969
0.3410005,-0.007139392
0.3400005,-0.00722216
0.3390005,-0.007301863
0.3380005,-0.007387696
0.3370005,-0.007470464
0.3360005,-0.007547101
0.3350005,-0.007632935
0.3340005,-0.007712637
0.3330005,-0.00779234
0.3320005,-0.007875108
0.3310005,-0.007954811
0.3300005,-0.008031447
0.3290005,-0.008120347
0.3280005,-0.008193919
0.3270005,-0.008276686
0.3260005,-0.008359454
0.3250005,-0.008433026
0.3240005,-0.008512728
0.3230005,-0.008592431
0.3220005,-0.008669068
0.3210005,-0.008742639
0.3200005,-0.008825407
0.3190005,-0.008898979
0.3180005,-0.008972551
0.3170005,-0.009052253
0.3160005,-0.009122759
0.3150005,-0.009193265
0.3140005,-0.009269902
0.3130005,-0.009337342
0.3120005,-0.009407849
0.3110005,-0.009478356
0.3100005,-0.009539665
0.3090005,-0.009610171
0.3080005,-0.009677611
0.3070005,-0.009738921
0.3060005,-0.009803296
0.3050005,-0.009858475
0.3040005,-0.009919784
0.3030005,-0.009987226
0.3020005,-0.01002708
0.3010005,-0.01007919
0.3000005,-0.0101313
0.2990005,-0.01017115
0.2980005,-0.01020794
0.2970005,-0.01024779
0.2960005,-0.01027232
0.2950005,-0.01029684
0.2940005,-0.0103091
0.2930005,-0.01031523
0.2920005,-0.01030604
0.2910005,-0.01028764
0.2900005,-0.01025699
0.2890005,-0.01020487
0.2880005,-0.0101405
0.2870005,-0.01005773
0.2860005,-0.009944309
0.2850005,-0.009812493
0.2840005,-0.009646957
0.2830005,-0.009441569
0.2820005,-0.009193265
0.2810005,-0.008898979
0.2800005,-0.008564842
0.2790005,-0.008209245
0.2780005,-0.00782606
0.2770005,-0.007464333
0.2760005,-0.007111803
0.2750005,-0.006768468
0.2740005,-0.006471117
0.2730005,-0.006195223
0.2720005,-0.005937723
0.2710005,-0.005723139
0.2700005,-0.005517752
0.2690005,-0.005336888
0.2680005,-0.005177483
0.2670005,-0.005024209
0.2660005,-0.004883197
0.2650005,-0.004757512
0.2640005,-0.004634893
0.2630005,-0.00452147
0.2620005,-0.004417243
0.2610005,-0.004313017
0.2600005,-0.004224118
0.2590005,-0.004135219
0.2580005,-0.004043255
0.2570005,-0.003960487
0.2560005,-0.00388385
0.2550005,-0.003801082
0.2540005,-0.003733641
0.2530005,-0.003660069
0.2520005,-0.003589563
0.2510005,-0.003525188
0.2500005,-0.003460813
0.2490005,-0.003396438
0.2480005,-0.003335128
0.2470005,-0.003273819
0.2460005,-0.003215575
0.2450005,-0.003154265
0.2440005,-0.003099086
0.2430005,-0.003043907
0.2420005,-0.002988729
0.2410005,-0.002936616
0.2400005,-0.002887568
0.2390005,-0.002841586
0.2380005,-0.002795603
0.2370005,-0.002749621
0.2360005,-0.00270977
0.2350005,-0.002666853
0.2340005,-0.002630068
0.2330005,-0.002593281
0.2320005,-0.002556496
0.2310005,-0.00251971
0.2300005,-0.00248599
0.2290005,-0.002452269
0.2280005,-0.002421614
0.2270005,-0.002387894
0.2260005,-0.002360305
0.2250005,-0.00232965
0.2240005,-0.002302061
0.2230005,-0.002274471
0.2220005,-0.002246882
0.2210005,-0.002219293
0.2200005,-0.002194769
0.2190005,-0.002167179
0.2180005,-0.002145721
0.2170005,-0.002121197
0.2160005,-0.002096673
0.2150005,-0.002075215
0.2140005,-0.002050691
0.2130005,-0.002029233
0.2120005,-0.002007774
0.2110005,-0.001986316
0.2100005,-0.001964858
0.2090005,-0.001946465
0.2080005,-0.001925006
0.2070005,-0.001906613
0.2060005,-0.00188822
0.2050005,-0.001869828
0.2040005,-0.001851435
0.2030005,-0.001833042
0.2020005,-0.001814649
0.2010005,-0.001799321
0.2000005,-0.001780929
0.1990005,-0.001765601
0.1980005,-0.001747208
0.1970005,-0.001731881
0.1960005,-0.001716554
0.1950005,-0.001701226
0.1940005,-0.001685899
0.1930005,-0.001670571
0.1920005,-0.001655244
0.1910005,-0.001639916
0.1900005,-0.001627655
0.1890005,-0.001612327
0.1880005,-0.001634504
0.1870005,-0.001621016
0.1860005,-0.001607528
0.1850005,-0.001594039
0.1840005,-0.001581164
0.1830005,-0.001568289
0.1820005,-0.001555721
0.1810005,-0.001543459
0.1800005,-0.001531197
0.1790005,-0.001518629
0.1780005,-0.001507286
0.1770005,-0.001495637
0.1760005,-0.001483682
0.1750005,-0.001472646
0.1740005,-0.001461611
0.1730005,-0.001450268
0.1720005,-0.001439539
0.1710005,-0.00142881
0.1700005,-0.001418081
0.1690005,-0.001407658
0.1680005,-0.001397542
0.1670005,-0.001387426
0.1660005,-0.001377616
0.1650005,-0.001367807
0.1640005,-0.001358304
0.1630005,-0.001348801
0.1620005,-0.001338991
0.1610005,-0.001330101
0.1600005,-0.001320905
0.1590005,-0.001311708
0.1580005,-0.001302819
0.1570005,-0.001294235
0.1560005,-0.001285652
0.1550005,-0.001277068
0.1540005,-0.001268792
0.1530005,-0.001260515
0.1520005,-0.001252545
0.1510005,-0.001244574
0.1500005,-0.001236298
0.1490005,-0.001228634
0.1480005,-0.001221277
0.1470005,-0.001213306
0.1460005,-0.001206256
0.1450005,-0.001198899
0.1440005,-0.001191235
0.1430005,-0.001184184
0.1420005,-0.001176521
0.1410005,-0.001169777
0.1400005,-0.001163033
0.1390005,-0.001155982
0.1380005,-0.001149238
0.1370005,-0.001142494
0.1360005,-0.001136056
0.1350005,-0.001129619
0.1340005,-0.001123181
0.1330005,-0.001116744
0.1320005,-0.001110613
0.1310005,-0.001104175
0.1300005,-0.001098044
0.1290005,-0.001091913
0.1280005,-0.001085782
0.1270005,-0.001079651
0.1260005,-0.001073827
0.1250005,-0.001068309
0.1240005,-0.001062791
0.1230005,-0.001056967
0.1220005,-0.001051449
0.1210005,-0.001045931
0.1200005,-0.001040107
0.1190005,-0.001034895
0.1180005,-0.001029071
0.1170005,-0.00102386
0.1160005,-0.001018648
0.1150005,-0.001013437
0.1140005,-0.001008226
0.1130005,-0.001003321
0.1120005,-0.0009981095
0.1110005,-0.0009932048
0.1100005,-0.0009883
0.1090005,-0.0009833951
0.1080005,-0.0009784905
0.1070005,-0.0009738922
0.1060005,-0.0009689874
0.1050005,-0.0009643892
0.1040005,-0.000959791
0.1030005,-0.0009548862
0.1020005,-0.000950288
0.1010005,-0.0009459963
0.1000005,-0.0009413981
0.09900048,-0.0009367999
0.09800047,-0.0009325081
0.09700048,-0.0009282165
0.09600048,-0.0009239248
0.09500048,-0.0009199397
0.09400047,-0.0009153415
0.09300048,-0.0009113564
0.09200048,-0.0009073712
0.09100047,-0.0009030796
0.09000048,-0.0008990944
0.08900048,-0.0008954158
0.08800048,-0.0008908176
0.08700047,-0.000887139
0.08600048,-0.0008831539
0.08500048,-0.0008791688
0.08400048,-0.0008754902
0.08300047,-0.0008711985
0.08200048,-0.0008672134
0.08100048,-0.0008635348
0.08000048,-0.0008598563
0.07900048,-0.0008558711
0.07800048,-0.000852499
0.07700048,-0.000848514
0.07600047,-0.0008451419
0.07500048,-0.0008414634
0.07400048,-0.0008380913
0.07300048,-0.0008344128
0.07200047,-0.0008310407
0.07100048,-0.0008273621
0.07000048,-0.0008239901
0.06900048,-0.0008206181
0.06800048,-0.000817246
0.06700048,-0.0008135674
0.06600048,-0.000810502
0.06500047,-0.00080713
0.06400048,-0.0008037579
0.06300048,-0.0008003859
0.06200048,-0.0007970139
0.06100048,-0.0007936418
0.06000048,-0.0007905763
0.05900048,-0.0007872043
0.05800048,-0.0007841389
0.05700048,-0.0007810733
0.05600048,-0.0007777013
0.05500048,-0.0007746358
0.05400048,-0.0007715704
0.05300048,-0.0007685049
0.05200048,-0.0007654394
0.05100048,-0.0007623739
0.05000048,-0.0007593084
0.04900048,-0.0007559364
0.04800048,-0.0007531774
0.04700048,-0.000750112
0.04600048,-0.0007467399
0.04500048,-0.000743981
0.04400048,-0.0007409155
0.04300048,-0.0007375435
0.04200048,-0.0007347845
0.04100048,-0.0007317191
0.04000048,-0.0007286536
0.03900048,-0.0007258946
0.03800048,-0.0007225226
0.03700048,-0.0007197637
0.03600048,-0.0007166982
0.03500048,-0.0007136327
0.03400048,-0.0007105672
0.03300048,-0.0007078083
0.03200048,-0.0007047429
0.03100048,-0.0007019839
0.03000048,-0.0006989184
0.02900048,-0.0006958529
0.02800048,-0.000693094
0.02700048,-0.0006900285
0.02600048,-0.0006872696
0.02500048,-0.000684204
0.02400048,-0.0006811386
0.02300048,-0.0006783796
0.02200048,-0.0006756207
0.02100048,-0.0006725552
0.02000048,-0.0006697963
0.01900048,-0.0006670374
0.01800048,-0.0006639719
0.01700048,-0.0006615195
0.01600048,-0.0006587606
0.01500048,-0.0006556951
0.01400048,-0.0006529361
0.01300048,-0.0006501772
0.01200048,-0.0006474183
0.01100048,-0.0006446594
0.01000048,-0.0006419004
0.009000476,-0.0006388349
0.008000477,-0.0006363826
0.007000477,-0.0006336236
0.006000477,-0.0006308646
0.005000477,-0.0006281057
0.004000477,-0.0006256534
0.003000477,-0.0006228944
0.002000477,-0.000620442
0.001000477,-0.0006176831
