EXPID. 0529
[电化学]: CV : 0 >> 0.7 >> 0 >> 0(V) @ 0.01(V/s) X 10(Seg)
起始电位 (V),0
上限电位 (V),0.7
下限电位 (V),0
终止电位 (V),0
扫速 (V/s),0.01
电解液 信息:
KOH,1
0.001,2.176609E-06
0.002,2.33908E-06
0.003,2.446372E-06
0.004,2.608843E-06
0.005,2.820361E-06
0.006,2.94298E-06
0.007,3.102385E-06
0.008,3.185153E-06
0.009,3.274052E-06
0.01,3.396671E-06
0.011,3.507029E-06
0.012,3.592862E-06
0.013,3.620452E-06
0.014,3.644975E-06
0.015,3.776791E-06
0.016,3.859559E-06
0.017,3.991375E-06
0.018,4.169173E-06
0.019,4.276465E-06
0.02,4.460393E-06
0.021,4.546228E-06
0.022,4.607537E-06
0.023,4.681108E-06
0.024,4.770008E-06
0.025,4.846645E-06
0.026,4.917151E-06
0.027,4.990723E-06
0.028,5.03977E-06
0.029,5.125603E-06
0.03,5.220634E-06
0.031,5.361646E-06
0.032,5.404562E-06
0.033,5.573164E-06
0.034,5.754027E-06
0.035,5.818403E-06
0.036,5.950218E-06
0.037,6.051379E-06
0.038,6.063641E-06
0.039,6.140278E-06
0.04,6.269029E-06
0.041,6.315011E-06
0.042,6.354862E-06
0.043,6.360993E-06
0.044,6.477482E-06
0.045,6.587839E-06
0.046,6.698197E-06
0.047,6.826946E-06
0.048,6.91891E-06
0.049,7.059923E-06
0.05,7.158018E-06
0.051,7.249983E-06
0.052,7.357275E-06
0.053,7.470698E-06
0.054,7.528942E-06
0.055,7.61171E-06
0.056,7.688347E-06
0.057,7.786442E-06
0.058,7.918258E-06
0.059,7.936651E-06
0.06,8.028615E-06
0.061,8.142038E-06
0.062,8.212544E-06
0.063,8.255462E-06
0.064,8.402604E-06
0.065,8.408735E-06
0.066,8.546682E-06
0.067,8.589599E-06
0.068,8.669301E-06
0.069,8.742873E-06
0.07,8.773528E-06
0.071,8.871623E-06
0.072,9.006504E-06
0.073,9.012635E-06
0.074,9.107665E-06
0.075,9.150583E-06
0.076,9.306922E-06
0.077,9.359034E-06
0.078,9.472457E-06
0.079,9.549095E-06
0.08,9.644124E-06
0.081,9.748352E-06
0.082,9.907756E-06
0.083,9.956804E-06
0.084,1.01254E-05
0.085,1.020204E-05
0.086,1.027868E-05
0.087,1.041049E-05
0.088,1.048407E-05
0.089,1.060055E-05
0.09,1.06588E-05
0.091,1.071704E-05
0.092,1.087951E-05
0.093,1.094695E-05
0.094,1.099294E-05
0.095,1.099294E-05
0.096,1.103892E-05
0.097,1.114928E-05
0.098,1.126883E-05
0.099,1.139145E-05
0.1,1.154779E-05
0.101,1.168574E-05
0.102,1.171332E-05
0.103,1.184207E-05
0.104,1.189419E-05
0.105,1.198002E-05
0.106,1.20444E-05
0.107,1.210877E-05
0.108,1.222833E-05
0.109,1.228044E-05
0.11,1.234175E-05
0.111,1.239999E-05
0.112,1.252874E-05
0.113,1.259005E-05
0.114,1.265749E-05
0.115,1.275252E-05
0.116,1.283529E-05
0.117,1.292726E-05
0.118,1.296711E-05
0.119,1.307747E-05
0.12,1.315104E-05
0.121,1.321541E-05
0.122,1.332577E-05
0.123,1.33411E-05
0.124,1.347291E-05
0.125,1.355875E-05
0.126,1.362006E-05
0.127,1.3758E-05
0.128,1.378559E-05
0.129,1.394806E-05
0.13,1.406148E-05
0.131,1.41136E-05
0.132,1.423622E-05
0.133,1.439562E-05
0.134,1.446613E-05
0.135,1.458875E-05
0.136,1.468684E-05
0.137,1.476961E-05
0.138,1.482786E-05
0.139,1.488916E-05
0.14,1.502098E-05
0.141,1.509149E-05
0.142,1.517732E-05
0.143,1.529074E-05
0.144,1.540417E-05
0.145,1.543789E-05
0.146,1.556357E-05
0.147,1.562795E-05
0.148,1.573524E-05
0.149,1.583947E-05
0.15,1.585479E-05
0.151,1.597741E-05
0.152,1.604792E-05
0.153,1.617054E-05
0.154,1.621345E-05
0.155,1.632075E-05
0.156,1.644336E-05
0.157,1.648015E-05
0.158,1.655985E-05
0.159,1.672539E-05
0.16,1.683268E-05
0.161,1.696143E-05
0.162,1.704113E-05
0.163,1.714229E-05
0.164,1.725572E-05
0.165,1.736914E-05
0.166,1.75592E-05
0.167,1.766343E-05
0.168,1.777378E-05
0.169,1.782896E-05
0.17,1.800676E-05
0.171,1.810792E-05
0.172,1.8252E-05
0.173,1.83409E-05
0.174,1.84206E-05
0.175,1.860759E-05
0.176,1.870263E-05
0.177,1.883138E-05
0.178,1.897545E-05
0.179,1.905209E-05
0.18,1.922069E-05
0.181,1.933105E-05
0.182,1.946593E-05
0.183,1.957935E-05
0.184,1.968971E-05
0.185,1.983072E-05
0.186,1.9984E-05
0.187,2.010049E-05
0.188,2.025989E-05
0.189,2.036412E-05
0.19,2.048061E-05
0.191,2.065534E-05
0.192,2.071665E-05
0.193,2.083927E-05
0.194,2.098641E-05
0.195,2.112742E-05
0.196,2.132975E-05
0.197,2.147689E-05
0.198,2.163629E-05
0.199,2.190606E-05
0.2,2.212677E-05
0.201,2.220034E-05
0.202,2.23996E-05
0.203,2.253755E-05
0.204,2.271534E-05
0.205,2.286249E-05
0.206,2.30035E-05
0.207,2.315371E-05
0.208,2.33407E-05
0.209,2.349091E-05
0.21,2.365338E-05
0.211,2.376374E-05
0.212,2.394767E-05
0.213,2.411627E-05
0.214,2.422356E-05
0.215,2.489288E-05
0.216,2.501551E-05
0.217,2.516878E-05
0.218,2.538336E-05
0.219,2.56286E-05
0.22,2.581253E-05
0.221,2.605777E-05
0.222,2.630301E-05
0.223,2.648694E-05
0.224,2.667087E-05
0.225,2.688545E-05
0.226,2.703872E-05
0.227,2.725331E-05
0.228,2.749855E-05
0.229,2.765182E-05
0.23,2.777444E-05
0.231,2.808099E-05
0.232,2.826491E-05
0.233,2.844885E-05
0.234,2.875539E-05
0.235,2.893932E-05
0.236,2.924587E-05
0.237,2.946045E-05
0.238,2.973635E-05
0.239,3.001224E-05
0.24,3.025748E-05
0.241,3.056403E-05
0.242,3.077861E-05
0.243,3.10545E-05
0.244,3.129974E-05
0.245,3.157564E-05
0.246,3.182088E-05
0.247,3.209677E-05
0.248,3.240332E-05
0.249,3.264856E-05
0.25,3.29551E-05
0.251,3.3231E-05
0.252,3.353754E-05
0.253,3.375213E-05
0.254,3.402802E-05
0.255,3.439588E-05
0.256,3.467178E-05
0.257,3.497832E-05
0.258,3.528487E-05
0.259,3.559142E-05
0.26,3.589797E-05
0.261,3.623517E-05
0.262,3.651106E-05
0.263,3.687892E-05
0.264,3.715482E-05
0.265,3.746136E-05
0.266,3.779857E-05
0.267,3.807446E-05
0.268,3.844232E-05
0.269,3.877952E-05
0.27,3.908607E-05
0.271,3.951524E-05
0.272,3.982179E-05
0.273,4.025095E-05
0.274,4.068012E-05
0.275,4.101732E-05
0.276,4.147715E-05
0.277,4.181435E-05
0.278,4.218221E-05
0.279,4.258072E-05
0.28,4.291792E-05
0.281,4.328578E-05
0.282,4.37456E-05
0.283,4.405215E-05
0.284,4.448132E-05
0.285,4.494114E-05
0.286,4.521704E-05
0.287,4.567686E-05
0.288,4.610602E-05
0.289,4.647388E-05
0.29,4.693371E-05
0.291,4.739353E-05
0.292,4.7884E-05
0.293,4.828252E-05
0.294,4.880365E-05
0.295,4.938609E-05
0.296,4.97846E-05
0.297,5.021377E-05
0.298,5.073491E-05
0.299,5.113342E-05
0.3,5.16852E-05
0.301,5.217568E-05
0.302,5.257419E-05
0.303,5.312598E-05
0.304,5.355515E-05
0.305,5.410693E-05
0.306,5.45361E-05
0.307,5.51492E-05
0.308,5.567033E-05
0.309,5.619146E-05
0.31,5.67126E-05
0.311,5.726438E-05
0.312,5.775486E-05
0.313,5.827599E-05
0.314,5.891974E-05
0.315,5.944087E-05
0.316,5.999266E-05
0.317,6.05751E-05
0.318,6.115754E-05
0.319,6.173999E-05
0.32,6.241439E-05
0.321,6.302749E-05
0.322,6.364059E-05
0.323,6.425368E-05
0.324,6.492809E-05
0.325,6.554119E-05
0.326,6.624625E-05
0.327,6.698196E-05
0.328,6.768702E-05
0.329,6.839208E-05
0.33,6.91278E-05
0.331,6.977155E-05
0.332,7.050727E-05
0.333,7.124298E-05
0.334,7.191739E-05
0.335,7.271441E-05
0.336,7.351144E-05
0.337,7.430847E-05
0.338,7.513614E-05
0.339,7.590251E-05
0.34,7.682216E-05
0.341,7.764984E-05
0.342,7.856948E-05
0.343,7.958109E-05
0.344,8.065401E-05
0.345,8.178824E-05
0.346,8.304509E-05
0.347,8.433259E-05
0.348,8.59573E-05
0.349,8.7582E-05
0.35,8.94826E-05
0.351,9.181237E-05
0.352,9.432607E-05
0.353,9.736089E-05
0.354,0.0001009168
0.355,0.0001049939
0.356,0.0001101746
0.357,0.0001163362
0.358,0.0001241838
0.359,0.0001342693
0.36,0.0001472056
0.361,0.0001645563
0.362,0.000187578
0.363,0.000218049
0.364,0.0002581148
0.365,0.0003079902
0.366,0.0003727744
0.367,0.0004451197
0.368,0.0005275813
0.369,0.000621385
0.37,0.0007240787
0.371,0.0008350492
0.372,0.0009536833
0.373,0.001076916
0.374,0.001205359
0.375,0.001337482
0.376,0.001471137
0.377,0.001609083
0.378,0.001747337
0.379,0.001886203
0.38,0.002027828
0.381,0.002166695
0.382,0.002307094
0.383,0.0024478
0.384,0.00258544
0.385,0.002725839
0.386,0.002865012
0.387,0.003002652
0.388,0.003172891
0.389,0.003307773
0.39,0.003445719
0.391,0.003583666
0.392,0.003721613
0.393,0.003862625
0.394,0.004000572
0.395,0.004141584
0.396,0.004285661
0.397,0.004429739
0.398,0.004576882
0.399,0.004730156
0.4,0.004880365
0.401,0.005036704
0.402,0.005193044
0.403,0.005352449
0.404,0.005521051
0.405,0.005683521
0.406,0.005852123
0.407,0.00602379
0.408,0.006195457
0.409,0.006373255
0.41,0.006554118
0.411,0.006731917
0.412,0.006909714
0.413,0.007087512
0.414,0.00726531
0.415,0.007443109
0.416,0.007620906
0.417,0.007798704
0.418,0.007976502
0.419,0.008148169
0.42,0.008325968
0.421,0.008497634
0.422,0.008669301
0.423,0.008844034
0.424,0.00900957
0.425,0.009178172
0.426,0.009343707
0.427,0.009506178
0.428,0.009668648
0.429,0.009824988
0.43,0.009984394
0.431,0.01014073
0.432,0.01029401
0.433,0.01044422
0.434,0.01059442
0.435,0.0107385
0.436,0.01088564
0.437,0.01102666
0.438,0.01116767
0.439,0.01130255
0.44,0.01143743
0.441,0.01157538
0.442,0.01170719
0.443,0.01183901
0.444,0.01197082
0.445,0.01209651
0.446,0.01222526
0.447,0.01235094
0.448,0.01247663
0.449,0.01260538
0.45,0.01273107
0.451,0.01285368
0.452,0.0129855
0.453,0.01310812
0.454,0.01323687
0.455,0.01336868
0.456,0.01349744
0.457,0.01363232
0.458,0.01376413
0.459,0.01389901
0.46,0.01404003
0.461,0.0141841
0.462,0.01432818
0.463,0.01447533
0.464,0.01462553
0.465,0.01478494
0.466,0.01494128
0.467,0.01510681
0.468,0.01527848
0.469,0.01544708
0.47,0.01562795
0.471,0.01581187
0.472,0.0159958
0.473,0.01619506
0.474,0.01639738
0.475,0.0165997
0.476,0.01681429
0.477,0.01702887
0.478,0.01725265
0.479,0.01748563
0.48,0.01772474
0.481,0.01796384
0.482,0.01822441
0.483,0.01848498
0.484,0.01874248
0.485,0.01901224
0.486,0.01928507
0.487,0.01956403
0.488,0.01985525
0.489,0.0201526
0.49,0.02044689
0.491,0.02075343
0.492,0.02106918
0.493,0.02137573
0.494,0.02170373
0.495,0.02202868
0.496,0.02235668
0.497,0.02269695
0.498,0.02303109
0.499,0.02338362
0.5,0.02373308
0.501,0.02408255
0.502,0.02444734
0.503,0.024806
0.504,0.0251708
0.505,0.02554478
0.506,0.02591264
0.507,0.02629276
0.508,0.02666675
0.509,0.0270438
0.51,0.02743312
0.511,0.02781324
0.512,0.02821175
0.513,0.02861027
0.514,0.02899038
0.515,0.02939196
0.516,0.02979354
0.517,0.03017979
0.518,0.03139171
0.519,0.03179022
0.52,0.03215808
0.521,0.03258725
0.522,0.03301642
0.523,0.03341493
0.524,0.03384409
0.525,0.03424261
0.526,0.03467178
0.527,0.03510094
0.528,0.03549946
0.529,0.03592863
0.53,0.03635779
0.531,0.03678696
0.532,0.03721613
0.533,0.0376453
0.534,0.03807446
0.535,0.03850363
0.536,0.0389328
0.537,0.03936196
0.538,0.03982178
0.539,0.04025095
0.54,0.04068012
0.541,0.04110929
0.542,0.04153846
0.543,0.04196763
0.544,0.04242745
0.545,0.04285662
0.546,0.04328578
0.547,0.0437456
0.548,0.04417477
0.549,0.04454263
0.55,0.04500245
0.551,0.04543162
0.552,0.04589145
0.553,0.04632061
0.554,0.04678043
0.555,0.0472096
0.556,0.04766942
0.557,0.04809859
0.558,0.04855841
0.559,0.04895693
0.56,0.04941675
0.561,0.04987657
0.562,0.05027508
0.563,0.05070425
0.564,0.05116407
0.565,0.05159324
0.566,0.05202241
0.567,0.05248223
0.568,0.0529114
0.569,0.05334057
0.57,0.05376973
0.571,0.05422956
0.572,0.05468938
0.573,0.05511854
0.574,0.05554771
0.575,0.05597688
0.576,0.05640605
0.577,0.05686587
0.578,0.05729504
0.579,0.05772421
0.58,0.05818403
0.581,0.05861319
0.582,0.05904236
0.583,0.05947153
0.584,0.0599007
0.585,0.06036052
0.586,0.06078969
0.587,0.06121886
0.588,0.06167868
0.589,0.06210784
0.59,0.06253701
0.591,0.06299683
0.592,0.063426
0.593,0.06385517
0.594,0.06431499
0.595,0.06474417
0.596,0.06517333
0.597,0.06563315
0.598,0.06606232
0.599,0.06652214
0.6,0.0669513
0.601,0.06738048
0.602,0.0678403
0.603,0.06826947
0.604,0.06869864
0.605,0.06915846
0.606,0.06961828
0.607,0.07004745
0.608,0.07050727
0.609,0.07096709
0.61,0.07139625
0.611,0.07185608
0.612,0.07228525
0.613,0.07274507
0.614,0.0732049
0.615,0.07366472
0.616,0.07412454
0.617,0.07458436
0.618,0.07501353
0.619,0.075504
0.62,0.07593317
0.621,0.076393
0.622,0.07685282
0.623,0.07731264
0.624,0.07774181
0.625,0.07820163
0.626,0.07860014
0.627,0.07905997
0.628,0.07948913
0.629,0.0799183
0.63,0.08037812
0.631,0.08080729
0.632,0.08123646
0.633,0.08169628
0.634,0.08215611
0.635,0.08261593
0.636,0.0831064
0.637,0.08356623
0.638,0.0840567
0.639,0.08451653
0.64,0.08497635
0.641,0.08546682
0.642,0.08592664
0.643,0.08638646
0.644,0.08687695
0.645,0.08730611
0.646,0.08779659
0.647,0.08828707
0.648,0.08871623
0.649,0.08920672
0.65,0.08966654
0.651,0.09012636
0.652,0.09058618
0.653,0.09107666
0.654,0.09153648
0.655,0.09202696
0.656,0.09248678
0.657,0.0929466
0.658,0.09346773
0.659,0.09392755
0.66,0.09438737
0.661,0.09490851
0.662,0.09536833
0.663,0.0958588
0.664,0.09634929
0.665,0.09680911
0.666,0.09720763
0.667,0.09766745
0.668,0.09815792
0.669,0.09867906
0.67,0.09913888
0.671,0.09962936
0.672,0.1001198
0.673,0.1005796
0.674,0.1010701
0.675,0.1015606
0.676,0.1020204
0.677,0.1025109
0.678,0.1029707
0.679,0.1034305
0.68,0.103921
0.681,0.1044115
0.682,0.1048407
0.683,0.1053311
0.684,0.1058216
0.685,0.1062815
0.686,0.1067719
0.687,0.1072011
0.688,0.1076916
0.689,0.1081514
0.69,0.1086112
0.691,0.1091017
0.692,0.1095615
0.693,0.110052
0.694,0.1105118
0.695,0.1110023
0.696,0.1114621
0.697,0.1119219
0.698,0.1124124
0.699,0.1128416
0.7,0.1129642
0.6990001,0.1125044
0.6980001,0.1120139
0.6970001,0.1115234
0.6960001,0.1110329
0.6950001,0.1105425
0.6940001,0.110052
0.6930001,0.1095922
0.6920001,0.1091017
0.6910001,0.1085806
0.6900001,0.1081514
0.6890001,0.1076609
0.6880001,0.1071398
0.6870001,0.1067106
0.6860001,0.1061895
0.6850001,0.105699
0.6840001,0.1052392
0.6830001,0.1047487
0.6820001,0.1042582
0.6810001,0.1037984
0.6800001,0.1033079
0.6790001,0.1028481
0.6780001,0.1023576
0.6770001,0.1018672
0.6760001,0.1014073
0.6750001,0.1009169
0.6740001,0.100457
0.6730001,0.09999721
0.6720001,0.09947608
0.6710001,0.09895495
0.6700001,0.09852578
0.6690001,0.09800465
0.6680001,0.09757548
0.6670001,0.097085
0.6660001,0.09659453
0.6650001,0.09613471
0.6640001,0.09564423
0.6630001,0.09515375
0.6620001,0.09472458
0.6610001,0.0942341
0.6600001,0.09374363
0.6590001,0.0932838
0.6580001,0.09279333
0.6570001,0.0923335
0.6560001,0.09187368
0.6550001,0.0913832
0.6540001,0.09092338
0.6530001,0.0904329
0.6520001,0.08997308
0.6510001,0.08951326
0.6500001,0.08905344
0.6490001,0.08853231
0.6480001,0.08810314
0.6470001,0.08764332
0.6460001,0.08715284
0.6450001,0.08666236
0.6440001,0.08623319
0.6430001,0.08574272
0.6420001,0.08528289
0.6410001,0.08479242
0.6400001,0.08433259
0.6390001,0.08384212
0.6380001,0.0833823
0.6370001,0.08292247
0.6360001,0.08246265
0.6350001,0.08200283
0.6340001,0.0814817
0.6330001,0.08105253
0.6320001,0.08059271
0.6310001,0.08010223
0.6300001,0.07967306
0.6290001,0.07918259
0.6280001,0.07872277
0.6270001,0.07826294
0.6260001,0.07777246
0.6250001,0.07731264
0.6240001,0.07685282
0.6230001,0.07636234
0.6220001,0.07590251
0.6210001,0.07544269
0.6200001,0.07498287
0.6190001,0.07449239
0.6180001,0.07403257
0.6170001,0.07360341
0.6160001,0.07311293
0.6150001,0.07265311
0.6140001,0.07219329
0.6130001,0.07170281
0.6120001,0.07127364
0.6110001,0.07081382
0.6100001,0.07032334
0.6090001,0.06986352
0.6080001,0.0694037
0.6070001,0.06891321
0.6060001,0.06845339
0.6050001,0.06802423
0.6040001,0.06753375
0.6030001,0.06707393
0.6020001,0.06661411
0.6010001,0.06615429
0.6000001,0.06569446
0.5990001,0.06523464
0.5980001,0.06477482
0.5970001,0.06431499
0.5960001,0.06385517
0.5950001,0.06339534
0.5940001,0.06293552
0.5930001,0.06247571
0.5920001,0.06201588
0.5910001,0.06155606
0.5900001,0.06106558
0.5890001,0.06063641
0.5880001,0.06017659
0.5870001,0.05971677
0.5860001,0.05925695
0.5850001,0.05879712
0.5840001,0.0583373
0.5830001,0.05790814
0.5820001,0.05744831
0.5810001,0.05698849
0.5800001,0.05652867
0.5790001,0.05606885
0.5780001,0.05560903
0.5770001,0.05517985
0.5760001,0.05472003
0.5750001,0.05426021
0.5740001,0.05380039
0.5730001,0.05334057
0.5720001,0.05288074
0.5710001,0.05245158
0.5700001,0.05199176
0.5690001,0.05156258
0.5680001,0.05110276
0.5670001,0.05064294
0.5660001,0.05018312
0.5650001,0.04975395
0.5640001,0.04929413
0.5630001,0.04886496
0.5620001,0.04840514
0.5610001,0.04797597
0.5600001,0.04751615
0.5590001,0.04708698
0.5580001,0.04662716
0.5570001,0.04616734
0.5560001,0.04573817
0.5550001,0.04527835
0.5540001,0.04481852
0.5530001,0.04438936
0.5520001,0.04396019
0.5510001,0.04350037
0.5500001,0.0430712
0.5490001,0.04264203
0.5480001,0.04218221
0.5470001,0.04175304
0.5460001,0.04132387
0.5450001,0.04089471
0.5440001,0.04043488
0.5430001,0.04000572
0.5420001,0.03957655
0.5410001,0.03911673
0.5400001,0.03868756
0.5390001,0.03825839
0.5380001,0.03782922
0.5370001,0.0373694
0.5360001,0.03697089
0.5350001,0.03651107
0.5340001,0.0360819
0.5330001,0.03568339
0.5320001,0.03522356
0.5310001,0.03482505
0.5300001,0.03439588
0.5290001,0.03396672
0.5280001,0.03353755
0.5270001,0.03310838
0.5260001,0.03267921
0.5250001,0.03225004
0.5240001,0.03185153
0.5230001,0.03142237
0.5220001,0.0309932
0.5210001,0.03056403
0.5200001,0.03016552
0.5190001,0.02973635
0.5180001,0.02930718
0.5170001,0.02890867
0.5160001,0.0284795
0.5150001,0.02808099
0.5140001,0.02765182
0.5130001,0.02725331
0.5120001,0.02682414
0.5110001,0.02642563
0.5100001,0.02599646
0.5090001,0.02559795
0.5080001,0.02519943
0.5070001,0.02480092
0.5060001,0.02437175
0.5050001,0.02397324
0.5040001,0.02357473
0.5030001,0.02317622
0.5020001,0.0227777
0.5010001,0.02237919
0.5000001,0.02198068
0.4990001,0.02158217
0.4980001,0.02118365
0.4970001,0.0208158
0.4960001,0.02041728
0.4950001,0.02004942
0.4940001,0.01965091
0.4930001,0.0192524
0.4920001,0.01888454
0.4910001,0.01851668
0.4900001,0.01814882
0.4890001,0.01775031
0.4880001,0.01738245
0.4870001,0.0170146
0.4860001,0.01664674
0.4850001,0.01627888
0.4840001,0.01591102
0.4830001,0.01554316
0.4820001,0.01517531
0.4810001,0.0148381
0.4800001,0.01447024
0.4790001,0.01410239
0.4780001,0.01373453
0.4770001,0.01339733
0.4760001,0.01302947
0.4750001,0.0122038
0.4740001,0.01186353
0.4730001,0.01152327
0.4720001,0.01119526
0.4710001,0.01086112
0.4700001,0.01053311
0.4690001,0.01021124
0.4680001,0.009886298
0.4670001,0.009567488
0.4660001,0.009251743
0.4650001,0.008935998
0.4640001,0.008632516
0.4630001,0.008322901
0.4620001,0.008022484
0.4610001,0.007722067
0.4600001,0.007418585
0.4590001,0.007133495
0.4580001,0.006842274
0.4570001,0.006557184
0.4560001,0.006278225
0.4550001,0.005999266
0.4540001,0.005726438
0.4530001,0.005456676
0.4520001,0.005189979
0.4510001,0.004932478
0.4500001,0.004674978
0.4490001,0.004420543
0.4480001,0.004172239
0.4470001,0.003927
0.4460001,0.003687892
0.4450001,0.00345185
0.4440001,0.003221939
0.4430001,0.002998159
0.4420001,0.002771313
0.4410001,0.002553664
0.4400001,0.002345211
0.4390001,0.002130627
0.4380001,0.001928305
0.4370001,0.001732114
0.4360001,0.001532858
0.4350001,0.001345864
0.4340001,0.001158869
0.4330001,0.0009411149
0.4320001,0.0007654628
0.4310001,0.000589504
0.4300001,0.0004227417
0.4290001,0.0002556729
0.4280001,9.136306E-05
0.4270001,-6.221762E-05
0.4260001,-0.0002233499
0.4250001,-0.0003734359
0.4240001,-0.0005180549
0.4230001,-0.0006655046
0.4220001,-0.0008052906
0.4210001,-0.0009417046
0.4200001,-0.001080264
0.4190001,-0.001209628
0.4180001,-0.001340217
0.4170001,-0.001468661
0.4160001,-0.001594653
0.4150001,-0.001721257
0.4140001,-0.001841424
0.4130001,-0.001963123
0.4120001,-0.002083903
0.4110001,-0.002201005
0.4100001,-0.002327609
0.4090001,-0.002449616
0.4080001,-0.002562119
0.4070001,-0.002682286
0.4060001,-0.002796015
0.4050001,-0.002911584
0.4040001,-0.003031444
0.4030001,-0.003111348
0.4020001,-0.003230902
0.4010001,-0.003350456
0.4000001,-0.003470009
0.3990001,-0.003595694
0.3980001,-0.003718314
0.3970001,-0.003847064
0.3960001,-0.003975814
0.3950001,-0.004101499
0.3940001,-0.004233315
0.3930001,-0.004368196
0.3920001,-0.004496946
0.3910001,-0.004637958
0.3900001,-0.00477284
0.3890001,-0.004913852
0.3880001,-0.00505793
0.3870001,-0.005195876
0.3860001,-0.005343019
0.3850001,-0.005490162
0.3840001,-0.00563424
0.3830001,-0.005784449
0.3820001,-0.005931592
0.3810001,-0.0060818
0.3800001,-0.006235075
0.3790001,-0.006385284
0.3780001,-0.006544688
0.3770001,-0.006697963
0.3760001,-0.006851237
0.3750001,-0.007010642
0.3740001,-0.007166982
0.3730001,-0.007323321
0.3720001,-0.007485792
0.3710001,-0.007639066
0.3700001,-0.007801536
0.3690001,-0.007964007
0.3680001,-0.008117281
0.3670001,-0.008279751
0.3660001,-0.008436091
0.3650001,-0.008595496
0.3640001,-0.008757967
0.3630001,-0.008911241
0.3620001,-0.009073711
0.3610001,-0.009226986
0.3600001,-0.00938026
0.3590001,-0.009539665
0.3580001,-0.009692939
0.3570001,-0.009843147
0.3560001,-0.009999488
0.3550001,-0.0101405
0.3540001,-0.01029377
0.3530001,-0.01044398
0.3520001,-0.010585
0.3510001,-0.01073214
0.3500001,-0.01087008
0.3490001,-0.01100497
0.3480001,-0.01114904
0.3470001,-0.01127779
0.3460001,-0.01141574
0.3450001,-0.01154756
0.3440001,-0.01167324
0.3430001,-0.01179893
0.3420001,-0.01192461
0.3410001,-0.01204723
0.3400001,-0.01216372
0.3390001,-0.01227714
0.3380001,-0.01238443
0.3370001,-0.01249479
0.3360001,-0.01258982
0.3350001,-0.01268485
0.3340001,-0.01277988
0.3330001,-0.01285345
0.3320001,-0.01292396
0.3310001,-0.0129822
0.3300001,-0.01302818
0.3290001,-0.01306497
0.3280001,-0.01308949
0.3270001,-0.01309869
0.3260001,-0.01309869
0.3250001,-0.01308949
0.3240001,-0.01306497
0.3230001,-0.01302818
0.3220001,-0.01297914
0.3210001,-0.01292089
0.3200001,-0.01285039
0.3190001,-0.01277375
0.3180001,-0.01268792
0.3170001,-0.01258369
0.3160001,-0.0124764
0.3150001,-0.01235684
0.3140001,-0.01222809
0.3130001,-0.01208402
0.3120001,-0.01193687
0.3110001,-0.01177134
0.3100001,-0.01159047
0.3090001,-0.01141268
0.3080001,-0.01121342
0.3070001,-0.01100497
0.3060001,-0.01079038
0.3050001,-0.01055434
0.3040001,-0.0103091
0.3030001,-0.01005773
0.3020001,-0.009791034
0.3010001,-0.009524337
0.3000001,-0.00925151
0.2990001,-0.008978682
0.2980001,-0.008702789
0.2970001,-0.008433026
0.2960001,-0.008169394
0.2950001,-0.007911894
0.2940001,-0.007657459
0.2930001,-0.007415285
0.2920001,-0.007179243
0.2910001,-0.006943201
0.2900001,-0.006719421
0.2890001,-0.006501772
0.2880001,-0.006287188
0.2870001,-0.00607567
0.2860001,-0.005876414
0.2850001,-0.005677157
0.2840001,-0.0054779
0.2830001,-0.005287841
0.2820001,-0.005103912
0.2810001,-0.004923048
0.2800001,-0.004754446
0.2790001,-0.004591976
0.2780001,-0.004441767
0.2770001,-0.00430382
0.2760001,-0.004172005
0.2750001,-0.00404632
0.2740001,-0.003929832
0.2730001,-0.003816409
0.2720001,-0.003712183
0.2710001,-0.003611021
0.2700001,-0.003512926
0.2690001,-0.003424027
0.2680001,-0.003335128
0.2670001,-0.003249295
0.2660001,-0.003169592
0.2650001,-0.003092955
0.2640001,-0.003022449
0.2630001,-0.002951943
0.2620001,-0.002884502
0.2610001,-0.002823193
0.2600001,-0.002764949
0.2590001,-0.00270977
0.2580001,-0.002654591
0.2570001,-0.002602478
0.2560001,-0.00255343
0.2550001,-0.002507448
0.2540001,-0.002461466
0.2530001,-0.002418549
0.2520001,-0.002375632
0.2510001,-0.002332716
0.2500001,-0.00229593
0.2490001,-0.002259144
0.2480001,-0.002219293
0.2470001,-0.002185572
0.2460001,-0.002151852
0.2450001,-0.002121197
0.2440001,-0.002087477
0.2430001,-0.002056822
0.2420001,-0.002026167
0.2410001,-0.001998578
0.2400001,-0.001967923
0.2390001,-0.001943399
0.2380001,-0.00191581
0.2370001,-0.00188822
0.2360001,-0.001866762
0.2350001,-0.001839173
0.2340001,-0.001817714
0.2330001,-0.00179319
0.2320001,-0.001771732
0.2310001,-0.001747208
0.2300001,-0.00172575
0.2290001,-0.001704292
0.2280001,-0.001685899
0.2270001,-0.00166444
0.2260001,-0.001646047
0.2250001,-0.001627655
0.2240001,-0.001606196
0.2230001,-0.001626534
0.2220001,-0.001608447
0.2210001,-0.001591281
0.2200001,-0.001573807
0.2190001,-0.001556947
0.2180001,-0.0015407
0.2170001,-0.001524759
0.2160001,-0.001509126
0.2150001,-0.001493492
0.2140001,-0.001478164
0.2130001,-0.00146345
0.2120001,-0.001448736
0.2110001,-0.001434634
0.2100001,-0.001420533
0.2090001,-0.001406738
0.2080001,-0.001393557
0.2070001,-0.001380375
0.2060001,-0.0013675
0.2050001,-0.001354932
0.2040001,-0.001342363
0.2030001,-0.001329795
0.2020001,-0.001317533
0.2010001,-0.001305884
0.2000001,-0.001293929
0.1990001,-0.001282586
0.1980001,-0.001271244
0.1970001,-0.001260208
0.1960001,-0.001249479
0.1950001,-0.001238443
0.1940001,-0.001228021
0.1930001,-0.001217598
0.1920001,-0.001207175
0.1910001,-0.001197366
0.1900001,-0.00118725
0.1890001,-0.00117744
0.1880001,-0.001167937
0.1870001,-0.001158434
0.1860001,-0.001149238
0.1850001,-0.001140041
0.1840001,-0.001130845
0.1830001,-0.001121955
0.1820001,-0.001113372
0.1810001,-0.001104482
0.1800001,-0.001096205
0.1790001,-0.001087622
0.1780001,-0.001079038
0.1770001,-0.001071068
0.1760001,-0.001063098
0.1750001,-0.001055128
0.1740001,-0.001047464
0.1730001,-0.0010398
0.1720001,-0.001032136
0.1710001,-0.001024473
0.1700001,-0.001017116
0.1690001,-0.001009758
0.1680001,-0.001002401
0.1670001,-0.0009956572
0.1660001,-0.0009886065
0.1650001,-0.0009815559
0.1640001,-0.0009748118
0.1630001,-0.0009677612
0.1620001,-0.0009613237
0.1610001,-0.0009548862
0.1600001,-0.0009481421
0.1590001,-0.0009417046
0.1580001,-0.0009355737
0.1570001,-0.0009291361
0.1560001,-0.0009230052
0.1550001,-0.0009168742
0.1540001,-0.0009110498
0.1530001,-0.0009049188
0.1520001,-0.000899401
0.1510001,-0.0008935765
0.1500001,-0.0008877521
0.1490001,-0.0008819277
0.1480001,-0.0008764099
0.1470001,-0.0008705854
0.1460001,-0.0008653741
0.1450001,-0.0008601628
0.1440001,-0.0008546449
0.1430001,-0.0008494336
0.1420001,-0.0008442223
0.1410001,-0.0008390109
0.1400001,-0.0008341062
0.1390001,-0.0008288948
0.1380001,-0.0008239901
0.1370001,-0.0008190853
0.1360001,-0.0008141805
0.1350001,-0.0008092758
0.1340001,-0.0008046775
0.1330001,-0.0008000793
0.1320001,-0.0007951746
0.1310001,-0.0007905763
0.1300001,-0.0007859781
0.1290001,-0.0007816864
0.1280001,-0.0007770882
0.1270001,-0.00077249
0.1260001,-0.0007681983
0.1250001,-0.0007639066
0.1240001,-0.0007599215
0.1230001,-0.0007556298
0.1220001,-0.0007513381
0.1210001,-0.000747353
0.1200001,-0.0007430614
0.1190001,-0.0007390762
0.1180001,-0.000735091
0.1170001,-0.000731106
0.1160001,-0.0007274274
0.1150001,-0.0007234422
0.1140001,-0.0007197637
0.1130001,-0.0007157786
0.1120001,-0.0007117934
0.1110001,-0.0007081148
0.1100001,-0.0007044363
0.1090001,-0.0007007577
0.1080001,-0.0006970791
0.1070001,-0.0006937071
0.1060001,-0.0006903351
0.1050001,-0.0006866565
0.1040001,-0.0006829779
0.1030001,-0.0006799124
0.1020001,-0.0006765404
0.1010001,-0.0006728618
0.1000001,-0.0006694898
0.0990001,-0.0006661177
0.09800009,-0.0006630523
0.09700009,-0.0006596802
0.0960001,-0.0006563082
0.0950001,-0.0006532427
0.09400009,-0.0006501772
0.0930001,-0.0006471117
0.0920001,-0.0006440463
0.0910001,-0.0006406742
0.09000009,-0.0006376088
0.0890001,-0.0006345432
0.0880001,-0.0006314777
0.08700009,-0.0006287188
0.08600009,-0.0006256534
0.0850001,-0.0006228944
0.0840001,-0.0006198289
0.08300009,-0.00061707
0.08200009,-0.0006143111
0.0810001,-0.0006115522
0.0800001,-0.0006087932
0.07900009,-0.0006060342
0.0780001,-0.0006032753
0.0770001,-0.0006005164
0.07600009,-0.000598064
0.07500009,-0.0005953051
0.0740001,-0.0005925461
0.0730001,-0.0005900938
0.07200009,-0.0005876414
0.07100009,-0.000585189
0.0700001,-0.00058243
0.0690001,-0.0005799776
0.06800009,-0.0005775253
0.0670001,-0.0005750729
0.0660001,-0.0005726205
0.06500009,-0.0005701681
0.06400009,-0.0005680223
0.0630001,-0.0005652634
0.0620001,-0.000562811
0.06100009,-0.0005606651
0.0600001,-0.0005582127
0.0590001,-0.0005560669
0.0580001,-0.0005536145
0.0570001,-0.0005514687
0.05600009,-0.0005490163
0.0550001,-0.0005468705
0.05400009,-0.0005447246
0.0530001,-0.0005425788
0.05200009,-0.0005404329
0.0510001,-0.000538287
0.05000009,-0.0005358347
0.0490001,-0.0005339954
0.04800009,-0.0005318496
0.0470001,-0.0005297037
0.0460001,-0.0005275579
0.04500009,-0.000525412
0.0440001,-0.0005235728
0.04300009,-0.000521427
0.0420001,-0.0005195877
0.04100009,-0.0005174418
0.0400001,-0.0005156025
0.03900009,-0.0005137632
0.0380001,-0.0005116174
0.03700009,-0.0005097781
0.0360001,-0.0005079389
0.0350001,-0.0005060995
0.03400009,-0.0005042602
0.0330001,-0.0005024209
0.03200009,-0.0005005816
0.03100009,-0.0004984358
0.0300001,-0.0004965966
0.0290001,-0.0004947572
0.0280001,-0.0004932245
0.0270001,-0.0004913852
0.0260001,-0.0004898525
0.0250001,-0.0004880132
0.0240001,-0.0004861739
0.0230001,-0.0004843346
0.02200009,-0.0004828018
0.02100009,-0.0004809626
0.02000009,-0.0004791233
0.0190001,-0.0004775905
0.0180001,-0.0004757512
0.0170001,-0.0004742185
0.0160001,-0.0004726858
0.0150001,-0.000471153
0.0140001,-0.0004696203
0.0130001,-0.000467781
0.0120001,-0.0004662482
0.01100009,-0.0004647155
0.0100001,-0.0004631828
0.009000096,-0.00046165
0.008000095,-0.0004601173
0.007000095,-0.0004585845
0.006000096,-0.0004570518
0.005000095,-0.0004558256
0.004000095,-0.0004539863
0.003000095,-0.0004524536
0.002000095,-0.0004512274
0.001000095,-0.0004496947
9.536743E-08,-0.0004438702
0.0009999046,-0.0004343672
0.001999905,-0.0004257839
0.002999905,-0.0004181202
0.003999905,-0.0004104565
0.004999904,-0.0004034059
0.005999905,-0.0003966618
0.006999905,-0.0003902243
0.007999904,-0.0003843998
0.008999905,-0.0003785754
0.009999905,-0.0003730576
0.0109999,-0.0003678463
0.0119999,-0.0003623284
0.0129999,-0.0003577302
0.0139999,-0.0003528254
0.0149999,-0.0003482272
0.0159999,-0.0003439355
0.0169999,-0.0003393373
0.0179999,-0.0003350456
0.0189999,-0.0003310605
0.0199999,-0.0003267688
0.0209999,-0.0003230902
0.0219999,-0.0003191051
0.02299991,-0.0003154265
0.02399991,-0.0003117479
0.02499991,-0.0003083759
0.02599991,-0.0003046973
0.0269999,-0.0003013253
0.0279999,-0.0002979533
0.0289999,-0.0002945812
0.0299999,-0.0002915157
0.0309999,-0.0002884502
0.0319999,-0.0002853848
0.0329999,-0.0002823193
0.0339999,-0.0002792538
0.0349999,-0.0002764949
0.03599991,-0.0002734294
0.0369999,-0.0002706705
0.03799991,-0.000268218
0.0389999,-0.0002654591
0.03999991,-0.0002627002
0.0409999,-0.0002599413
0.04199991,-0.0002571823
0.0429999,-0.0002547299
0.0439999,-0.0002522776
0.0449999,-0.0002498252
0.0459999,-0.0002473728
0.04699991,-0.0002446139
0.0479999,-0.000242468
0.04899991,-0.0002400156
0.0499999,-0.0002375632
0.05099991,-0.0002354174
0.0519999,-0.000232965
0.05299991,-0.0002308192
0.0539999,-0.0002286733
0.0549999,-0.0002265275
0.0559999,-0.0002243817
0.0569999,-0.0002222358
0.05799991,-0.00022009
0.0589999,-0.0002182507
0.05999991,-0.0002157983
0.0609999,-0.000213959
0.06199991,-0.0002118132
0.0629999,-0.0002099739
0.06399991,-0.0002078281
0.06499991,-0.0002059888
0.0659999,-0.0002041495
0.0669999,-0.0002023102
0.06799991,-0.0002001643
0.0689999,-0.0001986316
0.0699999,-0.0001967923
0.07099991,-0.0001946465
0.07199991,-0.0001928072
0.0729999,-0.0001909679
0.0739999,-0.0001894352
0.07499991,-0.0001875959
0.07599991,-0.0001857566
0.0769999,-0.0001842238
0.0779999,-0.0001826911
0.07899991,-0.0001808518
0.0799999,-0.0001793191
0.0809999,-0.0001774798
0.08199991,-0.000175947
0.08299991,-0.0001741077
0.0839999,-0.000172575
0.0849999,-0.0001707357
0.08599991,-0.000169203
0.08699991,-0.0001676702
0.0879999,-0.0001661375
0.0889999,-0.0001646047
0.08999991,-0.000163072
0.0909999,-0.0001615393
0.0919999,-0.0001597
0.09299991,-0.0001617644
0.09399991,-0.0001603849
0.0949999,-0.0001588521
0.0959999,-0.0001574114
0.09699991,-0.0001560012
0.09799991,-0.0001546218
0.0989999,-0.0001532116
0.0999999,-0.0001518015
0.1009999,-0.0001502995
0.1019999,-0.000148828
0.1029999,-0.0001474179
0.1039999,-0.0001461304
0.1049999,-0.0001447816
0.1059999,-0.0001434021
0.1069999,-0.0001421759
0.1079999,-0.0001408578
0.1089999,-0.0001396009
0.1099999,-0.0001383441
0.1109999,-0.0001369953
0.1119999,-0.0001357077
0.1129999,-0.0001343589
0.1139999,-0.0001331327
0.1149999,-0.0001319065
0.1159999,-0.000130711
0.1169999,-0.0001295155
0.1179999,-0.0001283199
0.1189999,-0.0001271857
0.1199999,-0.0001260515
0.1209999,-0.0001248559
0.1219999,-0.0001237217
0.1229999,-0.0001225262
0.1239999,-0.0001213
0.1249999,-0.0001202271
0.1259999,-0.0001191541
0.1269999,-0.0001179893
0.1279999,-0.0001169777
0.1289999,-0.0001159047
0.1299999,-0.0001148625
0.1309999,-0.0001138509
0.1319999,-0.000112686
0.1329999,-0.0001115824
0.1339999,-0.0001105401
0.1349999,-0.0001095592
0.1359999,-0.0001085782
0.1369999,-0.0001075666
0.1379999,-0.0001066163
0.1389999,-0.0001056967
0.1399999,-0.0001046544
0.1409999,-0.0001036735
0.1419999,-0.0001026618
0.1429999,-0.0001016809
0.1439999,-0.0001007306
0.1449999,-9.978029E-05
0.1459999,-9.889129E-05
0.1469999,-9.806362E-05
0.1479999,-9.714397E-05
0.1489999,-9.622433E-05
0.1499999,-9.518206E-05
0.1509999,-9.432372E-05
0.1519999,-9.343474E-05
0.1529999,-9.25764E-05
0.1539999,-9.174873E-05
0.1549999,-9.092104E-05
0.1559999,-9.009337E-05
0.1569999,-8.923503E-05
0.1579999,-8.831538E-05
0.1589999,-8.745705E-05
0.1599999,-8.666002E-05
0.1609999,-8.583234E-05
0.1619999,-8.509662E-05
0.1629999,-8.433026E-05
0.1639999,-8.350258E-05
0.1649999,-8.258293E-05
0.1659999,-8.17859E-05
0.1669999,-8.101953E-05
0.1679999,-8.028382E-05
0.1689999,-7.954811E-05
0.1699999,-7.881239E-05
0.1709999,-7.801536E-05
0.1719999,-7.709571E-05
0.1729999,-7.642131E-05
0.1739999,-7.57469E-05
0.1749999,-7.504185E-05
0.1759999,-7.436744E-05
0.1769999,-7.363172E-05
0.1779999,-7.274273E-05
0.1789999,-7.206832E-05
0.1799999,-7.133261E-05
0.1809999,-7.071951E-05
0.1819999,-7.004511E-05
0.1829999,-6.927874E-05
0.1839999,-6.848171E-05
0.1849999,-6.783796E-05
0.1859999,-6.716356E-05
0.1869999,-6.658111E-05
0.1879999,-6.590671E-05
0.1889999,-6.520165E-05
0.1899999,-6.446593E-05
0.1909999,-6.379152E-05
0.1919999,-6.317843E-05
0.1929999,-6.259599E-05
0.1939999,-6.192158E-05
0.1949999,-6.124718E-05
0.1959999,-6.054211E-05
0.1969999,-5.995967E-05
0.1979999,-5.931592E-05
0.1989999,-5.879479E-05
0.1999999,-5.821234E-05
0.2009999,-5.747663E-05
0.2019999,-5.683288E-05
0.2029999,-5.628109E-05
0.2039999,-5.569865E-05
0.2049999,-5.511621E-05
0.2059999,-5.447246E-05
0.2069999,-5.37674E-05
0.2079999,-5.318495E-05
0.2089999,-5.263316E-05
0.2099999,-5.214269E-05
0.2109999,-5.159091E-05
0.2119999,-5.085519E-05
0.2129999,-5.027275E-05
0.2139999,-4.975162E-05
0.2149999,-4.923048E-05
0.2159999,-4.870935E-05
0.2169999,-4.815756E-05
0.2179999,-4.751381E-05
0.2189999,-4.690071E-05
0.2199999,-4.634893E-05
0.2209999,-4.58891E-05
0.2219999,-4.539863E-05
0.2229999,-4.478553E-05
0.2239999,-4.420309E-05
0.2249999,-4.36513E-05
0.2259999,-4.313017E-05
0.2269999,-4.263969E-05
0.2279999,-4.217987E-05
0.2289999,-4.159743E-05
0.2299999,-4.098433E-05
0.2309999,-4.049386E-05
0.2319999,-3.997273E-05
0.2329999,-3.95129E-05
0.2339999,-3.899177E-05
0.2349999,-3.843998E-05
0.2359999,-3.782689E-05
0.2369999,-3.733641E-05
0.2379999,-3.687659E-05
0.2389999,-3.641676E-05
0.2399999,-3.595694E-05
0.2409999,-3.540516E-05
0.2419999,-3.482271E-05
0.2429999,-3.430158E-05
0.2439999,-3.384176E-05
0.2449999,-3.332063E-05
0.2459999,-3.289146E-05
0.2469999,-3.237033E-05
0.2479999,-3.187985E-05
0.2489999,-3.126675E-05
0.2499999,-3.074562E-05
0.2509999,-3.031645E-05
0.2519999,-2.985663E-05
0.2529999,-2.942747E-05
0.2539999,-2.887568E-05
0.2549999,-2.829324E-05
0.2559999,-2.780276E-05
0.2569999,-2.734294E-05
0.2579999,-2.694442E-05
0.2589999,-2.645395E-05
0.2599999,-2.587151E-05
0.2609999,-2.531972E-05
0.2619999,-2.482924E-05
0.2629999,-2.433876E-05
0.2639999,-2.39096E-05
0.2649999,-2.348043E-05
0.2659999,-2.289799E-05
0.2669999,-2.23462E-05
0.2679999,-2.185572E-05
0.2689999,-2.13959E-05
0.2699999,-2.087477E-05
0.2709999,-2.038429E-05
0.2719999,-1.995512E-05
0.2729999,-1.946465E-05
0.2739999,-1.891286E-05
0.2749999,-1.829976E-05
0.2759999,-1.777863E-05
0.2769999,-1.728815E-05
0.2779999,-1.682833E-05
0.2789999,-1.627654E-05
0.2799999,-1.590869E-05
0.2809999,-1.538755E-05
0.2819999,-1.483577E-05
0.2829999,-1.434529E-05
0.2839999,-1.364023E-05
0.2849999,-1.314975E-05
0.2859999,-1.29914E-05
0.2869999,-1.24672E-05
0.2879999,-1.20319E-05
0.2889999,-1.145559E-05
0.2899999,-1.081184E-05
0.2909999,-1.019874E-05
0.2919999,-9.705202E-06
0.2929999,-9.214724E-06
0.2939999,-8.659872E-06
0.2949999,-8.101953E-06
0.2959999,-7.562428E-06
0.2969999,-6.891088E-06
0.2979999,-6.268795E-06
0.2989999,-5.750729E-06
0.2999999,-5.223465E-06
0.3009999,-4.696202E-06
0.3019999,-4.058582E-06
0.3029999,-3.335128E-06
0.3039999,-2.712835E-06
0.3049999,-2.108935E-06
0.3059999,-1.495839E-06
0.3069999,-9.747067E-07
0.3079999,-2.911041E-07
0.3089999,4.415462E-07
0.3099999,1.073036E-06
0.3109999,1.750507E-06
0.3119999,2.332949E-06
0.3129999,2.961373E-06
0.3139999,3.733875E-06
0.3149999,4.487983E-06
0.3159999,5.266616E-06
0.3169999,5.898105E-06
0.3179999,6.508136E-06
0.3189999,7.262245E-06
0.3199999,8.099122E-06
0.3209999,8.90841E-06
0.3219999,9.723828E-06
0.3229999,1.046567E-05
0.3239999,1.124737E-05
0.3249999,1.194937E-05
0.3259999,1.286595E-05
0.3269999,1.384384E-05
0.3279999,1.468991E-05
0.3289999,1.555437E-05
0.3299999,1.648015E-05
0.3309999,1.733236E-05
0.3319999,1.826426E-05
0.3329999,1.922682E-05
0.3339999,2.028135E-05
0.3349999,2.149222E-05
0.3359999,2.254061E-05
0.3369999,2.361966E-05
0.3379999,2.475389E-05
0.3389999,2.585746E-05
0.3399999,2.759051E-05
0.3409999,2.887801E-05
0.3419999,3.031879E-05
0.3429999,3.175957E-05
0.3439999,3.3231E-05
0.3449999,3.47944E-05
0.3459999,3.644975E-05
0.3469999,3.810511E-05
0.3479999,4.000571E-05
0.3489999,4.202893E-05
0.3499999,4.423608E-05
0.3509999,4.665781E-05
0.3519999,4.926347E-05
0.3529999,5.211437E-05
0.3539999,5.533312E-05
0.3549999,5.898106E-05
0.3559999,6.333403E-05
0.3569999,6.836143E-05
0.3579999,7.44924E-05
0.3589999,8.197217E-05
0.3599999,9.135254E-05
0.3609999,0.0001035225
0.3619999,0.0001194937
0.3629999,0.0001412893
0.3639999,0.0001718828
0.3649999,0.0002137879
0.3659999,0.0002700395
0.3669999,0.0003418025
0.3679999,0.0004319382
0.3689999,0.0005330991
0.3699999,0.000646522
0.3709999,0.0007703675
0.3719999,0.0009018767
0.3729999,0.001037064
0.3739999,0.001175318
0.3749999,0.001312958
0.3759999,0.001447533
0.3769999,0.001580881
0.3779999,0.001709325
0.3789999,0.001833783
0.3799999,0.001956096
0.3809999,0.002072891
0.3819999,0.00218938
0.3829999,0.002306174
0.3839999,0.002420517
0.3849999,0.002539151
0.3859999,0.002659931
0.3869999,0.002781631
0.3879999,0.002909462
0.3889999,0.003038212
0.3899999,0.003197415
0.3909999,0.003332296
0.3919999,0.003467177
0.3929999,0.003602059
0.3939999,0.003740005
0.3949999,0.003874887
0.3959999,0.004006702
0.3969999,0.004138518
0.3979999,0.004264203
0.3989999,0.004383757
0.3999999,0.004503311
0.4009999,0.004616733
0.4019999,0.004724025
0.4029999,0.004828252
0.4039999,0.004929413
0.4049999,0.005021377
0.4059999,0.005110276
0.4069999,0.00519611
0.4079999,0.005278877
0.4089999,0.005361645
0.4099999,0.005444414
0.4109999,0.005517985
0.4119999,0.005591557
0.4129999,0.005662063
0.4139999,0.005732569
0.4149999,0.005803075
0.4159999,0.005870515
0.4169999,0.005937956
0.4179999,0.006005398
0.4189999,0.006069772
0.4199999,0.006143344
0.4209999,0.006210784
0.4219999,0.006281291
0.4229999,0.006354862
0.4239999,0.006425368
0.4249999,0.006502005
0.4259999,0.006575576
0.4269999,0.006652214
0.4279999,0.006734982
0.4289999,0.006814685
0.4299999,0.006897452
0.4309999,0.006986352
0.4319999,0.007072185
0.4329999,0.007167215
0.4339999,0.007262245
0.4349999,0.007354209
0.4359999,0.007461501
0.4369999,0.007562662
0.4379999,0.007666889
0.4389999,0.007786443
0.4399999,0.007893735
0.4409999,0.008016353
0.4419999,0.008142038
0.4429999,0.008264658
0.4439999,0.008399539
0.4449999,0.00853442
0.4459999,0.008672367
0.4469999,0.008822575
0.4479999,0.008972785
0.4489999,0.009126058
0.4499999,0.009291595
0.4509999,0.00945713
0.4519999,0.009631863
0.4529999,0.009809661
0.4539999,0.009993589
0.4549999,0.01018365
0.4559999,0.01037064
0.4569999,0.01057603
0.4579999,0.01078142
0.4589999,0.010996
0.4599999,0.01121978
0.4609999,0.0114405
0.4619999,0.01167347
0.4629999,0.01191258
0.4639999,0.01214862
0.4649999,0.01239693
0.4659999,0.01265443
0.4669999,0.0129058
0.4679999,0.01317556
0.4689999,0.01344226
0.4699999,0.01370895
0.4709999,0.01399098
0.4719999,0.01426381
0.4729999,0.0145489
0.4739999,0.01484318
0.4749999,0.01513134
0.4759999,0.01543482
0.4769999,0.01573217
0.4779999,0.01603259
0.4789999,0.01634833
0.4799999,0.01665488
0.4809999,0.0169645
0.4819999,0.01728944
0.4829999,0.01760212
0.4839999,0.01792399
0.4849999,0.018252
0.4859999,0.01857694
0.4869999,0.01890801
0.4879999,0.01923295
0.4889999,0.01957322
0.4899999,0.01991349
0.4909999,0.02024763
0.4919999,0.02059403
0.4929999,0.02094349
0.4939999,0.02128989
0.4949999,0.02163936
0.4959999,0.02199802
0.4969999,0.02235055
0.4979999,0.02270615
0.4989999,0.02307707
0.4999999,0.02343573
0.5009999,0.02380359
0.5019999,0.02417758
0.5029999,0.02454237
0.5039999,0.02491329
0.5049999,0.02529341
0.5059999,0.02567047
0.5069999,0.02604752
0.5079999,0.02643377
0.5089999,0.02682002
0.5099999,0.02720628
0.5109999,0.02759866
0.5119999,0.0279941
0.5129999,0.02839262
0.5139999,0.02877887
0.5149999,0.02917431
0.5159999,0.02957589
0.5169999,0.02996827
0.5179999,0.03114647
0.5189999,0.03151433
0.5199999,0.03191284
0.5209999,0.03231135
0.5219999,0.03274052
0.5229999,0.03313904
0.5239999,0.0335682
0.5249999,0.03396672
0.5259999,0.03436523
0.5269999,0.03476374
0.5279999,0.03519291
0.5289999,0.03559142
0.5299999,0.03602059
0.5309999,0.03644976
0.5319999,0.03684827
0.5329999,0.03727744
0.5339999,0.03770661
0.5349999,0.03810512
0.5359999,0.03853428
0.5369999,0.03896345
0.5379999,0.03936196
0.5389999,0.03979113
0.5399999,0.04018965
0.5409999,0.04061881
0.5419999,0.04104798
0.5429999,0.04144649
0.5439999,0.04187566
0.5449999,0.04230483
0.5459999,0.04273399
0.5469999,0.04313251
0.5479999,0.04356168
0.5489999,0.04396019
0.5499999,0.04438936
0.5509999,0.04481852
0.5519999,0.04524769
0.5529999,0.04567686
0.5539999,0.04610603
0.5549999,0.04653519
0.5559999,0.04696436
0.5569999,0.04742418
0.5579999,0.0478227
0.5589999,0.04825186
0.5599999,0.04871169
0.5609999,0.04914085
0.5619999,0.04957002
0.5629999,0.04999919
0.5639999,0.05042836
0.5649999,0.05085753
0.5659999,0.05131735
0.5669999,0.05174651
0.5679999,0.05217568
0.5689999,0.0526355
0.5699999,0.05306467
0.5709999,0.05349384
0.5719999,0.05395366
0.5729999,0.05441349
0.5739999,0.05484265
0.5749999,0.05530247
0.5759999,0.05573164
0.5769999,0.05616081
0.5779999,0.05662064
0.5789999,0.0570498
0.5799999,0.05750962
0.5809999,0.05793879
0.5819999,0.05839861
0.5829999,0.05885844
0.5839999,0.0592876
0.5849999,0.05974742
0.5859999,0.06020725
0.5869999,0.06063641
0.5879999,0.06106558
0.5889999,0.0615254
0.5899999,0.06195457
0.5909999,0.0624144
0.5919999,0.06287422
0.5929999,0.06333404
0.5939999,0.06376321
0.5949999,0.06422303
0.5959999,0.0646522
0.5969999,0.06511202
0.5979999,0.06557184
0.5989999,0.06600101
0.5999999,0.06646083
0.6009999,0.06692065
0.6019999,0.06738048
0.6029999,0.0678403
0.6039999,0.06830012
0.6049999,0.06875994
0.6059999,0.06918911
0.6069999,0.06964894
0.6079999,0.07013941
0.6089999,0.07056858
0.6099999,0.0710284
0.6109999,0.07148822
0.6119999,0.07191739
0.6129999,0.07237721
0.6139999,0.07283704
0.6149999,0.07329686
0.6159999,0.07375668
0.6169999,0.07421651
0.6179999,0.07467633
0.6189999,0.07513615
0.6199999,0.07559597
0.6209999,0.07602514
0.6219999,0.07651561
0.6229999,0.07697544
0.6239999,0.0774046
0.6249999,0.07789508
0.6259999,0.07832425
0.6269999,0.07881473
0.6279999,0.07924389
0.6289999,0.07973437
0.6299999,0.0801942
0.6309999,0.08065402
0.6319999,0.08111384
0.6329999,0.08154301
0.6339999,0.08200283
0.6349999,0.08246265
0.6359999,0.08292247
0.6369999,0.08341295
0.6379999,0.08387277
0.6389999,0.08430194
0.6399999,0.08479242
0.6409999,0.08525224
0.6419999,0.08571207
0.6429999,0.08617189
0.6439999,0.08663171
0.6449999,0.08709153
0.6459999,0.08758201
0.6469999,0.08801118
0.6479999,0.08850165
0.6489999,0.08902278
0.6499999,0.08945195
0.6509999,0.08991177
0.6519999,0.0903716
0.6529999,0.09083142
0.6539999,0.09126058
0.6549999,0.09175106
0.6559999,0.09221088
0.6569999,0.09267071
0.6579999,0.09316119
0.6589999,0.09362101
0.6599999,0.09408083
0.6609999,0.09457131
0.6619999,0.09500048
0.6629999,0.09549095
0.6639999,0.09595077
0.6649999,0.09641059
0.6659999,0.09687041
0.6669999,0.09733024
0.6679999,0.09782072
0.6689999,0.09828054
0.6699999,0.09874036
0.6709999,0.09923084
0.6719999,0.09969067
0.6729999,0.1001811
0.6739999,0.100641
0.6749999,0.1011008
0.6759999,0.1015913
0.6769999,0.1020204
0.6779999,0.1025109
0.6789999,0.1029707
0.6799999,0.1034305
0.6809999,0.103921
0.6819999,0.1043808
0.6829999,0.1048713
0.6839999,0.1053618
0.6849999,0.1058216
0.6859999,0.1062815
0.6869999,0.1067719
0.6879999,0.1072624
0.6889999,0.1077222
0.6899999,0.1082127
0.6909999,0.1086725
0.6919999,0.1091323
0.6929999,0.1096228
0.6939999,0.1100826
0.6949999,0.1105425
0.6959999,0.1110329
0.6969999,0.1114928
0.6979999,0.1119832
0.6989999,0.1124431
0.6999999,0.1125963
0.6990002,0.1121059
0.6980002,0.1115847
0.6970002,0.1111249
0.6960002,0.1106651
0.6950002,0.1101133
0.6940002,0.1096841
0.6930002,0.1091936
0.6920002,0.1087032
0.6910002,0.108274
0.6900002,0.1077835
0.6890002,0.1072931
0.6880002,0.1068332
0.6870002,0.1063428
0.6860002,0.1058523
0.6850002,0.1053925
0.6840002,0.104902
0.6830002,0.1044115
0.6820002,0.1039517
0.6810002,0.1034612
0.6800002,0.1030014
0.6790002,0.1025416
0.6780002,0.1020511
0.6770002,0.1015913
0.6760002,0.1011008
0.6750002,0.1005796
0.6740002,0.1001198
0.6730002,0.0995987
0.6720002,0.09913888
0.6710002,0.09867906
0.6700002,0.09821923
0.6690002,0.09775941
0.6680002,0.09726893
0.6670002,0.09680911
0.6660002,0.09631863
0.6650002,0.0958588
0.6640002,0.09533768
0.6630002,0.09490851
0.6620002,0.09441803
0.6610002,0.09392755
0.6600002,0.09346773
0.6590002,0.09300791
0.6580002,0.09254809
0.6570002,0.09205761
0.6560002,0.09162845
0.6550002,0.09113797
0.6540002,0.09067815
0.6530002,0.09021832
0.6520002,0.08972784
0.6510002,0.08926802
0.6500002,0.08877754
0.6490002,0.08828707
0.6480002,0.08782724
0.6470002,0.08733677
0.6460002,0.0869076
0.6450002,0.08641712
0.6440002,0.08592664
0.6430002,0.08546682
0.6420002,0.08497635
0.6410002,0.08451653
0.6400002,0.0840567
0.6390002,0.08356623
0.6380002,0.08313706
0.6370002,0.08264658
0.6360002,0.08215611
0.6350002,0.08172693
0.6340002,0.08126711
0.6330002,0.08077663
0.6320002,0.08034747
0.6310002,0.07985699
0.6300002,0.07936651
0.6290002,0.07893734
0.6280002,0.07844687
0.6270002,0.07798705
0.6260002,0.07752723
0.6250002,0.07703675
0.6240002,0.07657693
0.6230002,0.0761171
0.6220002,0.07562663
0.6210002,0.07519746
0.6200002,0.07470698
0.6190002,0.07424716
0.6180002,0.07378733
0.6170002,0.07332751
0.6160002,0.07286769
0.6150002,0.07240786
0.6140002,0.07191739
0.6130002,0.07148822
0.6120002,0.0710284
0.6110002,0.07056858
0.6100002,0.07010876
0.6090002,0.06961828
0.6080002,0.06915846
0.6070002,0.06869864
0.6060002,0.06823882
0.6050002,0.06777899
0.6040002,0.06731917
0.6030002,0.06685934
0.6020002,0.06639952
0.6010002,0.0659397
0.6000002,0.06547987
0.5990002,0.06502005
0.5980002,0.06456023
0.5970002,0.06413107
0.5960002,0.06367125
0.5950002,0.06321142
0.5940002,0.0627516
0.5930002,0.06229177
0.5920002,0.06183195
0.5910002,0.06140279
0.5900002,0.06094296
0.5890002,0.06048314
0.5880002,0.06002332
0.5870002,0.0595635
0.5860002,0.05910368
0.5850002,0.05864385
0.5840002,0.05821468
0.5830002,0.05775486
0.5820002,0.05729504
0.5810002,0.05683522
0.5800002,0.05640605
0.5790002,0.05591557
0.5780002,0.05548641
0.5770002,0.05505724
0.5760002,0.05456676
0.5750002,0.05413759
0.5740002,0.05367777
0.5730002,0.05321795
0.5720002,0.05275812
0.5710002,0.05232896
0.5700002,0.05186913
0.5690002,0.05143997
0.5680002,0.05098015
0.5670002,0.05055097
0.5660002,0.05012181
0.5650002,0.04966199
0.5640002,0.04923282
0.5630002,0.048773
0.5620002,0.04831317
0.5610002,0.04788401
0.5600002,0.04745484
0.5590002,0.04699502
0.5580002,0.04656585
0.5570002,0.04610603
0.5560002,0.04567686
0.5550002,0.04524769
0.5540002,0.04478787
0.5530002,0.0443587
0.5520002,0.04392953
0.5510002,0.04346971
0.5500002,0.04304054
0.5490002,0.04261138
0.5480002,0.04218221
0.5470002,0.04175304
0.5460002,0.04132387
0.5450002,0.04086405
0.5440002,0.04046554
0.5430002,0.04003637
0.5420002,0.03957655
0.5410002,0.03917804
0.5400002,0.03871821
0.5390002,0.03828905
0.5380002,0.03785988
0.5370002,0.03743071
0.5360002,0.03700154
0.5350002,0.03657238
0.5340002,0.03614321
0.5330002,0.03574469
0.5320002,0.03531553
0.5310002,0.03488636
0.5300002,0.03445719
0.5290002,0.03402802
0.5280002,0.03362951
0.5270002,0.03320035
0.5260002,0.03277118
0.5250002,0.03237266
0.5240002,0.0319435
0.5230002,0.03154498
0.5220002,0.03111582
0.5210002,0.03068665
0.5200002,0.03028814
0.5190002,0.02985897
0.5180002,0.02946045
0.5170002,0.02903129
0.5160002,0.02863277
0.5150002,0.02823426
0.5140002,0.0278051
0.5130002,0.02740658
0.5120002,0.02697741
0.5110002,0.0265789
0.5100002,0.02621104
0.5090002,0.02578188
0.5080002,0.02538336
0.5070002,0.02498485
0.5060002,0.02458634
0.5050002,0.02418783
0.5040002,0.02378931
0.5030002,0.0233908
0.5020002,0.02299229
0.5010002,0.02262443
0.5000002,0.02219526
0.4990002,0.02182741
0.4980002,0.02145955
0.4970002,0.02106103
0.4960002,0.02066252
0.4950002,0.02029466
0.4940002,0.01992681
0.4930002,0.01952829
0.4920002,0.01916043
0.4910002,0.01879258
0.4900002,0.01842472
0.4890002,0.01805686
0.4880002,0.017689
0.4870002,0.01732115
0.4860002,0.01695329
0.4850002,0.01658543
0.4840002,0.01621757
0.4830002,0.01584971
0.4820002,0.01551251
0.4810002,0.01514465
0.4800002,0.01480745
0.4790002,0.01443959
0.4780002,0.01407173
0.4770002,0.01373453
0.4760002,0.01339733
0.4750002,0.01302947
0.4740002,0.01221606
0.4730002,0.01188193
0.4720002,0.01155392
0.4710002,0.01122591
0.4700002,0.01090404
0.4690002,0.0105791
0.4680002,0.01025722
0.4670002,0.009941476
0.4660002,0.009628798
0.4650002,0.009319183
0.4640002,0.009012635
0.4630002,0.008706087
0.4620002,0.00840567
0.4610002,0.008105253
0.4600002,0.007807901
0.4590002,0.007522811
0.4580002,0.00723159
0.4570002,0.006949566
0.4560002,0.006667541
0.4550002,0.006388582
0.4540002,0.006112689
0.4530002,0.005845992
0.4520002,0.005579295
0.4510002,0.005318729
0.4500002,0.005058163
0.4490002,0.004806793
0.4480002,0.004555424
0.4470002,0.004304054
0.4460002,0.004064947
0.4450002,0.003828905
0.4440002,0.003592863
0.4430002,0.003362951
0.4420002,0.003139171
0.4410002,0.002915391
0.4400002,0.002697741
0.4390002,0.002483158
0.4380002,0.00227777
0.4370002,0.002072383
0.4360002,0.001870061
0.4350002,0.001680001
0.4340002,0.001486876
0.4330002,0.001299881
0.4320002,0.001115952
0.4310002,0.0009012636
0.4300002,0.0007280639
0.4290002,0.0005554772
0.4280002,0.0003859559
0.4270002,0.0002237919
0.4260002,6.070824E-05
0.4250002,-9.971898E-05
0.4240002,-0.0002510005
0.4230002,-0.0004043255
0.4220002,-0.0005499359
0.4210002,-0.0006946267
0.4200002,-0.0008368651
0.4190002,-0.000972666
0.4180002,-0.001113065
0.4170002,-0.00124672
0.4160002,-0.001376697
0.4150002,-0.001509739
0.4140002,-0.001636343
0.4130002,-0.001761415
0.4120002,-0.001889552
0.4110002,-0.002011558
0.4100002,-0.002140308
0.4090002,-0.002269058
0.4080002,-0.00238616
0.4070002,-0.00250786
0.4060002,-0.002625574
0.4050002,-0.002746354
0.4040002,-0.002867441
0.4030002,-0.002985768
0.4020002,-0.003074562
0.4010002,-0.003194116
0.4000002,-0.00331367
0.3990002,-0.00344242
0.3980002,-0.003565039
0.3970002,-0.00369379
0.3960002,-0.00382254
0.3950002,-0.00395129
0.3940002,-0.004083106
0.3930002,-0.004217987
0.3920002,-0.004349803
0.3910002,-0.00448775
0.3900002,-0.004625696
0.3890002,-0.004766709
0.3880002,-0.004910786
0.3870002,-0.005048733
0.3860002,-0.005195876
0.3850002,-0.005339954
0.3840002,-0.005484032
0.3830002,-0.005640371
0.3820002,-0.005787514
0.3810002,-0.005937723
0.3800002,-0.006094063
0.3790002,-0.006247337
0.3780002,-0.006403676
0.3770002,-0.006560016
0.3760002,-0.006716356
0.3750002,-0.00687576
0.3740002,-0.007032101
0.3730002,-0.007191505
0.3720002,-0.00735091
0.3710002,-0.007510316
0.3700002,-0.007672786
0.3690002,-0.007832191
0.3680002,-0.007994662
0.3670002,-0.008160197
0.3660002,-0.008313472
0.3650002,-0.008475943
0.3640002,-0.008635348
0.3630002,-0.008788622
0.3620002,-0.008951092
0.3610002,-0.009107431
0.3600002,-0.009260706
0.3590002,-0.009417046
0.3580002,-0.009570319
0.3570002,-0.009720528
0.3560002,-0.009870737
0.3550002,-0.01001175
0.3540002,-0.01016196
0.3530002,-0.01030297
0.3520002,-0.01044398
0.3510002,-0.010585
0.3500002,-0.01071068
0.3490002,-0.01084556
0.3480002,-0.01097431
0.3470002,-0.01109387
0.3460002,-0.01121955
0.3450002,-0.01134217
0.3440002,-0.01144946
0.3430002,-0.01156595
0.3420002,-0.01167324
0.3410002,-0.01177134
0.3400002,-0.01187556
0.3390002,-0.01197366
0.3380002,-0.01206256
0.3370002,-0.01214533
0.3360002,-0.01222503
0.3350002,-0.0122986
0.3340002,-0.01235378
0.3330002,-0.01241202
0.3320002,-0.01246107
0.3310002,-0.01248559
0.3300002,-0.01251931
0.3290002,-0.01253771
0.3280002,-0.01253464
0.3270002,-0.01254077
0.3260002,-0.01252544
0.3250002,-0.01249786
0.3240002,-0.01247027
0.3230002,-0.01242122
0.3220002,-0.01236911
0.3210002,-0.01231393
0.3200002,-0.01224649
0.3190002,-0.01216985
0.3180002,-0.01208095
0.3170002,-0.01198286
0.3160002,-0.01187863
0.3150002,-0.01175907
0.3140002,-0.01163339
0.3130002,-0.01149851
0.3120002,-0.0113483
0.3110002,-0.01119196
0.3100002,-0.01102029
0.3090002,-0.01083636
0.3080002,-0.01064631
0.3070002,-0.01044705
0.3060002,-0.0102294
0.3050002,-0.01000255
0.3040002,-0.009763445
0.3030002,-0.009518206
0.3020002,-0.009260706
0.3010002,-0.009006271
0.3000002,-0.008742639
0.2990002,-0.008482073
0.2980002,-0.008227638
0.2970002,-0.007970138
0.2960002,-0.007724899
0.2950002,-0.00747966
0.2940002,-0.007246684
0.2930002,-0.007016772
0.2920002,-0.006789927
0.2910002,-0.006575344
0.2900002,-0.006363825
0.2890002,-0.006155372
0.2880002,-0.005959181
0.2870002,-0.005762991
0.2860002,-0.0055668
0.2850002,-0.005385936
0.2840002,-0.005202007
0.2830002,-0.00503034
0.2820002,-0.004867869
0.2810002,-0.004705399
0.2800002,-0.00455519
0.2790002,-0.004420309
0.2780002,-0.004285428
0.2770002,-0.004165874
0.2760002,-0.004049386
0.2750002,-0.003939028
0.2740002,-0.003834802
0.2730002,-0.003736707
0.2720002,-0.003644742
0.2710002,-0.003552777
0.2700002,-0.003466944
0.2690002,-0.003387242
0.2680002,-0.003304473
0.2670002,-0.003227836
0.2660002,-0.00315733
0.2650002,-0.003086824
0.2640002,-0.003019383
0.2630002,-0.002955008
0.2620002,-0.002893699
0.2610002,-0.00283852
0.2600002,-0.002783341
0.2590002,-0.002731228
0.2580002,-0.002679115
0.2570002,-0.002630068
0.2560002,-0.002584085
0.2550002,-0.002541168
0.2540002,-0.002495186
0.2530002,-0.002452269
0.2520002,-0.002412418
0.2510002,-0.002372567
0.2500002,-0.002335781
0.2490002,-0.002298995
0.2480002,-0.002265275
0.2470002,-0.002231555
0.2460002,-0.002197834
0.2450002,-0.002167179
0.2440002,-0.002136525
0.2430002,-0.00210587
0.2420002,-0.002075215
0.2410002,-0.002047626
0.2400002,-0.002020036
0.2390002,-0.001992447
0.2380002,-0.001967923
0.2370002,-0.001943399
0.2360002,-0.001918875
0.2350002,-0.001894351
0.2340002,-0.001869828
0.2330002,-0.001848369
0.2320002,-0.001823845
0.2310002,-0.001802387
0.2300002,-0.001780929
0.2290002,-0.001762536
0.2280002,-0.001741077
0.2270002,-0.001719619
0.2260002,-0.001701226
0.2250002,-0.001682833
0.2240002,-0.00166444
0.2230002,-0.001646047
0.2220002,-0.001627655
0.2210002,-0.001609262
0.2200002,-0.001629906
0.2190002,-0.001613352
0.2180002,-0.001597411
0.2170002,-0.001581471
0.2160002,-0.001565224
0.2150002,-0.001550203
0.2140002,-0.001534876
0.2130002,-0.001519855
0.2120002,-0.00150514
0.2110002,-0.001490733
0.2100002,-0.001476938
0.2090002,-0.001462837
0.2080002,-0.001449349
0.2070002,-0.001436167
0.2060002,-0.001422985
0.2050002,-0.001410417
0.2040002,-0.001398155
0.2030002,-0.001385587
0.2020002,-0.001373325
0.2010002,-0.001361369
0.2000002,-0.001349107
0.1990002,-0.001337765
0.1980002,-0.001326423
0.1970002,-0.001315387
0.1960002,-0.001304658
0.1950002,-0.001293622
0.1940002,-0.001282893
0.1930002,-0.00127247
0.1920002,-0.001262048
0.1910002,-0.001251932
0.1900002,-0.001241815
0.1890002,-0.001231699
0.1880002,-0.001222196
0.1870002,-0.001212693
0.1860002,-0.00120319
0.1850002,-0.001193994
0.1840002,-0.001184797
0.1830002,-0.001175601
0.1820002,-0.001166711
0.1810002,-0.001157821
0.1800002,-0.001149238
0.1790002,-0.001140655
0.1780002,-0.001132378
0.1770002,-0.001124101
0.1760002,-0.001115824
0.1750002,-0.001107854
0.1740002,-0.001099884
0.1730002,-0.001091913
0.1720002,-0.00108425
0.1710002,-0.001076892
0.1700002,-0.001069229
0.1690002,-0.001061872
0.1680002,-0.001054514
0.1670002,-0.001047157
0.1660002,-0.001040107
0.1650002,-0.001033056
0.1640002,-0.001026312
0.1630002,-0.001019261
0.1620002,-0.001012517
0.1610002,-0.001005773
0.1600002,-0.0009990291
0.1590002,-0.0009925916
0.1580002,-0.0009861541
0.1570002,-0.0009797165
0.1560002,-0.0009732791
0.1550002,-0.0009671481
0.1540002,-0.0009607106
0.1530002,-0.0009548862
0.1520002,-0.0009487552
0.1510002,-0.0009429308
0.1500002,-0.0009371064
0.1490002,-0.0009312819
0.1480002,-0.0009254576
0.1470002,-0.0009196331
0.1460002,-0.0009144219
0.1450002,-0.000908904
0.1440002,-0.0009033861
0.1430002,-0.0008981748
0.1420002,-0.0008923503
0.1410002,-0.000887139
0.1400002,-0.0008822342
0.1390002,-0.0008767164
0.1380002,-0.0008718116
0.1370002,-0.0008669068
0.1360002,-0.0008616955
0.1350002,-0.0008567907
0.1340002,-0.0008518859
0.1330002,-0.0008469812
0.1320002,-0.0008420764
0.1310002,-0.0008374782
0.1300002,-0.00083288
0.1290002,-0.0008282817
0.1280002,-0.0008236835
0.1270002,-0.0008190853
0.1260002,-0.0008144871
0.1250002,-0.0008101954
0.1240002,-0.0008055972
0.1230002,-0.0008013055
0.1220002,-0.0007970139
0.1210002,-0.0007927222
0.1200002,-0.0007884305
0.1190002,-0.0007841389
0.1180002,-0.0007801537
0.1170002,-0.000775862
0.1160002,-0.0007721835
0.1150002,-0.0007681983
0.1140002,-0.0007642132
0.1130002,-0.0007602281
0.1120002,-0.0007562429
0.1110002,-0.0007528709
0.1100002,-0.0007488858
0.1090002,-0.0007449006
0.1080002,-0.0007415286
0.1070002,-0.00073785
0.1060002,-0.0007341714
0.1050002,-0.0007304929
0.1040002,-0.0007268143
0.1030002,-0.0007234422
0.1020002,-0.0007200702
0.1010002,-0.0007163917
0.1000002,-0.0007130196
0.09900019,-0.0007096475
0.09800019,-0.0007062756
0.09700019,-0.0007029035
0.09600019,-0.0006995315
0.09500019,-0.0006961594
0.09400019,-0.0006927875
0.09300019,-0.0006897219
0.09200019,-0.0006866565
0.09100019,-0.0006832844
0.09000019,-0.000680219
0.08900019,-0.0006771535
0.08800019,-0.000674088
0.08700019,-0.0006710225
0.08600019,-0.0006679571
0.08500019,-0.0006648915
0.08400019,-0.0006621326
0.08300019,-0.0006590671
0.08200019,-0.0006563082
0.08100019,-0.0006535492
0.08000019,-0.0006504838
0.07900019,-0.0006474183
0.07800019,-0.0006446594
0.07700019,-0.0006419004
0.07600019,-0.0006391415
0.07500019,-0.000636076
0.07400019,-0.0006336236
0.07300019,-0.0006308646
0.07200019,-0.0006281057
0.07100019,-0.0006256534
0.07000019,-0.0006228944
0.06900019,-0.000620442
0.06800019,-0.0006176831
0.06700019,-0.0006152307
0.06600019,-0.0006127784
0.06500019,-0.0006100194
0.06400019,-0.0006078735
0.06300019,-0.0006054211
0.06200019,-0.0006029688
0.06100019,-0.0006005164
0.06000019,-0.000598064
0.05900019,-0.0005956116
0.05800019,-0.0005931592
0.05700019,-0.0005910134
0.05600019,-0.000588561
0.05500019,-0.0005864152
0.05400019,-0.0005842693
0.05300019,-0.0005818169
0.05200019,-0.0005796711
0.05100019,-0.0005772187
0.05000019,-0.0005750729
0.04900019,-0.000572927
0.04800019,-0.0005707812
0.04700019,-0.0005686354
0.04600019,-0.0005664895
0.04500019,-0.0005643437
0.04400019,-0.0005621978
0.04300019,-0.000560052
0.04200019,-0.0005579062
0.04100019,-0.0005557603
0.04000019,-0.0005536145
0.03900019,-0.0005517752
0.03800019,-0.0005499359
0.03700019,-0.0005480966
0.03600019,-0.0005459508
0.03500019,-0.000543805
0.03400019,-0.0005419657
0.03300019,-0.0005401264
0.03200019,-0.000538287
0.03100019,-0.0005364478
0.03000019,-0.000534302
0.02900019,-0.0005324627
0.02800019,-0.0005309299
0.02700019,-0.0005287841
0.02600019,-0.0005269448
0.02500019,-0.0005251055
0.02400019,-0.0005232662
0.02300019,-0.000521427
0.02200019,-0.0005195877
0.02100019,-0.0005180549
0.02000019,-0.0005165222
0.01900019,-0.0005146828
0.01800019,-0.0005128436
0.01700019,-0.0005110043
0.01600019,-0.0005094716
0.01500019,-0.0005079389
0.01400019,-0.0005060995
0.01300019,-0.0005045668
0.01200019,-0.000503034
0.01100019,-0.0005015013
0.01000019,-0.000499662
0.009000191,-0.0004981293
0.00800019,-0.00049629
0.007000191,-0.0004947572
0.006000191,-0.0004932245
0.005000191,-0.0004916918
0.004000191,-0.000490159
0.003000191,-0.0004886262
0.002000191,-0.0004870935
0.001000191,-0.0004855608
1.907349E-07,-0.0004794298
0.0009998092,-0.0004690072
0.001999809,-0.0004601173
0.002999809,-0.0004515339
0.003999809,-0.0004438702
0.004999809,-0.000436513
0.005999809,-0.0004294625
0.006999809,-0.0004227184
0.007999809,-0.0004165874
0.00899981,-0.0004101499
0.009999809,-0.000404632
0.01099981,-0.0003988076
0.01199981,-0.0003932898
0.01299981,-0.0003880784
0.01399981,-0.0003831737
0.01499981,-0.0003782689
0.01599981,-0.0003733641
0.01699981,-0.0003687659
0.01799981,-0.0003644742
0.01899981,-0.0003601825
0.01999981,-0.0003558909
0.02099981,-0.0003515992
0.02199981,-0.0003476141
0.02299981,-0.0003436289
0.02399981,-0.0003396438
0.02499981,-0.0003359652
0.02599981,-0.0003322866
0.02699981,-0.0003286081
0.02799981,-0.0003249295
0.02899981,-0.0003215575
0.02999981,-0.0003181854
0.03099981,-0.0003148134
0.03199981,-0.0003114414
0.03299981,-0.0003083759
0.03399981,-0.0003050039
0.03499981,-0.0003022449
0.03599981,-0.0002988729
0.03699981,-0.0002958074
0.03799981,-0.0002927419
0.03899981,-0.000289983
0.03999981,-0.0002872241
0.04099981,-0.0002844651
0.04199981,-0.0002817062
0.04299981,-0.0002786407
0.04399981,-0.0002758818
0.04499981,-0.0002734294
0.04599981,-0.0002706705
0.04699981,-0.000268218
0.04799981,-0.0002657657
0.04899981,-0.0002630067
0.04999981,-0.0002605543
0.05099981,-0.000258102
0.05199981,-0.0002556496
0.05299981,-0.0002531972
0.05399981,-0.0002507448
0.05499981,-0.0002482924
0.05599981,-0.0002461466
0.05699981,-0.0002440007
0.05799981,-0.0002415484
0.05899981,-0.0002394025
0.05999981,-0.0002369501
0.06099981,-0.0002348043
0.06199981,-0.0002326585
0.06299981,-0.0002305126
0.06399981,-0.0002283668
0.06499981,-0.0002262209
0.06599981,-0.0002240751
0.06699981,-0.0002222358
0.06799981,-0.00022009
0.06899981,-0.0002179441
0.06999981,-0.0002157983
0.07099981,-0.000213959
0.07199981,-0.0002121197
0.07299981,-0.0002099739
0.07399981,-0.0002081346
0.07499981,-0.0002062953
0.07599981,-0.000204456
0.07699981,-0.0002023102
0.07799981,-0.0002004709
0.07899981,-0.0001986316
0.07999981,-0.0001967923
0.08099981,-0.0001952596
0.08199981,-0.0001934203
0.08299981,-0.000191581
0.08399981,-0.0001897417
0.08499981,-0.0001879024
0.08599981,-0.0001863697
0.08699981,-0.0001845304
0.08799981,-0.0001826911
0.08899981,-0.0001811584
0.08999981,-0.0001793191
0.09099981,-0.0001774798
0.09199981,-0.000175947
0.09299981,-0.0001741077
0.09399981,-0.000172575
0.09499981,-0.0001707357
0.09599981,-0.000169203
0.09699981,-0.0001676702
0.09799981,-0.0001658309
0.09899981,-0.0001642982
0.09999981,-0.0001624589
0.1009998,-0.0001609262
0.1019998,-0.0001593934
0.1029998,-0.0001611819
0.1039998,-0.0001597105
0.1049998,-0.0001582084
0.1059998,-0.000156645
0.1069998,-0.0001550509
0.1079998,-0.0001535182
0.1089998,-0.0001520161
0.1099998,-0.000150514
0.1109998,-0.0001491039
0.1119998,-0.0001476938
0.1129998,-0.000146345
0.1139998,-0.0001449042
0.1149998,-0.0001434941
0.1159998,-0.0001420533
0.1169998,-0.0001406432
0.1179998,-0.000139325
0.1189998,-0.0001380069
0.1199998,-0.000136658
0.1209998,-0.0001354012
0.1219998,-0.0001340524
0.1229998,-0.0001328569
0.1239998,-0.0001316307
0.1249998,-0.0001302819
0.1259998,-0.0001289637
0.1269998,-0.0001277068
0.1279998,-0.0001265726
0.1289998,-0.0001253158
0.1299998,-0.0001240589
0.1309998,-0.0001230167
0.1319998,-0.0001218211
0.1329998,-0.0001206869
0.1339998,-0.0001195527
0.1349998,-0.0001183571
0.1359998,-0.0001172535
0.1369998,-0.0001161193
0.1379998,-0.0001148931
0.1389998,-0.0001137589
0.1399998,-0.0001126553
0.1409998,-0.0001115517
0.1419998,-0.0001105401
0.1429998,-0.0001094672
0.1439998,-0.0001084556
0.1449998,-0.0001074133
0.1459998,-0.000106463
0.1469998,-0.0001054821
0.1479998,-0.0001044398
0.1489998,-0.0001033976
0.1499998,-0.000102386
0.1509998,-0.0001013437
0.1519998,-0.0001003627
0.1529998,-9.941243E-05
0.1539998,-9.846213E-05
0.1549998,-9.748118E-05
0.1559998,-9.653088E-05
0.1569998,-9.57032E-05
0.1579998,-9.478355E-05
0.1589998,-9.389456E-05
0.1599998,-9.288295E-05
0.1609998,-9.193265E-05
0.1619998,-9.1013E-05
0.1629998,-9.021599E-05
0.1639998,-8.929634E-05
0.1649998,-8.849931E-05
0.1659998,-8.767164E-05
0.1669998,-8.666002E-05
0.1679998,-8.577103E-05
0.1689998,-8.497401E-05
0.1699998,-8.414633E-05
0.1709998,-8.337996E-05
0.1719998,-8.258293E-05
0.1729998,-8.175525E-05
0.1739998,-8.089692E-05
0.1749998,-8.000793E-05
0.1759998,-7.92109E-05
0.1769998,-7.847519E-05
0.1779998,-7.770881E-05
0.1789998,-7.700375E-05
0.1799998,-7.623738E-05
0.1809998,-7.537904E-05
0.1819998,-7.461268E-05
0.1829998,-7.381565E-05
0.1839998,-7.314124E-05
0.1849998,-7.243618E-05
0.1859998,-7.170047E-05
0.1869998,-7.09954E-05
0.1879998,-7.022904E-05
0.1889998,-6.940136E-05
0.1899998,-6.872695E-05
0.1909998,-6.799123E-05
0.1919998,-6.737814E-05
0.1929998,-6.673439E-05
0.1939998,-6.602933E-05
0.1949998,-6.517099E-05
0.1959998,-6.446593E-05
0.1969998,-6.385284E-05
0.1979998,-6.323974E-05
0.1989998,-6.259599E-05
0.1999998,-6.189093E-05
0.2009998,-6.118586E-05
0.2019998,-6.045015E-05
0.2029998,-5.986771E-05
0.2039998,-5.928526E-05
0.2049998,-5.864152E-05
0.2059998,-5.799776E-05
0.2069998,-5.723139E-05
0.2079998,-5.66183E-05
0.2089998,-5.603585E-05
0.2099998,-5.53921E-05
0.2109998,-5.484031E-05
0.2119998,-5.422722E-05
0.2129998,-5.358347E-05
0.2139998,-5.293972E-05
0.2149998,-5.2204E-05
0.2159998,-5.168287E-05
0.2169998,-5.113108E-05
0.2179998,-5.051799E-05
0.2189998,-4.999685E-05
0.2199998,-4.938375E-05
0.2209998,-4.877066E-05
0.2219998,-4.812691E-05
0.2229998,-4.751381E-05
0.2239998,-4.699268E-05
0.2249998,-4.641024E-05
0.2259998,-4.585845E-05
0.2269998,-4.536797E-05
0.2279998,-4.478553E-05
0.2289998,-4.42644E-05
0.2299998,-4.362065E-05
0.2309998,-4.300755E-05
0.2319998,-4.242511E-05
0.2329998,-4.196529E-05
0.2339998,-4.14135E-05
0.2349998,-4.092303E-05
0.2359998,-4.04632E-05
0.2369998,-3.988076E-05
0.2379998,-3.929832E-05
0.2389998,-3.865457E-05
0.2399998,-3.813344E-05
0.2409998,-3.76123E-05
0.2419998,-3.709117E-05
0.2429998,-3.653938E-05
0.2439998,-3.607956E-05
0.2449998,-3.561974E-05
0.2459998,-3.50373E-05
0.2469998,-3.439355E-05
0.2479998,-3.390307E-05
0.2489998,-3.338194E-05
0.2499998,-3.289146E-05
0.2509998,-3.246229E-05
0.2519998,-3.187985E-05
0.2529998,-3.138937E-05
0.2539998,-3.074562E-05
0.2549998,-3.025514E-05
0.2559998,-2.976467E-05
0.2569998,-2.927419E-05
0.2579998,-2.881437E-05
0.2589998,-2.826258E-05
0.2599998,-2.764948E-05
0.2609998,-2.712835E-05
0.2619998,-2.663788E-05
0.2629998,-2.608609E-05
0.2639998,-2.568758E-05
0.2649998,-2.522776E-05
0.2659998,-2.470662E-05
0.2669998,-2.415484E-05
0.2679998,-2.348043E-05
0.2689998,-2.298995E-05
0.2699998,-2.253013E-05
0.2709998,-2.2009E-05
0.2719998,-2.154917E-05
0.2729998,-2.10587E-05
0.2739998,-2.047626E-05
0.2749998,-1.989381E-05
0.2759998,-1.934203E-05
0.2769998,-1.882089E-05
0.2779998,-1.836107E-05
0.2789998,-1.783994E-05
0.2799998,-1.738012E-05
0.2809998,-1.685899E-05
0.2819998,-1.615392E-05
0.2829998,-1.566345E-05
0.2839998,-1.508101E-05
0.2849998,-1.459053E-05
0.2859998,-1.400809E-05
0.2869998,-1.387426E-05
0.2879998,-1.328569E-05
0.2889998,-1.268179E-05
0.2899998,-1.205643E-05
0.2909998,-1.151384E-05
0.2919998,-1.094672E-05
0.2929998,-1.045931E-05
0.2939998,-9.962701E-06
0.2949998,-9.343475E-06
0.2959998,-8.742639E-06
0.2969998,-8.074365E-06
0.2979998,-7.47966E-06
0.2989998,-6.891088E-06
0.2999998,-6.302515E-06
0.3009998,-5.766056E-06
0.3019998,-5.131501E-06
0.3029998,-4.39272E-06
0.3039998,-3.733641E-06
0.3049998,-3.129741E-06
0.3059998,-2.48599E-06
0.3069998,-1.894351E-06
0.3079998,-1.296582E-06
0.3089998,-6.405691E-07
0.3099998,9.821217E-08
0.3109998,8.860412E-07
0.3119998,1.517531E-06
0.3129998,2.185806E-06
0.3139998,2.851016E-06
0.3149998,3.51316E-06
0.3159998,4.313251E-06
0.3169998,5.110276E-06
0.3179998,5.83373E-06
0.3189998,6.538791E-06
0.3199998,7.289834E-06
0.3209998,8.053139E-06
0.3219998,8.957457E-06
0.3229998,9.73609E-06
0.3239998,1.06496E-05
0.3249998,1.138838E-05
0.3259998,1.214556E-05
0.3269998,1.305601E-05
0.3279998,1.404309E-05
0.3289998,1.494741E-05
0.3299998,1.588851E-05
0.3309998,1.673765E-05
0.3319998,1.769715E-05
0.3329998,1.868117E-05
0.3339998,1.976022E-05
0.3349998,2.088525E-05
0.3359998,2.191525E-05
0.3369998,2.304335E-05
0.3379998,2.416531E-05
0.3389998,2.544362E-05
0.3399998,2.7192E-05
0.3409998,2.838754E-05
0.3419998,2.964438E-05
0.3429998,3.096254E-05
0.3439998,3.246463E-05
0.3449998,3.405868E-05
0.3459998,3.562207E-05
0.3469998,3.718547E-05
0.3479998,3.899411E-05
0.3489998,4.101732E-05
0.3499998,4.300989E-05
0.3509998,4.515572E-05
0.3519998,4.751615E-05
0.3529998,4.999919E-05
0.3539998,5.29727E-05
0.3549998,5.619146E-05
0.3559998,5.974742E-05
0.3569998,6.382452E-05
0.3579998,6.872928E-05
0.3589998,7.473763E-05
0.3599998,8.212545E-05
0.3609998,9.147517E-05
0.3619998,0.0001038597
0.3629998,0.0001207812
0.3639998,0.0001450598
0.3649998,0.000179853
0.3659998,0.0002289621
0.3669998,0.0002947473
0.3679998,0.0003807446
0.3689998,0.0004803728
0.3699998,0.0005937957
0.3709998,0.000719787
0.3719998,0.0008549748
0.3729998,0.0009953739
0.3739998,0.001139145
0.3749998,0.001283836
0.3759998,0.001425155
0.3769998,0.001564327
0.3779998,0.001699515
0.3789998,0.001829492
0.3799998,0.001957322
0.3809998,0.002080555
0.3819998,0.002202561
0.3829998,0.002323954
0.3839998,0.002444428
0.3849998,0.002567966
0.3859998,0.002692732
0.3869998,0.002820256
0.3879998,0.002950539
0.3889998,0.003111582
0.3899998,0.003243397
0.3909998,0.003378279
0.3919998,0.003510094
0.3929998,0.003648041
0.3939998,0.003779857
0.3949998,0.003911673
0.3959998,0.004040423
0.3969998,0.004163042
0.3979998,0.004285661
0.3989998,0.004402149
0.3999998,0.004512507
0.4009998,0.004619799
0.4019998,0.004724025
0.4029998,0.004822121
0.4039998,0.004917151
0.4049998,0.00500605
0.4059998,0.005091883
0.4069998,0.005171585
0.4079998,0.005251288
0.4089998,0.005330991
0.4099998,0.005410693
0.4109998,0.005484265
0.4119998,0.005554772
0.4129998,0.005622211
0.4139998,0.005689653
0.4149998,0.005760158
0.4159998,0.005827599
0.4169998,0.00589504
0.4179998,0.005965546
0.4189998,0.006032987
0.4199998,0.006106558
0.4209998,0.006173999
0.4219998,0.006250636
0.4229998,0.006324207
0.4239998,0.006397779
0.4249998,0.006477482
0.4259998,0.006557184
0.4269998,0.006639952
0.4279998,0.006725786
0.4289998,0.006808553
0.4299998,0.006897452
0.4309998,0.006989417
0.4319998,0.007084447
0.4329998,0.007179477
0.4339998,0.007280638
0.4349998,0.007381798
0.4359998,0.00748909
0.4369998,0.007596382
0.4379998,0.007712871
0.4389998,0.007826294
0.4399998,0.007945848
0.4409998,0.008074597
0.4419998,0.008200282
0.4429998,0.008335164
0.4439998,0.008476176
0.4449998,0.008614123
0.4459998,0.008764331
0.4469998,0.008914541
0.4479998,0.009067814
0.4489998,0.009236416
0.4499998,0.009401952
0.4509998,0.009573619
0.4519998,0.009751417
0.4529998,0.009929215
0.4539998,0.01011927
0.4549998,0.0103124
0.4559998,0.01050859
0.4569998,0.01071398
0.4579998,0.0109255
0.4589998,0.01114008
0.4599998,0.01135773
0.4609998,0.01158458
0.4619998,0.01182368
0.4629998,0.01205359
0.4639998,0.01229883
0.4649998,0.01255327
0.4659998,0.01279851
0.4669998,0.01305907
0.4679998,0.01331964
0.4689998,0.0135802
0.4699998,0.0138561
0.4709998,0.01412893
0.4719998,0.01440788
0.4729998,0.01469297
0.4739998,0.01498113
0.4749998,0.01527542
0.4759998,0.01557277
0.4769998,0.01586399
0.4779998,0.01617054
0.4789998,0.01647095
0.4799998,0.01678057
0.4809998,0.01709938
0.4819998,0.01740899
0.4829998,0.01772474
0.4839998,0.01804355
0.4849998,0.01836236
0.4859998,0.0186873
0.4869998,0.01901837
0.4879998,0.01934944
0.4889998,0.01968358
0.4899998,0.02002078
0.4909998,0.02036412
0.4919998,0.02070745
0.4929998,0.02104465
0.4939998,0.02140332
0.4949998,0.02174971
0.4959998,0.02210225
0.4969998,0.02246091
0.4979998,0.02281957
0.4989998,0.02317823
0.4999998,0.02354609
0.5009998,0.02391088
0.5019998,0.0242818
0.5029998,0.02464966
0.5039998,0.02502365
0.5049998,0.02540071
0.5059998,0.02577469
0.5069998,0.02616095
0.5079998,0.02654413
0.5089998,0.02691812
0.5099998,0.0273105
0.5109998,0.02770288
0.5119998,0.028083
0.5129998,0.02848765
0.5139998,0.0288739
0.5149998,0.02926628
0.5159998,0.02966786
0.5169998,0.03005411
0.5179998,0.03120778
0.5189998,0.03160629
0.5199998,0.03197415
0.5209998,0.03240332
0.5219998,0.03280183
0.5229998,0.03320035
0.5239998,0.03359886
0.5249998,0.03402802
0.5259998,0.03442654
0.5269998,0.03482505
0.5279998,0.03522356
0.5289998,0.03565273
0.5299998,0.03605124
0.5309998,0.03644976
0.5319998,0.03687892
0.5329998,0.03727744
0.5339998,0.03770661
0.5349998,0.03810512
0.5359998,0.03853428
0.5369998,0.03896345
0.5379998,0.03936196
0.5389998,0.03979113
0.5399998,0.0402203
0.5409998,0.04061881
0.5419998,0.04104798
0.5429998,0.04147715
0.5439998,0.04187566
0.5449998,0.04230483
0.5459998,0.04273399
0.5469998,0.04316316
0.5479998,0.04359233
0.5489998,0.0440215
0.5499998,0.04445067
0.5509998,0.04487984
0.5519998,0.045309
0.5529998,0.04573817
0.5539998,0.04616734
0.5549998,0.0465965
0.5559998,0.04705633
0.5569998,0.04745484
0.5579998,0.04788401
0.5589998,0.04831317
0.5599998,0.04874234
0.5609998,0.04920216
0.5619998,0.04963133
0.5629998,0.0500605
0.5639998,0.05048966
0.5649998,0.05091884
0.5659998,0.051348
0.5669998,0.05180782
0.5679998,0.05223699
0.5689998,0.05266616
0.5699998,0.05309533
0.5709998,0.05355515
0.5719998,0.05401497
0.5729998,0.05444414
0.5739998,0.05487331
0.5749998,0.05533313
0.5759998,0.0557623
0.5769998,0.05619146
0.5779998,0.05665129
0.5789998,0.05708046
0.5799998,0.05754028
0.5809998,0.05796945
0.5819998,0.05842927
0.5829998,0.05885844
0.5839998,0.05931826
0.5849998,0.05974742
0.5859998,0.06020725
0.5869998,0.06063641
0.5879998,0.06106558
0.5889998,0.06155606
0.5899998,0.06201588
0.5909998,0.06244505
0.5919998,0.06290487
0.5929998,0.06333404
0.5939998,0.06376321
0.5949998,0.06422303
0.5959998,0.06468286
0.5969998,0.06511202
0.5979998,0.06557184
0.5989998,0.06600101
0.5999998,0.06646083
0.6009998,0.06692065
0.6019998,0.06734982
0.6029998,0.06780964
0.6039998,0.06826947
0.6049998,0.06869864
0.6059998,0.06918911
0.6069998,0.06961828
0.6079998,0.07004745
0.6089998,0.07053792
0.6099998,0.07099774
0.6109998,0.07142691
0.6119998,0.07191739
0.6129998,0.07234656
0.6139998,0.07280638
0.6149998,0.0732662
0.6159998,0.07372602
0.6169998,0.07418585
0.6179998,0.07461502
0.6189998,0.07507484
0.6199998,0.07553466
0.6209998,0.07596382
0.6219998,0.0764543
0.6229998,0.07688347
0.6239998,0.07734329
0.6249998,0.07783377
0.6259998,0.07829359
0.6269998,0.07875342
0.6279998,0.07921324
0.6289998,0.07964241
0.6299998,0.08010223
0.6309998,0.08059271
0.6319998,0.08105253
0.6329998,0.0814817
0.6339998,0.08197217
0.6349998,0.08240134
0.6359998,0.08286116
0.6369998,0.08332099
0.6379998,0.08378081
0.6389998,0.08424063
0.6399998,0.0846698
0.6409998,0.08516028
0.6419998,0.0856201
0.6429998,0.08607992
0.6439998,0.08653974
0.6449998,0.08699957
0.6459998,0.08745939
0.6469998,0.08794986
0.6479998,0.08837903
0.6489998,0.0888695
0.6499998,0.08935999
0.6509998,0.08978915
0.6519998,0.09024898
0.6529998,0.0907088
0.6539998,0.09116862
0.6549998,0.0916591
0.6559998,0.09211892
0.6569998,0.09257875
0.6579998,0.09303857
0.6589998,0.09349839
0.6599998,0.09395821
0.6609998,0.09444869
0.6619998,0.09490851
0.6629998,0.09536833
0.6639998,0.09582815
0.6649998,0.09628798
0.6659998,0.0967478
0.6669998,0.09720763
0.6679998,0.09766745
0.6689998,0.09806596
0.6699998,0.09858709
0.6709998,0.09901626
0.6719998,0.09947608
0.6729998,0.09996656
0.6739998,0.1004264
0.6749998,0.1008555
0.6759998,0.101346
0.6769998,0.1017752
0.6779998,0.1023576
0.6789998,0.1028481
0.6799998,0.1032773
0.6809998,0.1037371
0.6819998,0.1041969
0.6829998,0.1046567
0.6839998,0.1051166
0.6849998,0.1055764
0.6859998,0.1060669
0.6869998,0.106588
0.6879998,0.1070172
0.6889998,0.107477
0.6899998,0.1079981
0.6909998,0.1084273
0.6919998,0.1089178
0.6929998,0.1093776
0.6939998,0.1098374
0.6949998,0.1103279
0.6959998,0.1107571
0.6969998,0.1112475
0.6979998,0.1117073
0.6989998,0.1121672
0.6999998,0.1122898
0.6990003,0.1118606
0.6980003,0.1113395
0.6970003,0.1108797
0.6960003,0.1104198
0.6950003,0.1098987
0.6940003,0.1094389
0.6930003,0.1089484
0.6920003,0.1084579
0.6910003,0.1079981
0.6900003,0.1075076
0.6890003,0.1070172
0.6880003,0.106588
0.6870003,0.1060975
0.6860003,0.1056377
0.6850003,0.1051472
0.6840003,0.1046567
0.6830003,0.1041969
0.6820003,0.1037064
0.6810003,0.103216
0.6800003,0.1027561
0.6790003,0.1022963
0.6780003,0.1018365
0.6770003,0.101346
0.6760003,0.1008555
0.6750003,0.1003957
0.6740003,0.09990525
0.6730003,0.09941477
0.6720003,0.09895495
0.6710003,0.09849513
0.6700003,0.09800465
0.6690003,0.09754483
0.6680003,0.09705435
0.6670003,0.09659453
0.6660003,0.09610405
0.6650003,0.09561357
0.6640003,0.09518441
0.6630003,0.09472458
0.6620003,0.0942341
0.6610003,0.09380494
0.6600003,0.09331446
0.6590003,0.09282398
0.6580003,0.09236415
0.6570003,0.09187368
0.6560003,0.09141386
0.6550003,0.09095404
0.6540003,0.09049422
0.6530003,0.09003439
0.6520003,0.08954392
0.6510003,0.08905344
0.6500003,0.08859362
0.6490003,0.08810314
0.6480003,0.08764332
0.6470003,0.0871835
0.6460003,0.08669301
0.6450003,0.08626385
0.6440003,0.08577337
0.6430003,0.08531355
0.6420003,0.08485373
0.6410003,0.08436324
0.6400003,0.08393408
0.6390003,0.08347426
0.6380003,0.08298378
0.6370003,0.08252396
0.6360003,0.08206414
0.6350003,0.08157366
0.6340003,0.0811445
0.6330003,0.08065402
0.6320003,0.0801942
0.6310003,0.07973437
0.6300003,0.07927455
0.6290003,0.07881473
0.6280003,0.0783549
0.6270003,0.07789508
0.6260003,0.0774046
0.6250003,0.07694478
0.6240003,0.0764543
0.6230003,0.07602514
0.6220003,0.07553466
0.6210003,0.07510549
0.6200003,0.07464567
0.6190003,0.07418585
0.6180003,0.07369537
0.6170003,0.0732662
0.6160003,0.07277572
0.6150003,0.07234656
0.6140003,0.07188674
0.6130003,0.07139625
0.6120003,0.07093643
0.6110003,0.07047661
0.6100003,0.07001679
0.6090003,0.06958763
0.6080003,0.06909715
0.6070003,0.06863733
0.6060003,0.06817751
0.6050003,0.06771768
0.6040003,0.06725786
0.6030003,0.06679803
0.6020003,0.06633821
0.6010003,0.06587839
0.6000003,0.06544922
0.5990003,0.06495874
0.5980003,0.06452958
0.5970003,0.06406976
0.5960003,0.06360994
0.5950003,0.06315011
0.5940003,0.06269029
0.5930003,0.06226112
0.5920003,0.0618013
0.5910003,0.06134148
0.5900003,0.06088165
0.5890003,0.06042183
0.5880003,0.059962
0.5870003,0.05953284
0.5860003,0.05907302
0.5850003,0.05864385
0.5840003,0.05818403
0.5830003,0.05772421
0.5820003,0.05729504
0.5810003,0.05683522
0.5800003,0.05637539
0.5790003,0.05594623
0.5780003,0.05548641
0.5770003,0.05502658
0.5760003,0.05459742
0.5750003,0.05413759
0.5740003,0.05370842
0.5730003,0.0532486
0.5720003,0.05278878
0.5710003,0.05235961
0.5700003,0.05189979
0.5690003,0.05143997
0.5680003,0.0510108
0.5670003,0.05055097
0.5660003,0.05012181
0.5650003,0.04969264
0.5640003,0.04923282
0.5630003,0.04880365
0.5620003,0.04837449
0.5610003,0.04791466
0.5600003,0.04748549
0.5590003,0.04705633
0.5580003,0.0465965
0.5570003,0.04616734
0.5560003,0.04570751
0.5550003,0.04527835
0.5540003,0.04484918
0.5530003,0.04442001
0.5520003,0.04399084
0.5510003,0.04353102
0.5500003,0.04310185
0.5490003,0.04267269
0.5480003,0.04224352
0.5470003,0.04181435
0.5460003,0.04135453
0.5450003,0.04095602
0.5440003,0.04049619
0.5430003,0.04009768
0.5420003,0.03963786
0.5410003,0.03923934
0.5400003,0.03877952
0.5390003,0.03835035
0.5380003,0.03792119
0.5370003,0.03749202
0.5360003,0.03709351
0.5350003,0.03666434
0.5340003,0.03623517
0.5330003,0.03583666
0.5320003,0.03540749
0.5310003,0.03497833
0.5300003,0.03454916
0.5290003,0.03411999
0.5280003,0.03372148
0.5270003,0.03329231
0.5260003,0.0328938
0.5250003,0.03246463
0.5240003,0.03206612
0.5230003,0.03163695
0.5220003,0.03123844
0.5210003,0.03083992
0.5200003,0.03041076
0.5190003,0.02998159
0.5180003,0.02958308
0.5170003,0.02918456
0.5160003,0.02875539
0.5150003,0.02835688
0.5140003,0.02795837
0.5130003,0.02755986
0.5120003,0.02713069
0.5110003,0.02673218
0.5100003,0.02633366
0.5090003,0.02593515
0.5080003,0.02553664
0.5070003,0.02513812
0.5060003,0.02473961
0.5050003,0.0243411
0.5040003,0.02394259
0.5030003,0.02357473
0.5020003,0.02317622
0.5010003,0.0227777
0.5000003,0.02237919
0.4990003,0.02201133
0.4980003,0.02161282
0.4970003,0.02124496
0.4960003,0.02084645
0.4950003,0.02047859
0.4940003,0.02011073
0.4930003,0.01971222
0.4920003,0.01934436
0.4910003,0.01897651
0.4900003,0.01860865
0.4890003,0.01824079
0.4880003,0.01787293
0.4870003,0.01750507
0.4860003,0.01713721
0.4850003,0.01676936
0.4840003,0.01643215
0.4830003,0.0160643
0.4820003,0.01569644
0.4810003,0.01535923
0.4800003,0.01499138
0.4790003,0.01465417
0.4780003,0.01428632
0.4770003,0.01394911
0.4760003,0.01361191
0.4750003,0.01327471
0.4740003,0.01243371
0.4730003,0.01210264
0.4720003,0.0117777
0.4710003,0.01144663
0.4700003,0.01112782
0.4690003,0.01080288
0.4680003,0.01048407
0.4670003,0.01016832
0.4660003,0.009852578
0.4650003,0.009546029
0.4640003,0.009239481
0.4630003,0.008932933
0.4620003,0.008632516
0.4610003,0.008329033
0.4600003,0.008034746
0.4590003,0.007746591
0.4580003,0.00745537
0.4570003,0.00717028
0.4560003,0.006891321
0.4550003,0.006612363
0.4540003,0.006339534
0.4530003,0.006066706
0.4520003,0.00580001
0.4510003,0.005539444
0.4500003,0.005275812
0.4490003,0.005021377
0.4480003,0.004770007
0.4470003,0.004518638
0.4460003,0.00427953
0.4450003,0.004037357
0.4440003,0.003801315
0.4430003,0.003571404
0.4420003,0.003341493
0.4410003,0.003117712
0.4400003,0.002900063
0.4390003,0.002679348
0.4380003,0.002470896
0.4370003,0.002262443
0.4360003,0.002057055
0.4350003,0.00186393
0.4340003,0.001667739
0.4330003,0.001477679
0.4320003,0.001290685
0.4310003,0.00110369
0.4300003,0.0008935999
0.4290003,0.0007179478
0.4280003,0.0005441349
0.4270003,0.0003789053
0.4260003,0.0002124496
0.4250003,5.089869E-05
0.4240003,-0.0001084863
0.4230003,-0.0002645806
0.4220003,-0.0004153613
0.4210003,-0.0005625045
0.4200003,-0.0007087279
0.4190003,-0.0008475943
0.4180003,-0.0009901392
0.4170003,-0.001127779
0.4160003,-0.001262048
0.4150003,-0.001398462
0.4140003,-0.001527212
0.4130003,-0.001656575
0.4120003,-0.001787471
0.4110003,-0.00191101
0.4100003,-0.002043746
0.4090003,-0.002175561
0.4080003,-0.002293583
0.4070003,-0.002418654
0.4060003,-0.002537902
0.4050003,-0.002660521
0.4040003,-0.002784673
0.4030003,-0.002905759
0.4020003,-0.003031444
0.4010003,-0.003117479
0.4000003,-0.003240098
0.3990003,-0.003368848
0.3980003,-0.003491468
0.3970003,-0.003617153
0.3960003,-0.003752034
0.3950003,-0.003877719
0.3940003,-0.0040126
0.3930003,-0.004147481
0.3920003,-0.004279297
0.3910003,-0.004417243
0.3900003,-0.00455519
0.3890003,-0.004696202
0.3880003,-0.004837214
0.3870003,-0.004981292
0.3860003,-0.005128435
0.3850003,-0.005275579
0.3840003,-0.005419657
0.3830003,-0.00557293
0.3820003,-0.005720073
0.3810003,-0.005873348
0.3800003,-0.006029687
0.3790003,-0.006179896
0.3780003,-0.006339301
0.3770003,-0.006498706
0.3760003,-0.006655046
0.3750003,-0.006817516
0.3740003,-0.006973856
0.3730003,-0.007136327
0.3720003,-0.007295732
0.3710003,-0.007458202
0.3700003,-0.007623739
0.3690003,-0.007783143
0.3680003,-0.007942548
0.3670003,-0.008114216
0.3660003,-0.008267489
0.3650003,-0.008426895
0.3640003,-0.008592431
0.3630003,-0.008745705
0.3620003,-0.00890511
0.3610003,-0.00906758
0.3600003,-0.009217789
0.3590003,-0.009371064
0.3580003,-0.009527403
0.3570003,-0.009674546
0.3560003,-0.00982169
0.3550003,-0.009959636
0.3540003,-0.01010678
0.3530003,-0.01024166
0.3520003,-0.01037961
0.3510003,-0.01052062
0.3500003,-0.01064631
0.3490003,-0.01077199
0.3480003,-0.01089767
0.3470003,-0.0110111
0.3460003,-0.01113372
0.3450003,-0.01124407
0.3440003,-0.01135137
0.3430003,-0.01146172
0.3420003,-0.01155982
0.3410003,-0.01165485
0.3400003,-0.01174988
0.3390003,-0.01183265
0.3380003,-0.01191541
0.3370003,-0.01199205
0.3360003,-0.01205336
0.3350003,-0.01211467
0.3340003,-0.01216678
0.3330003,-0.01220664
0.3320003,-0.01224036
0.3310003,-0.01226181
0.3300003,-0.01228021
0.3290003,-0.01228634
0.3280003,-0.01228021
0.3270003,-0.01227101
0.3260003,-0.01225262
0.3250003,-0.01222196
0.3240003,-0.01218824
0.3230003,-0.01214226
0.3220003,-0.01208708
0.3210003,-0.01202577
0.3200003,-0.01195833
0.3190003,-0.01187863
0.3180003,-0.01178973
0.3170003,-0.01168857
0.3160003,-0.01158741
0.3150003,-0.01146479
0.3140003,-0.0113391
0.3130003,-0.01120116
0.3120003,-0.01105095
0.3110003,-0.01089767
0.3100003,-0.01072294
0.3090003,-0.01053595
0.3080003,-0.01034895
0.3070003,-0.0101405
0.3060003,-0.00992285
0.3050003,-0.009696005
0.3040003,-0.009450765
0.3030003,-0.009214723
0.3020003,-0.008957223
0.3010003,-0.008705853
0.3000003,-0.008454484
0.2990003,-0.008193919
0.2980003,-0.007945614
0.2970003,-0.00769731
0.2960003,-0.007455137
0.2950003,-0.00722216
0.2940003,-0.006995314
0.2930003,-0.006768468
0.2920003,-0.006556951
0.2910003,-0.006342367
0.2900003,-0.006133914
0.2890003,-0.005937723
0.2880003,-0.005744598
0.2870003,-0.005551472
0.2860003,-0.005367543
0.2850003,-0.005189745
0.2840003,-0.005018078
0.2830003,-0.004852542
0.2820003,-0.004699268
0.2810003,-0.004552125
0.2800003,-0.004414178
0.2790003,-0.004288493
0.2780003,-0.004168939
0.2770003,-0.004052451
0.2760003,-0.003948225
0.2750003,-0.003850129
0.2740003,-0.003752034
0.2730003,-0.003660069
0.2720003,-0.00357117
0.2710003,-0.003488402
0.2700003,-0.003405634
0.2690003,-0.003332063
0.2680003,-0.003255426
0.2670003,-0.003181854
0.2660003,-0.003114413
0.2650003,-0.003050038
0.2640003,-0.002985663
0.2630003,-0.002924354
0.2620003,-0.002869175
0.2610003,-0.002813996
0.2600003,-0.002761883
0.2590003,-0.00270977
0.2580003,-0.002660722
0.2570003,-0.00261474
0.2560003,-0.002571823
0.2550003,-0.002528906
0.2540003,-0.00248599
0.2530003,-0.002446138
0.2520003,-0.002406287
0.2510003,-0.002369501
0.2500003,-0.002332716
0.2490003,-0.002298995
0.2480003,-0.002265275
0.2470003,-0.002231555
0.2460003,-0.0022009
0.2450003,-0.002170245
0.2440003,-0.00213959
0.2430003,-0.002112001
0.2420003,-0.002081346
0.2410003,-0.002053756
0.2400003,-0.002026167
0.2390003,-0.002001643
0.2380003,-0.00197712
0.2370003,-0.001952596
0.2360003,-0.001928072
0.2350003,-0.001903548
0.2340003,-0.00188209
0.2330003,-0.001857566
0.2320003,-0.001836107
0.2310003,-0.001814649
0.2300003,-0.00179319
0.2290003,-0.001774798
0.2280003,-0.001753339
0.2270003,-0.001734946
0.2260003,-0.001713488
0.2250003,-0.001695095
0.2240003,-0.001676702
0.2230003,-0.001658309
0.2220003,-0.001642982
0.2210003,-0.001624589
0.2200003,-0.001606196
0.2190003,-0.001627453
0.2180003,-0.001611819
0.2170003,-0.001595879
0.2160003,-0.001580245
0.2150003,-0.001564917
0.2140003,-0.001549896
0.2130003,-0.001534876
0.2120003,-0.001520774
0.2110003,-0.00150698
0.2100003,-0.001492879
0.2090003,-0.001479084
0.2080003,-0.001465596
0.2070003,-0.001452721
0.2060003,-0.001439539
0.2050003,-0.001426971
0.2040003,-0.001414402
0.2030003,-0.00140214
0.2020003,-0.001390185
0.2010003,-0.001378229
0.2000003,-0.001366581
0.1990003,-0.001355238
0.1980003,-0.001343896
0.1970003,-0.00133286
0.1960003,-0.001321825
0.1950003,-0.001310789
0.1940003,-0.001300366
0.1930003,-0.001289943
0.1920003,-0.001279521
0.1910003,-0.001269711
0.1900003,-0.001259289
0.1890003,-0.001249479
0.1880003,-0.00123967
0.1870003,-0.001230167
0.1860003,-0.00122097
0.1850003,-0.001211774
0.1840003,-0.001202271
0.1830003,-0.001193381
0.1820003,-0.001184491
0.1810003,-0.001175601
0.1800003,-0.001167018
0.1790003,-0.001158434
0.1780003,-0.001150158
0.1770003,-0.001141881
0.1760003,-0.001133604
0.1750003,-0.00112594
0.1740003,-0.001117663
0.1730003,-0.00111
0.1720003,-0.001102029
0.1710003,-0.001094672
0.1700003,-0.001087009
0.1690003,-0.001079651
0.1680003,-0.001072294
0.1670003,-0.001065244
0.1660003,-0.001058193
0.1650003,-0.001051142
0.1640003,-0.001044398
0.1630003,-0.001037348
0.1620003,-0.001030297
0.1610003,-0.00102386
0.1600003,-0.001017116
0.1590003,-0.001010678
0.1580003,-0.00100424
0.1570003,-0.0009978029
0.1560003,-0.0009913654
0.1550003,-0.0009852345
0.1540003,-0.00097941
0.1530003,-0.0009732791
0.1520003,-0.0009671481
0.1510003,-0.0009613237
0.1500003,-0.0009551927
0.1490003,-0.0009493683
0.1480003,-0.0009435439
0.1470003,-0.0009380261
0.1460003,-0.0009322016
0.1450003,-0.0009266838
0.1440003,-0.0009211659
0.1430003,-0.0009159546
0.1420003,-0.0009107432
0.1410003,-0.0009055319
0.1400003,-0.0009003207
0.1390003,-0.0008951093
0.1380003,-0.0008902045
0.1370003,-0.0008849932
0.1360003,-0.0008797819
0.1350003,-0.0008748771
0.1340003,-0.0008699723
0.1330003,-0.0008650676
0.1320003,-0.0008604693
0.1310003,-0.0008555645
0.1300003,-0.0008512728
0.1290003,-0.0008463681
0.1280003,-0.0008417699
0.1270003,-0.0008371716
0.1260003,-0.00083288
0.1250003,-0.0008282817
0.1240003,-0.0008239901
0.1230003,-0.0008193919
0.1220003,-0.0008154067
0.1210003,-0.0008111151
0.1200003,-0.0008068234
0.1190003,-0.0008028382
0.1180003,-0.0007988531
0.1170003,-0.0007945614
0.1160003,-0.0007905763
0.1150003,-0.0007865912
0.1140003,-0.0007822995
0.1130003,-0.0007783144
0.1120003,-0.0007746358
0.1110003,-0.0007709572
0.1100003,-0.0007672787
0.1090003,-0.0007636001
0.1080003,-0.0007596149
0.1070003,-0.0007559364
0.1060003,-0.0007522578
0.1050003,-0.0007485792
0.1040003,-0.0007452072
0.1030003,-0.0007418352
0.1020003,-0.0007384631
0.1010003,-0.000735091
0.1000003,-0.0007317191
0.09900028,-0.0007280405
0.09800029,-0.0007246684
0.09700029,-0.0007212964
0.09600028,-0.0007179244
0.09500029,-0.0007145524
0.09400029,-0.0007111803
0.09300029,-0.0007081148
0.09200028,-0.0007047429
0.09100029,-0.0007016773
0.09000029,-0.0006986118
0.08900028,-0.0006955464
0.08800028,-0.0006924809
0.08700029,-0.0006897219
0.08600029,-0.0006866565
0.08500028,-0.000683591
0.08400029,-0.0006805255
0.08300029,-0.0006777665
0.08200029,-0.0006747011
0.08100028,-0.0006716356
0.08000029,-0.0006688767
0.07900029,-0.0006661177
0.07800028,-0.0006633588
0.07700028,-0.0006602933
0.07600029,-0.0006578409
0.07500029,-0.0006550819
0.07400028,-0.000652323
0.07300029,-0.0006495641
0.07200029,-0.0006468052
0.07100029,-0.0006443528
0.07000028,-0.0006415938
0.06900029,-0.0006388349
0.06800029,-0.0006363826
0.06700028,-0.0006339302
0.06600028,-0.0006314777
0.06500029,-0.0006290254
0.06400029,-0.000626573
0.06300028,-0.0006241206
0.06200029,-0.0006213617
0.06100029,-0.0006189093
0.06000029,-0.0006164569
0.05900029,-0.0006143111
0.05800029,-0.0006118587
0.05700029,-0.0006097128
0.05600028,-0.0006072604
0.05500029,-0.0006051146
0.05400028,-0.0006026622
0.05300029,-0.0006002099
0.05200029,-0.000598064
0.05100029,-0.0005959182
0.05000029,-0.0005937723
0.04900029,-0.0005916265
0.04800029,-0.0005891741
0.04700029,-0.0005873349
0.04600029,-0.000585189
0.04500028,-0.0005830431
0.04400029,-0.0005808973
0.04300028,-0.0005787515
0.04200029,-0.0005766057
0.04100028,-0.0005747664
0.04000029,-0.0005726205
0.03900029,-0.0005704747
0.03800029,-0.0005686354
0.03700029,-0.0005664895
0.03600029,-0.0005646503
0.03500029,-0.0005625045
0.03400028,-0.0005606651
0.03300029,-0.0005588258
0.03200028,-0.00055668
0.03100029,-0.0005548407
0.03000029,-0.0005530014
0.02900029,-0.0005511622
0.02800029,-0.0005493228
0.02700029,-0.0005474835
0.02600029,-0.0005456443
0.02500029,-0.000543805
0.02400029,-0.0005419657
0.02300029,-0.0005404329
0.02200029,-0.0005385936
0.02100029,-0.0005364478
0.02000029,-0.0005349151
0.01900029,-0.0005330758
0.01800029,-0.0005312365
0.01700029,-0.0005297037
0.01600029,-0.0005278645
0.01500029,-0.0005263317
0.01400029,-0.0005244924
0.01300029,-0.0005229597
0.01200029,-0.0005211204
0.01100029,-0.0005195877
0.01000029,-0.0005180549
0.009000286,-0.0005162156
0.008000286,-0.0005143763
0.007000286,-0.0005128436
0.006000286,-0.0005113108
0.005000286,-0.0005097781
0.004000286,-0.0005082454
0.003000286,-0.0005064061
0.002000286,-0.0005051799
0.001000286,-0.0005036471
2.861023E-07,-0.0004975162
0.0009997139,-0.0004870935
0.001999714,-0.0004775905
0.002999714,-0.0004690072
0.003999714,-0.000461037
0.004999714,-0.0004533732
0.005999714,-0.0004463226
0.006999714,-0.0004395786
0.007999714,-0.000433141
0.008999714,-0.0004270101
0.009999714,-0.0004208791
0.01099971,-0.0004150547
0.01199971,-0.0004098434
0.01299971,-0.0004043255
0.01399971,-0.0003988076
0.01499971,-0.0003939029
0.01599971,-0.0003889981
0.01699971,-0.0003843998
0.01799971,-0.0003798016
0.01899971,-0.0003752034
0.01999971,-0.0003709117
0.02099971,-0.0003666201
0.02199971,-0.0003623284
0.02299971,-0.0003580367
0.02399971,-0.0003543581
0.02499971,-0.000350373
0.02599971,-0.0003466944
0.02699971,-0.0003430158
0.02799971,-0.0003393373
0.02899971,-0.0003356587
0.02999971,-0.0003319801
0.03099971,-0.0003283015
0.03199971,-0.0003249295
0.03299971,-0.0003215575
0.03399972,-0.000318492
0.03499971,-0.0003151199
0.03599972,-0.0003117479
0.03699971,-0.000308989
0.03799972,-0.000305617
0.03899971,-0.0003025515
0.03999971,-0.000299486
0.04099971,-0.0002964205
0.04199971,-0.0002936616
0.04299971,-0.0002909026
0.04399971,-0.0002881437
0.04499971,-0.0002850782
0.04599971,-0.0002823193
0.04699972,-0.0002795603
0.04799971,-0.0002768014
0.04899972,-0.0002740425
0.04999971,-0.0002715901
0.05099971,-0.0002691377
0.05199971,-0.0002663788
0.05299971,-0.0002636198
0.05399971,-0.0002611674
0.05499971,-0.0002587151
0.05599971,-0.0002562627
0.05699971,-0.0002538103
0.05799972,-0.0002513579
0.05899971,-0.0002489055
0.05999972,-0.0002461466
0.06099971,-0.0002440007
0.06199971,-0.0002415484
0.06299971,-0.000239096
0.06399971,-0.0002366436
0.06499971,-0.0002341912
0.06599972,-0.0002317388
0.06699971,-0.0002292864
0.06799971,-0.0002268341
0.06899972,-0.0002246882
0.06999972,-0.0002222358
0.07099971,-0.0002197834
0.07199971,-0.0002176376
0.07299972,-0.0002151852
0.07399971,-0.0002127328
0.07499971,-0.000210587
0.07599971,-0.0002081346
0.07699972,-0.0002059888
0.07799971,-0.0002038429
0.07899971,-0.0002016971
0.07999972,-0.0001995512
0.08099972,-0.000197712
0.08199971,-0.0001955661
0.08299971,-0.0001934203
0.08399972,-0.0001912744
0.08499971,-0.0001891286
0.08599971,-0.0001872893
0.08699971,-0.00018545
0.08799972,-0.0001836107
0.08899971,-0.0001817715
0.08999971,-0.0001799322
0.09099972,-0.0001780929
0.09199972,-0.0001762536
0.09299971,-0.0001744143
0.09399971,-0.000172575
0.09499972,-0.0001707357
0.09599971,-0.0001688964
0.09699971,-0.0001673637
0.09799971,-0.0001655244
0.09899972,-0.0001639917
0.09999971,-0.0001621524
0.1009997,-0.0001606196
0.1019997,-0.0001624388
0.1029997,-0.0001608447
0.1039997,-0.0001592507
0.1049997,-0.0001575953
0.1059997,-0.0001560319
0.1069997,-0.0001545605
0.1079997,-0.0001530277
0.1089997,-0.0001516176
0.1099997,-0.0001502381
0.1109997,-0.0001487054
0.1119997,-0.0001473259
0.1129997,-0.0001458238
0.1139997,-0.0001443218
0.1149997,-0.0001429116
0.1159997,-0.0001415628
0.1169997,-0.000140214
0.1179997,-0.0001388958
0.1189997,-0.000137639
0.1199997,-0.0001362902
0.1209997,-0.000134972
0.1219997,-0.0001335619
0.1229997,-0.0001323051
0.1239997,-0.0001309869
0.1249997,-0.0001297607
0.1259997,-0.0001285345
0.1269997,-0.000127247
0.1279997,-0.0001261434
0.1289997,-0.0001250092
0.1299997,-0.0001237524
0.1309997,-0.0001225875
0.1319997,-0.0001213613
0.1329997,-0.0001201351
0.1339997,-0.0001190009
0.1349997,-0.0001178666
0.1359997,-0.0001167324
0.1369997,-0.0001156288
0.1379997,-0.0001145253
0.1389997,-0.0001134217
0.1399997,-0.0001123794
0.1409997,-0.0001113678
0.1419997,-0.0001102642
0.1429997,-0.0001091913
0.1439997,-0.0001081184
0.1449997,-0.0001070148
0.1459997,-0.0001059726
0.1469997,-0.000104961
0.1479997,-0.0001039494
0.1489997,-0.0001029377
0.1499997,-0.0001020181
0.1509997,-0.0001010678
0.1519997,-0.0001000868
0.1529997,-9.913654E-05
0.1539997,-9.818624E-05
0.1549997,-9.714397E-05
0.1559997,-9.613237E-05
0.1569997,-9.524338E-05
0.1579997,-9.429307E-05
0.1589997,-9.337343E-05
0.1599997,-9.25151E-05
0.1609997,-9.165676E-05
0.1619997,-9.076777E-05
0.1629997,-8.987878E-05
0.1639997,-8.892849E-05
0.1649997,-8.797818E-05
0.1659997,-8.711984E-05
0.1669997,-8.629217E-05
0.1679997,-8.546449E-05
0.1689997,-8.472877E-05
0.1699997,-8.387043E-05
0.1709997,-8.307341E-05
0.1719997,-8.215377E-05
0.1729997,-8.132608E-05
0.1739997,-8.052905E-05
0.1749997,-7.967072E-05
0.1759997,-7.899632E-05
0.1769997,-7.822995E-05
0.1779997,-7.740227E-05
0.1789997,-7.657459E-05
0.1799997,-7.57469E-05
0.1809997,-7.504185E-05
0.1819997,-7.433679E-05
0.1829997,-7.357041E-05
0.1839997,-7.28347E-05
0.1849997,-7.212964E-05
0.1859997,-7.133261E-05
0.1869997,-7.059689E-05
0.1879997,-6.976922E-05
0.1889997,-6.909481E-05
0.1899997,-6.838975E-05
0.1909997,-6.768468E-05
0.1919997,-6.710224E-05
0.1929997,-6.642783E-05
0.1939997,-6.563082E-05
0.1949997,-6.48951E-05
0.1959997,-6.415938E-05
0.1969997,-6.351563E-05
0.1979997,-6.287188E-05
0.1989997,-6.219748E-05
0.1999997,-6.158437E-05
0.2009997,-6.094063E-05
0.2019997,-6.020491E-05
0.2029997,-5.946919E-05
0.2039997,-5.88561E-05
0.2049997,-5.821234E-05
0.2059997,-5.762991E-05
0.2069997,-5.698615E-05
0.2079997,-5.637306E-05
0.2089997,-5.569865E-05
0.2099997,-5.496293E-05
0.2109997,-5.438049E-05
0.2119997,-5.379805E-05
0.2129997,-5.321561E-05
0.2139997,-5.266382E-05
0.2149997,-5.205073E-05
0.2159997,-5.143763E-05
0.2169997,-5.073257E-05
0.2179997,-5.008882E-05
0.2189997,-4.956769E-05
0.2199997,-4.895459E-05
0.2209997,-4.84028E-05
0.2219997,-4.785102E-05
0.2229997,-4.729923E-05
0.2239997,-4.671679E-05
0.2249997,-4.607304E-05
0.2259997,-4.545994E-05
0.2269997,-4.48775E-05
0.2279997,-4.429505E-05
0.2289997,-4.374327E-05
0.2299997,-4.325279E-05
0.2309997,-4.267035E-05
0.2319997,-4.214922E-05
0.2329997,-4.165874E-05
0.2339997,-4.113761E-05
0.2349997,-4.055517E-05
0.2359997,-4.003403E-05
0.2369997,-3.939028E-05
0.2379997,-3.883849E-05
0.2389997,-3.825605E-05
0.2399997,-3.770427E-05
0.2409997,-3.721379E-05
0.2419997,-3.6662E-05
0.2429997,-3.620218E-05
0.2439997,-3.558908E-05
0.2449997,-3.509861E-05
0.2459997,-3.457748E-05
0.2469997,-3.4087E-05
0.2479997,-3.359652E-05
0.2489997,-3.307539E-05
0.2499997,-3.249295E-05
0.2509997,-3.200247E-05
0.2519997,-3.138937E-05
0.2529997,-3.083759E-05
0.2539997,-3.02858E-05
0.2549997,-2.970336E-05
0.2559997,-2.921288E-05
0.2569997,-2.87224E-05
0.2579997,-2.823193E-05
0.2589997,-2.77721E-05
0.2599997,-2.728163E-05
0.2609997,-2.676049E-05
0.2619997,-2.627002E-05
0.2629997,-2.568758E-05
0.2639997,-2.510513E-05
0.2649997,-2.4584E-05
0.2659997,-2.403222E-05
0.2669997,-2.354174E-05
0.2679997,-2.305126E-05
0.2689997,-2.249947E-05
0.2699997,-2.203965E-05
0.2709997,-2.157983E-05
0.2719997,-2.10587E-05
0.2729997,-2.047626E-05
0.2739997,-1.986316E-05
0.2749997,-1.931137E-05
0.2759997,-1.875959E-05
0.2769997,-1.826911E-05
0.2779997,-1.777863E-05
0.2789997,-1.722684E-05
0.2799997,-1.682833E-05
0.2809997,-1.63072E-05
0.2819997,-1.572476E-05
0.2829997,-1.508101E-05
0.2839997,-1.452922E-05
0.2849997,-1.400809E-05
0.2859997,-1.34563E-05
0.2869997,-1.323357E-05
0.2879997,-1.274616E-05
0.2889997,-1.218824E-05
0.2899997,-1.157515E-05
0.2909997,-1.096205E-05
0.2919997,-1.036121E-05
0.2929997,-9.879934E-06
0.2939997,-9.389456E-06
0.2949997,-8.764098E-06
0.2959997,-8.172459E-06
0.2969997,-7.476595E-06
0.2979997,-6.872695E-06
0.2989997,-6.308646E-06
0.2999997,-5.698615E-06
0.3009997,-5.202007E-06
0.3019997,-4.607304E-06
0.3029997,-3.862391E-06
0.3039997,-3.237033E-06
0.3049997,-2.633133E-06
0.3059997,-1.918875E-06
0.3069997,-1.351761E-06
0.3079997,-7.141406E-07
0.3089997,-3.360358E-08
0.3099997,6.438681E-07
0.3109997,1.431697E-06
0.3119997,2.078514E-06
0.3129997,2.737593E-06
0.3139997,3.415064E-06
0.3149997,4.074143E-06
0.3159997,4.760811E-06
0.3169997,5.631408E-06
0.3179997,6.428434E-06
0.3189997,7.161083E-06
0.3199997,7.951979E-06
0.3209997,8.669301E-06
0.3219997,9.392756E-06
0.3229997,1.018671E-05
0.3239997,1.111862E-05
0.3249997,1.194324E-05
0.3259997,1.28169E-05
0.3269997,1.371202E-05
0.3279997,1.450904E-05
0.3289997,1.538577E-05
0.3299997,1.629929E-05
0.3309997,1.725572E-05
0.3319997,1.84206E-05
0.3329997,1.938929E-05
0.3339997,2.033346E-05
0.3349997,2.134201E-05
0.3359997,2.240573E-05
0.3369997,2.349398E-05
0.3379997,2.468338E-05
0.3389997,2.621104E-05
0.3399997,2.746789E-05
0.3409997,2.872474E-05
0.3419997,3.004289E-05
0.3429997,3.148367E-05
0.3439997,3.277118E-05
0.3449997,3.427326E-05
0.3459997,3.5806E-05
0.3469997,3.733874E-05
0.3479997,3.911672E-05
0.3489997,4.092536E-05
0.3499997,4.276465E-05
0.3509997,4.484918E-05
0.3519997,4.702567E-05
0.3529997,4.94474E-05
0.3539997,5.214503E-05
0.3549997,5.508789E-05
0.3559997,5.83373E-05
0.3569997,6.192391E-05
0.3579997,6.621559E-05
0.3589997,7.130429E-05
0.3599997,7.734329E-05
0.3609997,8.512961E-05
0.3619997,9.536833E-05
0.3629997,0.000109163
0.3639997,0.0001289967
0.3649997,0.0001576283
0.3659997,0.0001992269
0.3669997,0.0002571951
0.3679997,0.0003330659
0.3689997,0.000430712
0.3699997,0.0005410694
0.3709997,0.0006652214
0.3719997,0.0008010223
0.3729997,0.0009423411
0.3739997,0.001089178
0.3749997,0.00123816
0.3759997,0.001383464
0.3769997,0.001527848
0.3779997,0.001667941
0.3789997,0.001802209
0.3799997,0.001934944
0.3809997,0.002061549
0.3819997,0.002187234
0.3829997,0.002311999
0.3839997,0.002434311
0.3849997,0.002560916
0.3859997,0.002687214
0.3869997,0.002814738
0.3879997,0.002947473
0.3889997,0.00310545
0.3899997,0.003237266
0.3909997,0.003375213
0.3919997,0.003507029
0.3929997,0.003638844
0.3939997,0.00377066
0.3949997,0.003899411
0.3959997,0.004028161
0.3969997,0.00415078
0.3979997,0.004267268
0.3989997,0.004383757
0.3999997,0.004494114
0.4009997,0.00459834
0.4019997,0.004702567
0.4029997,0.004797597
0.4039997,0.004895692
0.4049997,0.004981526
0.4059997,0.005064294
0.4069997,0.005147062
0.4079997,0.005223699
0.4089997,0.005306467
0.4099997,0.00538617
0.4109997,0.005456676
0.4119997,0.005533312
0.4129997,0.005600753
0.4139997,0.005668194
0.4149997,0.005741765
0.4159997,0.005806141
0.4169997,0.005876646
0.4179997,0.005953284
0.4189997,0.006020725
0.4199997,0.006097361
0.4209997,0.006167868
0.4219997,0.006241439
0.4229997,0.006321141
0.4239997,0.006397779
0.4249997,0.006480547
0.4259997,0.006563315
0.4269997,0.006646083
0.4279997,0.006738048
0.4289997,0.006826947
0.4299997,0.00691278
0.4309997,0.007013941
0.4319997,0.007108971
0.4329997,0.007207066
0.4339997,0.007311293
0.4349997,0.007415519
0.4359997,0.007528942
0.4369997,0.007636234
0.4379997,0.007755788
0.4389997,0.007878407
0.4399997,0.007997961
0.4409997,0.008126711
0.4419997,0.008261592
0.4429997,0.008396474
0.4439997,0.008540551
0.4449997,0.008684629
0.4459997,0.008831772
0.4469997,0.008985046
0.4479997,0.009144451
0.4489997,0.009309988
0.4499997,0.009481654
0.4509997,0.009653321
0.4519997,0.009831119
0.4529997,0.01001505
0.4539997,0.01020511
0.4549997,0.0104013
0.4559997,0.01060362
0.4569997,0.01080594
0.4579997,0.01102053
0.4589997,0.01123818
0.4599997,0.01145582
0.4609997,0.01168574
0.4619997,0.01191258
0.4629997,0.01215169
0.4639997,0.0123908
0.4649997,0.0126391
0.4659997,0.01289354
0.4669997,0.01315104
0.4679997,0.01341467
0.4689997,0.01367523
0.4699997,0.01394806
0.4709997,0.01422089
0.4719997,0.01449985
0.4729997,0.01478494
0.4739997,0.01507003
0.4749997,0.01536125
0.4759997,0.0156586
0.4769997,0.01594982
0.4779997,0.0162533
0.4789997,0.01655679
0.4799997,0.01686027
0.4809997,0.01717602
0.4819997,0.01748563
0.4829997,0.01780137
0.4839997,0.01812325
0.4849997,0.01843899
0.4859997,0.01876394
0.4869997,0.01909807
0.4879997,0.01942608
0.4889997,0.01976022
0.4899997,0.02010355
0.4909997,0.02044075
0.4919997,0.02077796
0.4929997,0.02112742
0.4939997,0.02147689
0.4949997,0.02182022
0.4959997,0.02217888
0.4969997,0.02253448
0.4979997,0.02288701
0.4989997,0.0232518
0.4999997,0.02361966
0.5009997,0.02397219
0.5019997,0.02434311
0.5029997,0.0247171
0.5039997,0.02507883
0.5049997,0.02545588
0.5059997,0.025836
0.5069997,0.02620693
0.5079997,0.02659318
0.5089997,0.02697023
0.5099997,0.02735342
0.5109997,0.02773967
0.5119997,0.02812285
0.5129997,0.0285183
0.5139997,0.02890455
0.5149997,0.02928161
0.5159997,0.02968318
0.5169997,0.03006944
0.5179997,0.03120778
0.5189997,0.03160629
0.5199997,0.03200481
0.5209997,0.03240332
0.5219997,0.03280183
0.5229997,0.03320035
0.5239997,0.03359886
0.5249997,0.03399737
0.5259997,0.03439588
0.5269997,0.03482505
0.5279997,0.03522356
0.5289997,0.03562208
0.5299997,0.03605124
0.5309997,0.0364191
0.5319997,0.03684827
0.5329997,0.03724678
0.5339997,0.03767595
0.5349997,0.03807446
0.5359997,0.03850363
0.5369997,0.0389328
0.5379997,0.03933131
0.5389997,0.03976048
0.5399997,0.04018965
0.5409997,0.04058816
0.5419997,0.04101732
0.5429997,0.04144649
0.5439997,0.04187566
0.5449997,0.04227417
0.5459997,0.04270334
0.5469997,0.04313251
0.5479997,0.04353102
0.5489997,0.04399084
0.5499997,0.04438936
0.5509997,0.04481852
0.5519997,0.04524769
0.5529997,0.04567686
0.5539997,0.04610603
0.5549997,0.04653519
0.5559997,0.04699502
0.5569997,0.04739353
0.5579997,0.04785335
0.5589997,0.04825186
0.5599997,0.04868103
0.5609997,0.04914085
0.5619997,0.04957002
0.5629997,0.04999919
0.5639997,0.05042836
0.5649997,0.05085753
0.5659997,0.05128669
0.5669997,0.05174651
0.5679997,0.05214503
0.5689997,0.05260485
0.5699997,0.05303402
0.5709997,0.05349384
0.5719997,0.05392301
0.5729997,0.05435218
0.5739997,0.054812
0.5749997,0.05524116
0.5759997,0.05570099
0.5769997,0.05613015
0.5779997,0.05655932
0.5789997,0.05701914
0.5799997,0.05744831
0.5809997,0.05790814
0.5819997,0.0583373
0.5829997,0.05879712
0.5839997,0.05922629
0.5849997,0.05965546
0.5859997,0.06011529
0.5869997,0.06054445
0.5879997,0.06100427
0.5889997,0.06143344
0.5899997,0.06189326
0.5909997,0.06235309
0.5919997,0.06278225
0.5929997,0.06324207
0.5939997,0.06367125
0.5949997,0.06410041
0.5959997,0.06456023
0.5969997,0.0649894
0.5979997,0.06544922
0.5989997,0.06590905
0.5999997,0.06633821
0.6009997,0.06679803
0.6019997,0.06725786
0.6029997,0.06768703
0.6039997,0.06814685
0.6049997,0.06860667
0.6059997,0.06903584
0.6069997,0.06952631
0.6079997,0.06998613
0.6089997,0.0704153
0.6099997,0.07087513
0.6109997,0.07133495
0.6119997,0.07176412
0.6129997,0.07222394
0.6139997,0.07268376
0.6149997,0.07314359
0.6159997,0.07357275
0.6169997,0.07403257
0.6179997,0.07449239
0.6189997,0.07495221
0.6199997,0.07541204
0.6209997,0.07584121
0.6219997,0.07630103
0.6229997,0.07676085
0.6239997,0.07722067
0.6249997,0.07771116
0.6259997,0.07817098
0.6269997,0.07860014
0.6279997,0.07905997
0.6289997,0.07948913
0.6299997,0.07997961
0.6309997,0.08043943
0.6319997,0.08086859
0.6329997,0.08132842
0.6339997,0.08178824
0.6349997,0.08221742
0.6359997,0.08270789
0.6369997,0.08316771
0.6379997,0.08362754
0.6389997,0.08408736
0.6399997,0.08451653
0.6409997,0.085007
0.6419997,0.08546682
0.6429997,0.08589599
0.6439997,0.08638646
0.6449997,0.08684629
0.6459997,0.08727546
0.6469997,0.08776593
0.6479997,0.08819511
0.6489997,0.08865493
0.6499997,0.08914541
0.6509997,0.08957457
0.6519997,0.09003439
0.6529997,0.09049422
0.6539997,0.09092338
0.6549997,0.09141386
0.6559997,0.09187368
0.6569997,0.09236415
0.6579997,0.09285464
0.6589997,0.0932838
0.6599997,0.09377428
0.6609997,0.09420345
0.6619997,0.09463262
0.6629997,0.0951231
0.6639997,0.09561357
0.6649997,0.09604274
0.6659997,0.09653322
0.6669997,0.09702369
0.6679997,0.09745286
0.6689997,0.09791268
0.6699997,0.09837251
0.6709997,0.09883233
0.6719997,0.09929215
0.6729997,0.09975197
0.6739997,0.1002425
0.6749997,0.1007023
0.6759997,0.1011621
0.6769997,0.1016219
0.6779997,0.1020817
0.6789997,0.1025722
0.6799997,0.103032
0.6809997,0.1034919
0.6819997,0.1039517
0.6829997,0.1044422
0.6839997,0.1048713
0.6849997,0.1053618
0.6859997,0.1058216
0.6869997,0.1062815
0.6879997,0.1067719
0.6889997,0.1072011
0.6899997,0.1076916
0.6909997,0.1081514
0.6919997,0.1086112
0.6929997,0.1091017
0.6939997,0.1095922
0.6949997,0.1100213
0.6959997,0.1105118
0.6969997,0.1109716
0.6979997,0.1114315
0.6989997,0.1119219
0.6999997,0.1120446
0.6990004,0.1115541
0.6980004,0.1110943
0.6970004,0.1106038
0.6960004,0.1101133
0.6950004,0.1096535
0.6940004,0.109163
0.6930004,0.1087032
0.6920004,0.1082127
0.6910004,0.1077529
0.6900004,0.1072624
0.6890004,0.1068026
0.6880004,0.1063428
0.6870004,0.1058216
0.6860004,0.1053925
0.6850004,0.104902
0.6840004,0.1044422
0.6830004,0.1039517
0.6820004,0.1035225
0.6810004,0.103032
0.6800004,0.1025416
0.6790004,0.1020511
0.6780004,0.1015913
0.6770004,0.1011008
0.6760004,0.1006103
0.6750004,0.1001505
0.6740004,0.09969067
0.6730004,0.09920018
0.6720004,0.09874036
0.6710004,0.09828054
0.6700004,0.09779006
0.6690004,0.09733024
0.6680004,0.09687041
0.6670004,0.09641059
0.6660004,0.09592012
0.6650004,0.0954603
0.6640004,0.09496982
0.6630004,0.09451
0.6620004,0.09405018
0.6610004,0.0935597
0.6600004,0.09309988
0.6590004,0.09264006
0.6580004,0.09211892
0.6570004,0.09168976
0.6560004,0.09122993
0.6550004,0.09073945
0.6540004,0.09031029
0.6530004,0.08981981
0.6520004,0.08932933
0.6510004,0.08890016
0.6500004,0.08840968
0.6490004,0.08794986
0.6480004,0.08749004
0.6470004,0.08699957
0.6460004,0.08653974
0.6450004,0.08607992
0.6440004,0.08558945
0.6430004,0.08516028
0.6420004,0.0846698
0.6410004,0.08420997
0.6400004,0.08375015
0.6390004,0.08329033
0.6380004,0.08283051
0.6370004,0.08237069
0.6360004,0.0818802
0.6350004,0.08142038
0.6340004,0.08096056
0.6330004,0.08050074
0.6320004,0.08004092
0.6310004,0.0795811
0.6300004,0.07909062
0.6290004,0.07866146
0.6280004,0.07817098
0.6270004,0.07774181
0.6260004,0.07725133
0.6250004,0.07679151
0.6240004,0.07636234
0.6230004,0.07587186
0.6220004,0.07541204
0.6210004,0.07495221
0.6200004,0.07449239
0.6190004,0.07400192
0.6180004,0.07357275
0.6170004,0.07311293
0.6160004,0.07265311
0.6150004,0.07219329
0.6140004,0.07173347
0.6130004,0.07127364
0.6120004,0.07078316
0.6110004,0.07035399
0.6100004,0.06989417
0.6090004,0.06943435
0.6080004,0.06897452
0.6070004,0.0685147
0.6060004,0.06805488
0.6050004,0.06762572
0.6040004,0.06713524
0.6030004,0.06670607
0.6020004,0.06624625
0.6010004,0.06575577
0.6000004,0.06535726
0.5990004,0.06486678
0.5980004,0.06440695
0.5970004,0.06397779
0.5960004,0.06351797
0.5950004,0.06305815
0.5940004,0.06259833
0.5930004,0.0621385
0.5920004,0.06170933
0.5910004,0.06124951
0.5900004,0.06078969
0.5890004,0.06036052
0.5880004,0.0599007
0.5870004,0.05944088
0.5860004,0.05901171
0.5850004,0.05855189
0.5840004,0.05809207
0.5830004,0.05766289
0.5820004,0.05720307
0.5810004,0.05674325
0.5800004,0.05628343
0.5790004,0.05585426
0.5780004,0.0554251
0.5770004,0.05496527
0.5760004,0.05450545
0.5750004,0.05407628
0.5740004,0.05361646
0.5730004,0.05315664
0.5720004,0.05272747
0.5710004,0.05226765
0.5700004,0.05183848
0.5690004,0.05140931
0.5680004,0.05094949
0.5670004,0.05052032
0.5660004,0.0500605
0.5650004,0.04966199
0.5640004,0.04920216
0.5630004,0.048773
0.5620004,0.04834383
0.5610004,0.04788401
0.5600004,0.04745484
0.5590004,0.04699502
0.5580004,0.04656585
0.5570004,0.04613668
0.5560004,0.04570751
0.5550004,0.04524769
0.5540004,0.04481852
0.5530004,0.04438936
0.5520004,0.04396019
0.5510004,0.04350037
0.5500004,0.0430712
0.5490004,0.04267269
0.5480004,0.04221286
0.5470004,0.0417837
0.5460004,0.04138518
0.5450004,0.04092536
0.5440004,0.04049619
0.5430004,0.04009768
0.5420004,0.03966851
0.5410004,0.03923934
0.5400004,0.03881018
0.5390004,0.03838101
0.5380004,0.03795184
0.5370004,0.03752267
0.5360004,0.03709351
0.5350004,0.03666434
0.5340004,0.03626583
0.5330004,0.03583666
0.5320004,0.03543815
0.5310004,0.03500898
0.5300004,0.03457981
0.5290004,0.0341813
0.5280004,0.03375213
0.5270004,0.03332296
0.5260004,0.03292445
0.5250004,0.03252594
0.5240004,0.03209677
0.5230004,0.03169826
0.5220004,0.03129975
0.5210004,0.03087058
0.5200004,0.03047206
0.5190004,0.0300429
0.5180004,0.02961373
0.5170004,0.02921522
0.5160004,0.0288167
0.5150004,0.02841819
0.5140004,0.02798902
0.5130004,0.02762116
0.5120004,0.027192
0.5110004,0.02679349
0.5100004,0.02639497
0.5090004,0.02599646
0.5080004,0.02559795
0.5070004,0.02519943
0.5060004,0.02480092
0.5050004,0.02443307
0.5040004,0.02403455
0.5030004,0.02363604
0.5020004,0.02326818
0.5010004,0.02286967
0.5000004,0.02247116
0.4990004,0.0221033
0.4980004,0.02170478
0.4970004,0.02130627
0.4960004,0.02093842
0.4950004,0.02057056
0.4940004,0.0202027
0.4930004,0.01983484
0.4920004,0.01943633
0.4910004,0.01906847
0.4900004,0.01870061
0.4890004,0.01833276
0.4880004,0.0179649
0.4870004,0.01759704
0.4860004,0.01725983
0.4850004,0.01689198
0.4840004,0.01652412
0.4830004,0.01615626
0.4820004,0.01581906
0.4810004,0.0154512
0.4800004,0.015114
0.4790004,0.01474614
0.4780004,0.01440894
0.4770004,0.01407173
0.4760004,0.01370388
0.4750004,0.01339733
0.4740004,0.01302947
0.4730004,0.01221913
0.4720004,0.01190032
0.4710004,0.01156312
0.4700004,0.01124737
0.4690004,0.01092856
0.4680004,0.01060975
0.4670004,0.01029707
0.4660004,0.009981328
0.4650004,0.009671714
0.4640004,0.009365166
0.4630004,0.009058618
0.4620004,0.008764331
0.4610004,0.008460849
0.4600004,0.008166562
0.4590004,0.007881473
0.4580004,0.007587186
0.4570004,0.007305162
0.4560004,0.007026203
0.4550004,0.006744178
0.4540004,0.006471351
0.4530004,0.006201588
0.4520004,0.005931825
0.4510004,0.005671259
0.4500004,0.005407628
0.4490004,0.005153193
0.4480004,0.004901823
0.4470004,0.004650454
0.4460004,0.004408281
0.4450004,0.004166107
0.4440004,0.003927
0.4430004,0.003700154
0.4420004,0.003464112
0.4410004,0.003240332
0.4400004,0.003022683
0.4390004,0.002798902
0.4380004,0.002590449
0.4370004,0.002381997
0.4360004,0.002173544
0.4350004,0.001977353
0.4340004,0.001781162
0.4330004,0.001584971
0.4320004,0.001397977
0.4310004,0.001210982
0.4300004,0.001001198
0.4290004,0.0008227873
0.4280004,0.0006471351
0.4270004,0.0004806794
0.4260004,0.0003108516
0.4250004,0.0001477679
0.4240004,-9.184775E-06
0.4230004,-0.000173076
0.4220004,-0.0003257676
0.4210004,-0.0004751382
0.4200004,-0.0006241206
0.4190004,-0.0007648263
0.4180004,-0.0009085974
0.4170004,-0.001048997
0.4160004,-0.001184184
0.4150004,-0.001322744
0.4140004,-0.001454253
0.4130004,-0.001586682
0.4120004,-0.001718498
0.4110004,-0.00184357
0.4100004,-0.001979371
0.4090004,-0.002112106
0.4080004,-0.002232579
0.4070004,-0.00236041
0.4060004,-0.002480577
0.4050004,-0.002603809
0.4040004,-0.002729801
0.4030004,-0.0028515
0.4020004,-0.002977185
0.4010004,-0.003068431
0.4000004,-0.003187985
0.3990004,-0.003316735
0.3980004,-0.00344242
0.3970004,-0.00357117
0.3960004,-0.003702986
0.3950004,-0.003828671
0.3940004,-0.003963552
0.3930004,-0.004095368
0.3920004,-0.004221053
0.3910004,-0.00436513
0.3900004,-0.004503077
0.3890004,-0.004647155
0.3880004,-0.004794298
0.3870004,-0.00493531
0.3860004,-0.005085519
0.3850004,-0.005232662
0.3840004,-0.005379805
0.3830004,-0.005530014
0.3820004,-0.005683288
0.3810004,-0.005836562
0.3800004,-0.005992902
0.3790004,-0.00614311
0.3780004,-0.00630558
0.3770004,-0.006461921
0.3760004,-0.006621325
0.3750004,-0.006786862
0.3740004,-0.006943201
0.3730004,-0.007102606
0.3720004,-0.007268142
0.3710004,-0.007430613
0.3700004,-0.007590018
0.3690004,-0.007755554
0.3680004,-0.007918024
0.3670004,-0.008080496
0.3660004,-0.008239901
0.3650004,-0.008402371
0.3640004,-0.008564842
0.3630004,-0.008718115
0.3620004,-0.008883652
0.3610004,-0.009036926
0.3600004,-0.009187134
0.3590004,-0.009343474
0.3580004,-0.009496748
0.3570004,-0.009643891
0.3560004,-0.009791034
0.3550004,-0.009932047
0.3540004,-0.01007306
0.3530004,-0.01020794
0.3520004,-0.01033976
0.3510004,-0.01047464
0.3500004,-0.01059726
0.3490004,-0.01071988
0.3480004,-0.0108425
0.3470004,-0.01095285
0.3460004,-0.01107241
0.3450004,-0.01118276
0.3440004,-0.01128086
0.3430004,-0.01138815
0.3420004,-0.01148012
0.3410004,-0.01156901
0.3400004,-0.01165791
0.3390004,-0.01173455
0.3380004,-0.01181119
0.3370004,-0.01187863
0.3360004,-0.01193687
0.3350004,-0.01199205
0.3340004,-0.01203497
0.3330004,-0.01206562
0.3320004,-0.01209628
0.3310004,-0.01210854
0.3300004,-0.0121208
0.3290004,-0.01212387
0.3280004,-0.01211467
0.3270004,-0.01210547
0.3260004,-0.01207789
0.3250004,-0.0120503
0.3240004,-0.01201657
0.3230004,-0.0119614
0.3220004,-0.01190622
0.3210004,-0.01184491
0.3200004,-0.01177134
0.3190004,-0.01169163
0.3180004,-0.0116058
0.3170004,-0.01150157
0.3160004,-0.01139428
0.3150004,-0.01127473
0.3140004,-0.01114598
0.3130004,-0.01100497
0.3120004,-0.01085169
0.3110004,-0.01069229
0.3100004,-0.01051449
0.3090004,-0.01033363
0.3080004,-0.01013437
0.3070004,-0.009928982
0.3060004,-0.009705201
0.3050004,-0.00947529
0.3040004,-0.009236182
0.3030004,-0.008990943
0.3020004,-0.008739574
0.3010004,-0.008485138
0.3000004,-0.00823377
0.2990004,-0.0079824
0.2980004,-0.007734096
0.2970004,-0.007494988
0.2960004,-0.007258946
0.2950004,-0.007029035
0.2940004,-0.006805255
0.2930004,-0.00658454
0.2920004,-0.006373021
0.2910004,-0.006164568
0.2900004,-0.005959181
0.2890004,-0.005766056
0.2880004,-0.00557293
0.2870004,-0.005385936
0.2860004,-0.005211203
0.2850004,-0.005039536
0.2840004,-0.004874
0.2830004,-0.004720726
0.2820004,-0.004573583
0.2810004,-0.004438702
0.2800004,-0.004313017
0.2790004,-0.004193463
0.2780004,-0.00408004
0.2770004,-0.003975814
0.2760004,-0.003874653
0.2750004,-0.003779623
0.2740004,-0.003687659
0.2730004,-0.003601825
0.2720004,-0.003519057
0.2710004,-0.003439354
0.2700004,-0.003362718
0.2690004,-0.003289146
0.2680004,-0.003215575
0.2670004,-0.003148134
0.2660004,-0.003080693
0.2650004,-0.003019383
0.2640004,-0.002961139
0.2630004,-0.002902895
0.2620004,-0.002847716
0.2610004,-0.002795603
0.2600004,-0.00274349
0.2590004,-0.002694442
0.2580004,-0.00264846
0.2570004,-0.002605543
0.2560004,-0.002559561
0.2550004,-0.00251971
0.2540004,-0.002479859
0.2530004,-0.002440007
0.2520004,-0.002403222
0.2510004,-0.00236337
0.2500004,-0.00232965
0.2490004,-0.00229593
0.2480004,-0.002265275
0.2470004,-0.002231555
0.2460004,-0.0022009
0.2450004,-0.002170245
0.2440004,-0.002142655
0.2430004,-0.002115066
0.2420004,-0.002084411
0.2410004,-0.002059887
0.2400004,-0.002032298
0.2390004,-0.002007774
0.2380004,-0.00198325
0.2370004,-0.001958727
0.2360004,-0.001934203
0.2350004,-0.001909679
0.2340004,-0.00188822
0.2330004,-0.001866762
0.2320004,-0.001845304
0.2310004,-0.001823845
0.2300004,-0.001802387
0.2290004,-0.001780929
0.2280004,-0.001762536
0.2270004,-0.001744143
0.2260004,-0.00172575
0.2250004,-0.001704292
0.2240004,-0.001685899
0.2230004,-0.001670571
0.2220004,-0.001652178
0.2210004,-0.001633785
0.2200004,-0.001618458
0.2190004,-0.001637263
0.2180004,-0.001621322
0.2170004,-0.001605995
0.2160004,-0.001590361
0.2150004,-0.001574727
0.2140004,-0.001560013
0.2130004,-0.001545605
0.2120004,-0.001531197
0.2110004,-0.001517096
0.2100004,-0.001503301
0.2090004,-0.001489813
0.2080004,-0.001476325
0.2070004,-0.00146345
0.2060004,-0.001450268
0.2050004,-0.001438006
0.2040004,-0.001425744
0.2030004,-0.001413176
0.2020004,-0.001401221
0.2010004,-0.001389265
0.2000004,-0.001377616
0.1990004,-0.001365967
0.1980004,-0.001354625
0.1970004,-0.00134359
0.1960004,-0.001332554
0.1950004,-0.001321825
0.1940004,-0.001311708
0.1930004,-0.001300979
0.1920004,-0.001290863
0.1910004,-0.001280747
0.1900004,-0.001270938
0.1890004,-0.001260821
0.1880004,-0.001251318
0.1870004,-0.001241815
0.1860004,-0.001232313
0.1850004,-0.001223423
0.1840004,-0.001214226
0.1830004,-0.001205336
0.1820004,-0.001196446
0.1810004,-0.001187863
0.1800004,-0.00117928
0.1790004,-0.00117039
0.1780004,-0.001162419
0.1770004,-0.001153836
0.1760004,-0.001145866
0.1750004,-0.001137896
0.1740004,-0.001129925
0.1730004,-0.001122262
0.1720004,-0.001114904
0.1710004,-0.001106934
0.1700004,-0.001099271
0.1690004,-0.001091913
0.1680004,-0.001084556
0.1670004,-0.001077506
0.1660004,-0.001070455
0.1650004,-0.001063711
0.1640004,-0.001056967
0.1630004,-0.001049916
0.1620004,-0.001043172
0.1610004,-0.001036428
0.1600004,-0.001029684
0.1590004,-0.001023247
0.1580004,-0.001016809
0.1570004,-0.001010678
0.1560004,-0.00100424
0.1550004,-0.0009981095
0.1540004,-0.0009922851
0.1530004,-0.0009861541
0.1520004,-0.0009797165
0.1510004,-0.0009738922
0.1500004,-0.0009683743
0.1490004,-0.0009625499
0.1480004,-0.000957032
0.1470004,-0.0009515142
0.1460004,-0.0009456897
0.1450004,-0.0009401719
0.1440004,-0.000934654
0.1430004,-0.0009294427
0.1420004,-0.0009236183
0.1410004,-0.0009187135
0.1400004,-0.0009138088
0.1390004,-0.0009082909
0.1380004,-0.0009033861
0.1370004,-0.0008984813
0.1360004,-0.00089327
0.1350004,-0.0008886718
0.1340004,-0.0008834605
0.1330004,-0.0008788622
0.1320004,-0.000874264
0.1310004,-0.0008693592
0.1300004,-0.000864761
0.1290004,-0.0008598563
0.1280004,-0.000855258
0.1270004,-0.0008509663
0.1260004,-0.0008463681
0.1250004,-0.0008420764
0.1240004,-0.0008377847
0.1230004,-0.0008331866
0.1220004,-0.0008292014
0.1210004,-0.0008249097
0.1200004,-0.0008206181
0.1190004,-0.0008166329
0.1180004,-0.0008126478
0.1170004,-0.0008086627
0.1160004,-0.0008046775
0.1150004,-0.0008006924
0.1140004,-0.0007967073
0.1130004,-0.0007927222
0.1120004,-0.0007890436
0.1110004,-0.0007850585
0.1100004,-0.0007813799
0.1090004,-0.0007773947
0.1080004,-0.0007740227
0.1070004,-0.0007703441
0.1060004,-0.0007666656
0.1050004,-0.000762987
0.1040004,-0.0007593084
0.1030004,-0.0007559364
0.1020004,-0.0007525643
0.1010004,-0.0007491923
0.1000004,-0.0007458202
0.09900038,-0.0007424483
0.09800038,-0.0007390762
0.09700038,-0.0007357041
0.09600038,-0.0007323321
0.09500038,-0.0007289601
0.09400038,-0.0007258946
0.09300038,-0.0007225226
0.09200038,-0.0007194571
0.09100038,-0.0007163917
0.09000038,-0.0007133262
0.08900038,-0.0007102606
0.08800038,-0.0007068887
0.08700038,-0.0007038232
0.08600038,-0.0007007577
0.08500038,-0.0006979987
0.08400038,-0.0006949333
0.08300038,-0.0006921744
0.08200038,-0.0006894154
0.08100038,-0.0006863499
0.08000038,-0.000683591
0.07900038,-0.0006808321
0.07800038,-0.0006780731
0.07700038,-0.0006750076
0.07600038,-0.0006725552
0.07500038,-0.0006697963
0.07400038,-0.0006670374
0.07300038,-0.0006642784
0.07200038,-0.0006618261
0.07100038,-0.0006590671
0.07000038,-0.0006563082
0.06900038,-0.0006538558
0.06800038,-0.0006514034
0.06700038,-0.0006486445
0.06600038,-0.0006461921
0.06500039,-0.0006437397
0.06400038,-0.0006412873
0.06300038,-0.0006388349
0.06200038,-0.0006363826
0.06100038,-0.0006339302
0.06000038,-0.0006314777
0.05900038,-0.0006290254
0.05800038,-0.000626573
0.05700038,-0.0006244272
0.05600038,-0.0006219748
0.05500038,-0.0006195224
0.05400038,-0.0006173765
0.05300038,-0.0006152307
0.05200038,-0.0006130849
0.05100038,-0.0006109391
0.05000038,-0.0006087932
0.04900038,-0.0006066473
0.04800038,-0.000604195
0.04700038,-0.0006020491
0.04600038,-0.0005999033
0.04500038,-0.0005977575
0.04400038,-0.0005959182
0.04300038,-0.0005937723
0.04200038,-0.000591933
0.04100038,-0.0005897872
0.04000038,-0.0005876414
0.03900038,-0.0005854955
0.03800038,-0.0005836562
0.03700038,-0.0005818169
0.03600038,-0.0005796711
0.03500038,-0.0005775253
0.03400038,-0.000575686
0.03300038,-0.0005738467
0.03200038,-0.0005717009
0.03100038,-0.0005698616
0.03000038,-0.0005677157
0.02900038,-0.000566183
0.02800038,-0.0005643437
0.02700038,-0.0005621978
0.02600038,-0.0005603586
0.02500038,-0.0005585193
0.02400038,-0.00055668
0.02300038,-0.0005548407
0.02200038,-0.0005530014
0.02100038,-0.0005511622
0.02000038,-0.0005496293
0.01900038,-0.0005477901
0.01800038,-0.0005462574
0.01700038,-0.0005444181
0.01600038,-0.0005425788
0.01500038,-0.000541046
0.01400038,-0.0005395133
0.01300038,-0.000537674
0.01200038,-0.0005361412
0.01100038,-0.000534302
0.01000038,-0.0005324627
0.009000381,-0.0005309299
0.008000381,-0.0005293972
0.007000382,-0.0005278645
0.006000381,-0.0005260251
0.005000381,-0.0005244924
0.004000382,-0.0005229597
0.003000381,-0.000521427
0.002000381,-0.0005198942
0.001000381,-0.0005183615
3.814697E-07,-0.0005119239
0.0009996186,-0.0005011947
0.001999618,-0.0004916918
0.002999618,-0.0004831084
0.003999618,-0.0004748316
0.004999619,-0.0004671679
0.005999619,-0.0004598107
0.006999618,-0.0004530667
0.007999619,-0.0004463226
0.008999619,-0.0004401917
0.009999619,-0.0004337541
0.01099962,-0.0004279297
0.01199962,-0.0004224119
0.01299962,-0.000416894
0.01399962,-0.0004116826
0.01499962,-0.0004064713
0.01599962,-0.0004015666
0.01699962,-0.0003966618
0.01799962,-0.000391757
0.01899962,-0.0003871588
0.01999962,-0.0003825606
0.02099962,-0.0003779623
0.02199962,-0.0003739772
0.02299962,-0.0003696856
0.02399962,-0.0003653939
0.02499962,-0.0003614087
0.02599962,-0.0003574236
0.02699962,-0.000353745
0.02799962,-0.0003497599
0.02899962,-0.0003457748
0.02999962,-0.0003420962
0.03099962,-0.0003384176
0.03199962,-0.0003350456
0.03299962,-0.000331367
0.03399962,-0.000327995
0.03499962,-0.0003243164
0.03599962,-0.0003209444
0.03699962,-0.0003172658
0.03799962,-0.0003138937
0.03899962,-0.0003105217
0.03999962,-0.0003071497
0.04099962,-0.0003037777
0.04199962,-0.0003000991
0.04299962,-0.0002967271
0.04399962,-0.000293355
0.04499962,-0.0002893699
0.04599962,-0.0002859978
0.04699962,-0.0002826258
0.04799962,-0.0002792538
0.04899962,-0.0002758818
0.04999962,-0.0002725097
0.05099962,-0.0002694443
0.05199962,-0.0002663788
0.05299962,-0.0002633133
0.05399962,-0.0002602478
0.05499962,-0.0002571823
0.05599962,-0.0002541168
0.05699962,-0.0002513579
0.05799962,-0.000248599
0.05899962,-0.00024584
0.05999962,-0.0002427746
0.06099962,-0.0002403222
0.06199962,-0.0002378698
0.06299962,-0.0002351108
0.06399962,-0.0002326585
0.06499962,-0.0002298995
0.06599962,-0.0002274471
0.06699962,-0.0002249948
0.06799962,-0.0002225424
0.06899962,-0.0002203965
0.06999962,-0.0002182507
0.07099961,-0.0002157983
0.07199962,-0.0002133459
0.07299962,-0.0002112001
0.07399962,-0.0002090542
0.07499962,-0.0002069084
0.07599962,-0.0002047626
0.07699962,-0.0002026167
0.07799962,-0.0002004709
0.07899962,-0.0001983251
0.07999962,-0.0001964858
0.08099962,-0.0001943399
0.08199961,-0.0001925007
0.08299962,-0.0001906613
0.08399962,-0.0001885155
0.08499962,-0.0001866762
0.08599962,-0.0001848369
0.08699962,-0.0001829976
0.08799962,-0.0001811584
0.08899962,-0.0001793191
0.08999962,-0.0001774798
0.09099962,-0.000175947
0.09199962,-0.0001741077
0.09299962,-0.0001722685
0.09399962,-0.0001704292
0.09499962,-0.0001688964
0.09599962,-0.0001670571
0.09699962,-0.0001655244
0.09799962,-0.0001639917
0.09899962,-0.0001621524
0.09999962,-0.0001606196
0.1009996,-0.0001590869
0.1019996,-0.0001608141
0.1029996,-0.00015922
0.1039996,-0.0001576873
0.1049996,-0.0001561239
0.1059996,-0.0001546218
0.1069996,-0.0001531503
0.1079996,-0.0001517096
0.1089996,-0.0001502381
0.1099996,-0.000148828
0.1109996,-0.0001474792
0.1119996,-0.0001460691
0.1129996,-0.000144659
0.1139996,-0.0001431875
0.1149996,-0.0001418081
0.1159996,-0.0001404286
0.1169996,-0.0001390798
0.1179996,-0.0001378229
0.1189996,-0.0001365354
0.1199996,-0.0001353399
0.1209996,-0.0001340524
0.1219996,-0.0001327036
0.1229996,-0.0001313548
0.1239996,-0.0001301286
0.1249996,-0.000128933
0.1259996,-0.0001277682
0.1269996,-0.0001265113
0.1279996,-0.0001253771
0.1289996,-0.0001241815
0.1299996,-0.000122986
0.1309996,-0.0001217905
0.1319996,-0.000120503
0.1329996,-0.00011943
0.1339996,-0.0001183265
0.1349996,-0.0001171922
0.1359996,-0.0001160887
0.1369996,-0.0001150464
0.1379996,-0.0001140041
0.1389996,-0.0001128699
0.1399996,-0.0001117663
0.1409996,-0.0001106628
0.1419996,-0.0001095898
0.1429996,-0.0001085169
0.1439996,-0.0001075666
0.1449996,-0.000106555
0.1459996,-0.0001055741
0.1469996,-0.0001046544
0.1479996,-0.0001035508
0.1489996,-0.0001025086
0.1499996,-0.000101497
0.1509996,-0.0001005773
0.1519996,-9.965767E-05
0.1529996,-9.870737E-05
0.1539996,-9.775707E-05
0.1549996,-9.683742E-05
0.1559996,-9.591779E-05
0.1569996,-9.487552E-05
0.1579996,-9.389456E-05
0.1589996,-9.300557E-05
0.1599996,-9.214724E-05
0.1609996,-9.12889E-05
0.1619996,-9.043057E-05
0.1629996,-8.954158E-05
0.1639996,-8.865258E-05
0.1649996,-8.779425E-05
0.1659996,-8.693591E-05
0.1669996,-8.610824E-05
0.1679996,-8.528055E-05
0.1689996,-8.448353E-05
0.1699996,-8.362519E-05
0.1709996,-8.282817E-05
0.1719996,-8.200049E-05
0.1729996,-8.120346E-05
0.1739996,-8.037578E-05
0.1749996,-7.960942E-05
0.1759996,-7.878173E-05
0.1769996,-7.79847E-05
0.1779996,-7.718769E-05
0.1789996,-7.645196E-05
0.1799996,-7.559363E-05
0.1809996,-7.482726E-05
0.1819996,-7.406089E-05
0.1829996,-7.323321E-05
0.1839996,-7.252815E-05
0.1849996,-7.182309E-05
0.1859996,-7.108737E-05
0.1869996,-7.0321E-05
0.1879996,-6.961594E-05
0.1889996,-6.884957E-05
0.1899996,-6.814451E-05
0.1909996,-6.737814E-05
0.1919996,-6.670374E-05
0.1929996,-6.602933E-05
0.1939996,-6.529361E-05
0.1949996,-6.468051E-05
0.1959996,-6.397545E-05
0.1969996,-6.32704E-05
0.1979996,-6.259599E-05
0.1989996,-6.192158E-05
0.1999996,-6.127783E-05
0.2009996,-6.057277E-05
0.2019996,-5.999033E-05
0.2029996,-5.931592E-05
0.2039996,-5.870283E-05
0.2049996,-5.799776E-05
0.2059996,-5.738466E-05
0.2069996,-5.66796E-05
0.2079996,-5.609716E-05
0.2089996,-5.548407E-05
0.2099996,-5.480966E-05
0.2109996,-5.422722E-05
0.2119996,-5.358347E-05
0.2129996,-5.297037E-05
0.2139996,-5.235727E-05
0.2149996,-5.171352E-05
0.2159996,-5.113108E-05
0.2169996,-5.054864E-05
0.2179996,-4.990489E-05
0.2189996,-4.932245E-05
0.2199996,-4.864804E-05
0.2209996,-4.80656E-05
0.2219996,-4.74525E-05
0.2229996,-4.687006E-05
0.2239996,-4.628762E-05
0.2249996,-4.570518E-05
0.2259996,-4.509208E-05
0.2269996,-4.46016E-05
0.2279996,-4.401916E-05
0.2289996,-4.337541E-05
0.2299996,-4.288493E-05
0.2309996,-4.233315E-05
0.2319996,-4.178136E-05
0.2329996,-4.122957E-05
0.2339996,-4.067778E-05
0.2349996,-4.015665E-05
0.2359996,-3.957421E-05
0.2369996,-3.899177E-05
0.2379996,-3.843998E-05
0.2389996,-3.798016E-05
0.2399996,-3.739772E-05
0.2409996,-3.684593E-05
0.2419996,-3.629415E-05
0.2429996,-3.580367E-05
0.2439996,-3.528254E-05
0.2449996,-3.473075E-05
0.2459996,-3.427093E-05
0.2469996,-3.368848E-05
0.2479996,-3.316735E-05
0.2489996,-3.270753E-05
0.2499996,-3.209443E-05
0.2509996,-3.157331E-05
0.2519996,-3.105217E-05
0.2529996,-3.053104E-05
0.2539996,-3.007122E-05
0.2549996,-2.948877E-05
0.2559996,-2.896764E-05
0.2569996,-2.841586E-05
0.2579996,-2.786407E-05
0.2589996,-2.734294E-05
0.2599996,-2.672984E-05
0.2609996,-2.620871E-05
0.2619996,-2.574889E-05
0.2629996,-2.522776E-05
0.2639996,-2.467597E-05
0.2649996,-2.418549E-05
0.2659996,-2.369501E-05
0.2669996,-2.326585E-05
0.2679996,-2.271406E-05
0.2689996,-2.216227E-05
0.2699996,-2.164114E-05
0.2709996,-2.102804E-05
0.2719996,-2.047626E-05
0.2729996,-1.992447E-05
0.2739996,-1.937268E-05
0.2749996,-1.88822E-05
0.2759996,-1.833042E-05
0.2769996,-1.777863E-05
0.2779996,-1.731881E-05
0.2789996,-1.676702E-05
0.2799996,-1.618458E-05
0.2809996,-1.566345E-05
0.2819996,-1.514232E-05
0.2829996,-1.462118E-05
0.2839996,-1.403874E-05
0.2849996,-1.351761E-05
0.2859996,-1.32489E-05
0.2869996,-1.269711E-05
0.2879996,-1.217598E-05
0.2889996,-1.159354E-05
0.2899996,-1.102949E-05
0.2909996,-1.052062E-05
0.2919996,-9.852344E-06
0.2929996,-9.364932E-06
0.2939996,-8.767163E-06
0.2949996,-8.138739E-06
0.2959996,-7.54097E-06
0.2969996,-7.016773E-06
0.2979996,-6.415938E-06
0.2989996,-5.815104E-06
0.2999996,-5.110042E-06
0.3009996,-4.542928E-06
0.3019996,-4.000338E-06
0.3029996,-3.307539E-06
0.3039996,-2.669919E-06
0.3049996,-2.090542E-06
0.3059996,-1.422267E-06
0.3069996,-7.999742E-07
0.3079996,-1.225026E-07
0.3089996,5.519036E-07
0.3099996,1.168066E-06
0.3109996,1.912978E-06
0.3119996,2.556729E-06
0.3129996,3.221939E-06
0.3139996,3.954589E-06
0.3149996,4.681108E-06
0.3159996,5.346318E-06
0.3169996,6.121886E-06
0.3179996,6.866798E-06
0.3189996,7.590251E-06
0.3199996,8.368884E-06
0.3209996,9.126058E-06
0.3219996,1.001198E-05
0.3229996,1.075689E-05
0.3239996,1.167654E-05
0.3249996,1.258086E-05
0.3259996,1.337175E-05
0.3269996,1.434964E-05
0.3279996,1.520491E-05
0.3289996,1.60939E-05
0.3299996,1.708712E-05
0.3309996,1.800063E-05
0.3319996,1.897239E-05
0.3329996,1.98951E-05
0.3339996,2.094043E-05
0.3349996,2.205013E-05
0.3359996,2.297284E-05
0.3369996,2.410401E-05
0.3379996,2.529035E-05
0.3389996,2.638779E-05
0.3399996,2.758639E-05
0.3409996,2.924587E-05
0.3419996,3.03801E-05
0.3429996,3.175957E-05
0.3439996,3.304707E-05
0.3449996,3.45185E-05
0.3459996,3.605124E-05
0.3469996,3.761464E-05
0.3479996,3.939262E-05
0.3489996,4.107863E-05
0.3499996,4.285661E-05
0.3509996,4.491049E-05
0.3519996,4.693371E-05
0.3529996,4.914085E-05
0.3539996,5.156258E-05
0.3549996,5.413758E-05
0.3559996,5.723373E-05
0.3569996,6.05751E-05
0.3579996,6.43763E-05
0.3589996,6.900517E-05
0.3599996,7.44924E-05
0.3609996,8.117515E-05
0.3619996,8.985046E-05
0.3629996,0.0001014993
0.3639996,0.0001180835
0.3649996,0.0001417491
0.3659996,0.0001765116
0.3669996,0.0002262644
0.3679996,0.0002939196
0.3689996,0.0003844232
0.3699996,0.0004892627
0.3709996,0.0006097362
0.3719996,0.0007430847
0.3729996,0.0008840969
0.3739996,0.001031547
0.3749996,0.001182368
0.3759996,0.001331044
0.3769996,0.001479107
0.3779996,0.001623185
0.3789996,0.001761438
0.3799996,0.001897545
0.3809996,0.002027216
0.3819996,0.002154433
0.3829996,0.002282264
0.3839996,0.002406416
0.3849996,0.00253302
0.3859996,0.002661464
0.3869996,0.002789601
0.3879996,0.00292111
0.3889996,0.003052006
0.3899996,0.003212743
0.3909996,0.003344558
0.3919996,0.003476374
0.3929996,0.00360819
0.3939996,0.003740005
0.3949996,0.00386569
0.3959996,0.00399444
0.3969996,0.004113995
0.3979996,0.004233548
0.3989996,0.004350036
0.3999996,0.004457328
0.4009996,0.004567686
0.4019996,0.004668847
0.4029996,0.004766942
0.4039996,0.004861972
0.4049996,0.004947806
0.4059996,0.005033639
0.4069996,0.005119473
0.4079996,0.00519611
0.4089996,0.005278877
0.4099996,0.005364711
0.4109996,0.005435218
0.4119996,0.005511854
0.4129996,0.005579295
0.4139996,0.005649801
0.4149996,0.005723373
0.4159996,0.005790813
0.4169996,0.00586745
0.4179996,0.005941022
0.4189996,0.006011528
0.4199996,0.006091231
0.4209996,0.006161737
0.4219996,0.006241439
0.4229996,0.006324207
0.4239996,0.006400844
0.4249996,0.006486678
0.4259996,0.006572511
0.4269996,0.006655279
0.4279996,0.006747244
0.4289996,0.006839208
0.4299996,0.006931173
0.4309996,0.007032333
0.4319996,0.007130429
0.4329996,0.00723159
0.4339996,0.007338882
0.4349996,0.007446174
0.4359996,0.007559597
0.4369996,0.007676085
0.4379996,0.007795639
0.4389996,0.007918258
0.4399996,0.008043943
0.4409996,0.008172693
0.4419996,0.008304508
0.4429996,0.008442456
0.4439996,0.008589599
0.4449996,0.008733677
0.4459996,0.008883885
0.4469996,0.00904329
0.4479996,0.00919963
0.4489996,0.009368232
0.4499996,0.009542963
0.4509996,0.009711565
0.4519996,0.009895494
0.4529996,0.01007942
0.4539996,0.01027255
0.4549996,0.01046874
0.4559996,0.01066799
0.4569996,0.01087338
0.4579996,0.01108797
0.4589996,0.01129948
0.4599996,0.01152327
0.4609996,0.01175318
0.4619996,0.01198615
0.4629996,0.01221913
0.4639996,0.01246743
0.4649996,0.01270961
0.4659996,0.01296404
0.4669996,0.01322154
0.4679996,0.01348211
0.4689996,0.01374574
0.4699996,0.01401244
0.4709996,0.0142914
0.4719996,0.01456116
0.4729996,0.01484931
0.4739996,0.01513747
0.4749996,0.01542256
0.4759996,0.01571991
0.4769996,0.0160142
0.4779996,0.01631155
0.4789996,0.0166181
0.4799996,0.01692465
0.4809996,0.01723119
0.4819996,0.01755
0.4829996,0.01786268
0.4839996,0.01817843
0.4849996,0.01850337
0.4859996,0.01882524
0.4869996,0.01915018
0.4879996,0.01948432
0.4889996,0.01981846
0.4899996,0.0201526
0.4909996,0.02049287
0.4919996,0.02083007
0.4929996,0.02117647
0.4939996,0.021529
0.4949996,0.02187234
0.4959996,0.0222218
0.4969996,0.02258353
0.4979996,0.02293299
0.4989996,0.02329472
0.4999996,0.02365951
0.5009996,0.02401204
0.5019996,0.02438297
0.5029996,0.02475389
0.5039996,0.02511868
0.5049996,0.02549574
0.5059996,0.02587279
0.5069996,0.02624371
0.5079996,0.02662383
0.5089996,0.02700395
0.5099996,0.02738101
0.5109996,0.02776419
0.5119996,0.02815657
0.5129996,0.02853976
0.5139996,0.02891681
0.5149996,0.02931226
0.5159996,0.02969545
0.5169996,0.03007863
0.5179996,0.03123844
0.5189996,0.03160629
0.5199996,0.03200481
0.5209996,0.03240332
0.5219996,0.03280183
0.5229996,0.03320035
0.5239996,0.03359886
0.5249996,0.03399737
0.5259996,0.03439588
0.5269996,0.0347944
0.5279996,0.03519291
0.5289996,0.03562208
0.5299996,0.03598994
0.5309996,0.0364191
0.5319996,0.03681761
0.5329996,0.03724678
0.5339996,0.03767595
0.5349996,0.03804381
0.5359996,0.03847298
0.5369996,0.03890214
0.5379996,0.03930065
0.5389996,0.03972982
0.5399996,0.04015899
0.5409996,0.0405575
0.5419996,0.04098667
0.5429996,0.04138518
0.5439996,0.04181435
0.5449996,0.04224352
0.5459996,0.04267269
0.5469996,0.0430712
0.5479996,0.04350037
0.5489996,0.04392953
0.5499996,0.0443587
0.5509996,0.04478787
0.5519996,0.04521704
0.5529996,0.04561555
0.5539996,0.04604472
0.5549996,0.04650454
0.5559996,0.04693371
0.5569996,0.04733222
0.5579996,0.04779204
0.5589996,0.04822121
0.5599996,0.04861972
0.5609996,0.04907954
0.5619996,0.04950871
0.5629996,0.04993788
0.5639996,0.05036705
0.5649996,0.05079622
0.5659996,0.05122538
0.5669996,0.05165455
0.5679996,0.05208372
0.5689996,0.05251288
0.5699996,0.0529727
0.5709996,0.05337122
0.5719996,0.05383104
0.5729996,0.05426021
0.5739996,0.05468938
0.5749996,0.0551492
0.5759996,0.05557837
0.5769996,0.05603819
0.5779996,0.05646735
0.5789996,0.05689653
0.5799996,0.05735635
0.5809996,0.05778552
0.5819996,0.05824534
0.5829996,0.0586745
0.5839996,0.05910368
0.5849996,0.0595635
0.5859996,0.06002332
0.5869996,0.06045249
0.5879996,0.06088165
0.5889996,0.06134148
0.5899996,0.06177064
0.5909996,0.06223046
0.5919996,0.06265964
0.5929996,0.06311946
0.5939996,0.06354862
0.5949996,0.06400844
0.5959996,0.06446826
0.5969996,0.06486678
0.5979996,0.06535726
0.5989996,0.06578642
0.5999996,0.0662156
0.6009996,0.06667542
0.6019996,0.06713524
0.6029996,0.06756441
0.6039996,0.06802423
0.6049996,0.06848405
0.6059996,0.06894387
0.6069996,0.06937304
0.6079996,0.06983286
0.6089996,0.07029268
0.6099996,0.07075251
0.6109996,0.07118168
0.6119996,0.0716415
0.6129996,0.07210132
0.6139996,0.07253049
0.6149996,0.07299031
0.6159996,0.07348078
0.6169996,0.07390995
0.6179996,0.07433912
0.6189996,0.07479894
0.6199996,0.07525877
0.6209996,0.07568794
0.6219996,0.07614776
0.6229996,0.07660758
0.6239996,0.07703675
0.6249996,0.07752723
0.6259996,0.07798705
0.6269996,0.07841621
0.6279996,0.07887604
0.6289996,0.07933586
0.6299996,0.07982634
0.6309996,0.0802555
0.6319996,0.08071532
0.6329996,0.08117515
0.6339996,0.08160432
0.6349996,0.08203348
0.6359996,0.08252396
0.6369996,0.08298378
0.6379996,0.08341295
0.6389996,0.08390342
0.6399996,0.08433259
0.6409996,0.08479242
0.6419996,0.08528289
0.6429996,0.08574272
0.6439996,0.08620254
0.6449996,0.08666236
0.6459996,0.08712219
0.6469996,0.08758201
0.6479996,0.08804183
0.6489996,0.088471
0.6499996,0.08893082
0.6509996,0.08939064
0.6519996,0.08985046
0.6529996,0.09034094
0.6539996,0.09077011
0.6549996,0.09122993
0.6559996,0.09172041
0.6569996,0.09214958
0.6579996,0.09264006
0.6589996,0.09309988
0.6599996,0.09352904
0.6609996,0.09401952
0.6619996,0.09447934
0.6629996,0.09493916
0.6639996,0.09536833
0.6649996,0.09582815
0.6659996,0.09631863
0.6669996,0.0967478
0.6679996,0.09720763
0.6689996,0.0976981
0.6699996,0.09815792
0.6709996,0.09861775
0.6719996,0.09907757
0.6729996,0.09956805
0.6739996,0.1000279
0.6749996,0.100457
0.6759996,0.1009782
0.6769996,0.1014073
0.6779996,0.1018672
0.6789996,0.1023576
0.6799996,0.1028175
0.6809996,0.1032773
0.6819996,0.1037371
0.6829996,0.1041969
0.6839996,0.1046567
0.6849996,0.1051472
0.6859996,0.105607
0.6869996,0.1060669
0.6879996,0.1065267
0.6889996,0.1069865
0.6899996,0.1074463
0.6909996,0.1079062
0.6919996,0.108366
0.6929996,0.1088565
0.6939996,0.1093163
0.6949996,0.1097761
0.6959996,0.1102666
0.6969996,0.1106957
0.6979996,0.1111862
0.6989996,0.111646
0.6999996,0.1117687
0.6990005,0.1112782
0.6980005,0.1107877
0.6970005,0.1103279
0.6960005,0.1098681
0.6950005,0.1093776
0.6940005,0.1089178
0.6930005,0.1084579
0.6920004,0.1079368
0.6910005,0.107477
0.6900005,0.1070172
0.6890005,0.106496
0.6880005,0.1060362
0.6870005,0.1055764
0.6860005,0.1051166
0.6850005,0.1046567
0.6840005,0.1041969
0.6830005,0.1037371
0.6820005,0.1032466
0.6810005,0.1027868
0.6800005,0.102327
0.6790005,0.1018058
0.6780005,0.1013767
0.6770005,0.1008862
0.6760005,0.1003957
0.6750005,0.09996656
0.6740005,0.09947608
0.6730005,0.09901626
0.6720005,0.09855644
0.6710005,0.09806596
0.6700005,0.09760614
0.6690005,0.09711566
0.6680005,0.09665584
0.6670005,0.09619602
0.6660005,0.09570553
0.6650005,0.09521506
0.6640005,0.09475523
0.6630005,0.09429541
0.6620005,0.09380494
0.6610005,0.09334511
0.6600005,0.09288529
0.6590005,0.09242547
0.6580005,0.09193499
0.6570005,0.09147517
0.6560005,0.09101535
0.6550004,0.09052487
0.6540005,0.09006505
0.6530005,0.08960523
0.6520005,0.08914541
0.6510005,0.08868558
0.6500005,0.08822576
0.6490005,0.08776593
0.6480005,0.08730611
0.6470005,0.08684629
0.6460005,0.08638646
0.6450005,0.08589599
0.6440005,0.08543617
0.6430005,0.08497635
0.6420005,0.08448587
0.6410004,0.0840567
0.6400005,0.08356623
0.6390005,0.0831064
0.6380005,0.08264658
0.6370005,0.08218676
0.6360005,0.08172693
0.6350005,0.08126711
0.6340005,0.08080729
0.6330005,0.08034747
0.6320005,0.07988765
0.6310005,0.07939716
0.6300005,0.07893734
0.6290005,0.07847752
0.6280005,0.07798705
0.6270005,0.07755788
0.6260005,0.07709806
0.6250005,0.07663824
0.6240005,0.07620906
0.6230005,0.07571859
0.6220005,0.07525877
0.6210005,0.07479894
0.6200005,0.07433912
0.6190005,0.07387929
0.6180004,0.07345013
0.6170005,0.07295965
0.6160005,0.07253049
0.6150005,0.07204001
0.6140005,0.07158019
0.6130005,0.07112037
0.6120005,0.07066055
0.6110005,0.07023137
0.6100005,0.0697409
0.6090005,0.06931173
0.6080005,0.06885191
0.6070005,0.06836143
0.6060005,0.06793226
0.6050005,0.06747244
0.6040004,0.06701262
0.6030005,0.0665528
0.6020005,0.06609298
0.6010005,0.06563315
0.6000005,0.06520399
0.5990005,0.06477482
0.5980005,0.06431499
0.5970005,0.06385517
0.5960005,0.06339534
0.5950005,0.06296618
0.5940005,0.06250636
0.5930005,0.06204654
0.5920005,0.06158672
0.5910005,0.06112689
0.5900005,0.06069772
0.5890005,0.0602379
0.5880005,0.05977808
0.5870005,0.05934891
0.5860005,0.05888909
0.5850005,0.05842927
0.5840005,0.0580001
0.5830005,0.05754028
0.5820005,0.05711111
0.5810004,0.05665129
0.5800005,0.05619146
0.5790005,0.0557623
0.5780005,0.05533313
0.5770005,0.05487331
0.5760005,0.05444414
0.5750005,0.05398431
0.5740005,0.05355515
0.5730005,0.05309533
0.5720005,0.0526355
0.5710005,0.05220634
0.5700005,0.05177717
0.5690005,0.051348
0.5680005,0.05088818
0.5670004,0.05045901
0.5660005,0.05002984
0.5650005,0.04960068
0.5640005,0.04914085
0.5630005,0.04871169
0.5620005,0.04828252
0.5610005,0.0478227
0.5600005,0.04739353
0.5590005,0.04696436
0.5580005,0.04650454
0.5570005,0.04607537
0.5560005,0.0456462
0.5550005,0.04518638
0.5540005,0.04478787
0.5530005,0.0443587
0.5520005,0.04389888
0.5510005,0.04350037
0.5500005,0.0430712
0.5490005,0.04261138
0.5480005,0.04218221
0.5470005,0.0417837
0.5460005,0.04132387
0.5450005,0.04089471
0.5440005,0.04049619
0.5430005,0.04006703
0.5420005,0.03963786
0.5410005,0.03920869
0.5400005,0.03877952
0.5390005,0.03835035
0.5380005,0.03795184
0.5370005,0.03749202
0.5360005,0.03709351
0.5350005,0.03666434
0.5340005,0.03626583
0.5330005,0.03583666
0.5320005,0.03540749
0.5310005,0.03500898
0.5300004,0.03457981
0.5290005,0.03415065
0.5280005,0.03375213
0.5270005,0.03332296
0.5260005,0.03292445
0.5250005,0.03252594
0.5240005,0.03209677
0.5230005,0.03169826
0.5220005,0.03126909
0.5210005,0.03087058
0.5200005,0.03047206
0.5190005,0.0300429
0.5180005,0.02964438
0.5170005,0.02924587
0.5160004,0.0288167
0.5150005,0.02841819
0.5140005,0.02801968
0.5130005,0.02762116
0.5120005,0.02722265
0.5110005,0.02682414
0.5100005,0.02642563
0.5090005,0.02602712
0.5080005,0.0256286
0.5070005,0.02526074
0.5060005,0.02483158
0.5050005,0.02446372
0.5040005,0.02406521
0.5030005,0.02366669
0.5020005,0.02329884
0.5010005,0.02290032
0.5000005,0.02250181
0.4990005,0.02213395
0.4980005,0.02173544
0.4970005,0.02136758
0.4960005,0.02099972
0.4950005,0.02060121
0.4940005,0.02023335
0.4930005,0.0198655
0.4920005,0.01949764
0.4910005,0.01912978
0.4900005,0.01876192
0.4890005,0.01839406
0.4880005,0.01802621
0.4870005,0.01765835
0.4860005,0.01732115
0.4850005,0.01695329
0.4840005,0.01658543
0.4830005,0.01621757
0.4820005,0.01588037
0.4810005,0.01551251
0.4800005,0.01517531
0.4790005,0.01480745
0.4780005,0.01447024
0.4770005,0.01413304
0.4760005,0.01379584
0.4750005,0.01345864
0.4740005,0.01312143
0.4730005,0.01229577
0.4720005,0.01198002
0.4710005,0.01164282
0.4700005,0.01132401
0.4690005,0.01101133
0.4680005,0.01068332
0.4670005,0.01037677
0.4660005,0.01006716
0.4650005,0.009754483
0.4640005,0.009454065
0.4630005,0.009147516
0.4620005,0.008850165
0.4610005,0.008552813
0.4600005,0.008252396
0.4590005,0.007967305
0.4580005,0.00767915
0.4570005,0.007390995
0.4560005,0.007112036
0.4550005,0.006830012
0.4540005,0.006557184
0.4530005,0.006287422
0.4520005,0.006017659
0.4510005,0.005757092
0.4500005,0.005496527
0.4490005,0.005235961
0.4480005,0.004987657
0.4470005,0.004736287
0.4460005,0.004494114
0.4450005,0.004251941
0.4440005,0.004012833
0.4430005,0.003779857
0.4420005,0.003549946
0.4410005,0.0033231
0.4400005,0.00310545
0.4390005,0.002884736
0.4380005,0.002673218
0.4370005,0.002464765
0.4360005,0.002256312
0.4350005,0.002057055
0.4340005,0.001857799
0.4330005,0.001664674
0.4320005,0.001474614
0.4310005,0.001287619
0.4300005,0.001106756
0.4290005,0.0008951327
0.4280005,0.0007179478
0.4270005,0.0005502658
0.4260005,0.0003795184
0.4250005,0.0002152086
0.4240005,5.702965E-05
0.4230005,-0.0001097125
0.4220005,-0.0002625574
0.4210005,-0.0004116826
0.4200005,-0.000562811
0.4190005,-0.000705969
0.4180005,-0.0008515794
0.4170005,-0.0009932048
0.4160005,-0.001130845
0.4150005,-0.001270018
0.4140005,-0.001403366
0.4130005,-0.001537021
0.4120005,-0.001669144
0.4110005,-0.001797281
0.4100005,-0.001934308
0.4090005,-0.00206643
0.4080005,-0.002188436
0.4070005,-0.002318719
0.4060005,-0.002441032
0.4050005,-0.002563958
0.4040005,-0.002691789
0.4030005,-0.002815634
0.4020005,-0.002940399
0.4010005,-0.003065471
0.4000005,-0.003154265
0.3990005,-0.003283015
0.3980005,-0.0034087
0.3970005,-0.003540515
0.3960005,-0.003672331
0.3950005,-0.003798016
0.3940005,-0.003935963
0.3930005,-0.004070844
0.3920005,-0.00420266
0.3910005,-0.004346738
0.3900005,-0.004481619
0.3890005,-0.004622631
0.3880005,-0.004769774
0.3870005,-0.004910786
0.3860005,-0.005060995
0.3850005,-0.005205072
0.3840005,-0.005355281
0.3830005,-0.005508556
0.3820005,-0.005658764
0.3810005,-0.005812038
0.3800005,-0.005968377
0.3790005,-0.006121652
0.3780005,-0.006281057
0.3770005,-0.006443528
0.3760005,-0.006599867
0.3750005,-0.006762337
0.3740005,-0.006921743
0.3730005,-0.007081148
0.3720005,-0.007249749
0.3710005,-0.00741222
0.3700005,-0.007574691
0.3690005,-0.007740227
0.3680005,-0.007899632
0.3670005,-0.008062102
0.3660005,-0.008224573
0.3650005,-0.008387043
0.3640005,-0.008546448
0.3630005,-0.008702789
0.3620005,-0.008865259
0.3610005,-0.009018533
0.3600005,-0.009168741
0.3590005,-0.009325081
0.3580005,-0.009469159
0.3570005,-0.009622433
0.3560005,-0.009766511
0.3550005,-0.009901391
0.3540005,-0.01004547
0.3530005,-0.01017422
0.3520005,-0.01030297
0.3510005,-0.01043785
0.3500005,-0.01055741
0.3490005,-0.01067696
0.3480005,-0.01079651
0.3470005,-0.01090687
0.3460005,-0.01102029
0.3450005,-0.01112758
0.3440005,-0.01122875
0.3430005,-0.01132684
0.3420005,-0.01141574
0.3410005,-0.01150464
0.3400005,-0.01158741
0.3390005,-0.01166098
0.3380005,-0.01173149
0.3370005,-0.01178973
0.3360005,-0.01184797
0.3350005,-0.01189702
0.3340005,-0.01193074
0.3330005,-0.01196446
0.3320005,-0.01198592
0.3310005,-0.01199818
0.3300005,-0.01201044
0.3290005,-0.01200738
0.3280005,-0.01199512
0.3270005,-0.01198286
0.3260005,-0.01195527
0.3250005,-0.01192154
0.3240005,-0.01188169
0.3230005,-0.01183571
0.3220005,-0.01177747
0.3210005,-0.01171309
0.3200005,-0.01164259
0.3190005,-0.01155982
0.3180005,-0.01146785
0.3170005,-0.01136669
0.3160005,-0.01125327
0.3150005,-0.01113065
0.3140005,-0.0110019
0.3130005,-0.01085476
0.3120005,-0.01070761
0.3110005,-0.01054208
0.3100005,-0.01035815
0.3090005,-0.01017115
0.3080005,-0.009971898
0.3070005,-0.009763445
0.3060005,-0.0095366
0.3050005,-0.009303623
0.3040005,-0.009061449
0.3030005,-0.00881008
0.3020005,-0.008558711
0.3010005,-0.008307341
0.3000005,-0.008052906
0.2990005,-0.007804601
0.2980005,-0.007562429
0.2970005,-0.007323321
0.2960005,-0.007090344
0.2950005,-0.006860433
0.2940005,-0.006642784
0.2930005,-0.006425134
0.2920005,-0.006213617
0.2910005,-0.00601436
0.2900005,-0.005812038
0.2890005,-0.005618913
0.2880005,-0.005431918
0.2870005,-0.005247989
0.2860005,-0.005079388
0.2850005,-0.004913852
0.2840005,-0.004757512
0.2830005,-0.004610369
0.2820005,-0.004475488
0.2810005,-0.004346738
0.2800005,-0.004227184
0.2790005,-0.004119892
0.2780005,-0.004009534
0.2770005,-0.003911439
0.2760005,-0.003816409
0.2750005,-0.003724444
0.2740005,-0.003641677
0.2730005,-0.003558908
0.2720005,-0.00347614
0.2710005,-0.003402569
0.2700005,-0.003328997
0.2690005,-0.003255426
0.2680005,-0.003187985
0.2670005,-0.003120545
0.2660005,-0.003059235
0.2650005,-0.002997925
0.2640005,-0.002939681
0.2630005,-0.002884502
0.2620005,-0.002832389
0.2610005,-0.002780276
0.2600005,-0.002731228
0.2590005,-0.002685246
0.2580005,-0.002639264
0.2570005,-0.002596347
0.2560005,-0.00255343
0.2550005,-0.002513579
0.2540005,-0.002473728
0.2530005,-0.002436942
0.2520005,-0.002400156
0.2510005,-0.00236337
0.2500005,-0.00232965
0.2490005,-0.00229593
0.2480005,-0.002265275
0.2470005,-0.00223462
0.2460005,-0.002203965
0.2450005,-0.00217331
0.2440005,-0.002145721
0.2430005,-0.002118132
0.2420005,-0.002090542
0.2410005,-0.002066019
0.2400005,-0.002038429
0.2390005,-0.002013905
0.2380005,-0.001989381
0.2370005,-0.001964858
0.2360005,-0.001943399
0.2350005,-0.001921941
0.2340005,-0.001897417
0.2330005,-0.001875959
0.2320005,-0.0018545
0.2310005,-0.001836107
0.2300005,-0.001814649
0.2290005,-0.001796256
0.2280005,-0.001774798
0.2270005,-0.001756405
0.2260005,-0.001738012
0.2250005,-0.001719619
0.2240005,-0.001701226
0.2230005,-0.001682833
0.2220005,-0.00166444
0.2210005,-0.001649113
0.2200005,-0.00163072
0.2190005,-0.001615393
0.2180005,-0.001635423
0.2170005,-0.001620096
0.2160005,-0.001604156
0.2150005,-0.001589135
0.2140005,-0.001574114
0.2130005,-0.001559399
0.2120005,-0.001544992
0.2110005,-0.00153089
0.2100005,-0.001517096
0.2090005,-0.001503301
0.2080005,-0.001489813
0.2070005,-0.001476938
0.2060005,-0.001463756
0.2050005,-0.001451188
0.2040005,-0.001438926
0.2030005,-0.001426051
0.2020005,-0.001414096
0.2010005,-0.00140214
0.2000005,-0.001390491
0.1990005,-0.001379456
0.1980005,-0.001368113
0.1970005,-0.001356771
0.1960005,-0.001346042
0.1950005,-0.001335006
0.1940005,-0.001324277
0.1930005,-0.001313854
0.1920005,-0.001303738
0.1910005,-0.001293622
0.1900005,-0.001283506
0.1890005,-0.001273696
0.1880005,-0.001263887
0.1870005,-0.001254384
0.1860005,-0.001245187
0.1850005,-0.001235991
0.1840005,-0.001226795
0.1830005,-0.001217905
0.1820005,-0.001209015
0.1810005,-0.001200125
0.1800005,-0.001191541
0.1790005,-0.001182958
0.1780005,-0.001174681
0.1770005,-0.001166405
0.1760005,-0.001158128
0.1750005,-0.001150464
0.1740005,-0.001142494
0.1730005,-0.00113483
0.1720005,-0.001127166
0.1710005,-0.001119196
0.1700005,-0.001111839
0.1690005,-0.001104175
0.1680005,-0.001097125
0.1670005,-0.001089768
0.1660005,-0.001082717
0.1650005,-0.001075973
0.1640005,-0.001068922
0.1630005,-0.001062178
0.1620005,-0.001055434
0.1610005,-0.00104869
0.1600005,-0.001041946
0.1590005,-0.001035508
0.1580005,-0.001029071
0.1570005,-0.001022634
0.1560005,-0.001016502
0.1550005,-0.001010371
0.1540005,-0.00100424
0.1530005,-0.0009984161
0.1520005,-0.0009922851
0.1510005,-0.0009864607
0.1500005,-0.0009806362
0.1490005,-0.0009745053
0.1480005,-0.0009689874
0.1470005,-0.0009634696
0.1460005,-0.0009579517
0.1450005,-0.0009524338
0.1440005,-0.0009469159
0.1430005,-0.0009417046
0.1420005,-0.0009364933
0.1410005,-0.0009312819
0.1400005,-0.0009260707
0.1390005,-0.0009208593
0.1380005,-0.000915648
0.1370005,-0.0009110498
0.1360005,-0.0009058384
0.1350005,-0.0009012403
0.1340005,-0.0008963355
0.1330005,-0.0008914307
0.1320005,-0.0008868325
0.1310005,-0.0008819277
0.1300005,-0.0008773295
0.1290005,-0.0008727313
0.1280005,-0.000868133
0.1270005,-0.0008638413
0.1260005,-0.0008592432
0.1250005,-0.0008549515
0.1240005,-0.0008506598
0.1230005,-0.0008463681
0.1220005,-0.0008417699
0.1210005,-0.0008377847
0.1200005,-0.0008334931
0.1190005,-0.0008295079
0.1180005,-0.0008255228
0.1170005,-0.0008215377
0.1160005,-0.0008175526
0.1150005,-0.0008135674
0.1140005,-0.0008098889
0.1130005,-0.0008055972
0.1120005,-0.0008019186
0.1110005,-0.0007982401
0.1100005,-0.0007942549
0.1090005,-0.0007905763
0.1080005,-0.0007868978
0.1070005,-0.0007832192
0.1060005,-0.0007795406
0.1050005,-0.0007761685
0.1040005,-0.00077249
0.1030005,-0.0007688114
0.1020005,-0.0007654394
0.1010005,-0.0007617608
0.1000005,-0.0007586953
0.09900048,-0.0007553233
0.09800047,-0.0007519512
0.09700048,-0.0007485792
0.09600048,-0.0007452072
0.09500048,-0.0007421417
0.09400047,-0.0007390762
0.09300048,-0.0007357041
0.09200048,-0.0007326387
0.09100047,-0.0007292667
0.09000048,-0.0007265077
0.08900048,-0.0007234422
0.08800048,-0.0007203768
0.08700047,-0.0007173113
0.08600048,-0.0007142458
0.08500048,-0.0007111803
0.08400048,-0.0007081148
0.08300047,-0.0007053559
0.08200048,-0.0007022904
0.08100048,-0.0006995315
0.08000048,-0.0006967725
0.07900048,-0.0006940136
0.07800048,-0.0006912547
0.07700048,-0.0006884958
0.07600047,-0.0006857368
0.07500048,-0.0006829779
0.07400048,-0.000680219
0.07300048,-0.00067746
0.07200047,-0.0006750076
0.07100048,-0.0006725552
0.07000048,-0.0006697963
0.06900048,-0.0006670374
0.06800048,-0.000664585
0.06700048,-0.0006618261
0.06600048,-0.0006596802
0.06500047,-0.0006572278
0.06400048,-0.0006544688
0.06300048,-0.0006526296
0.06200048,-0.0006498707
0.06100048,-0.0006474183
0.06000048,-0.0006449659
0.05900048,-0.0006425135
0.05800048,-0.0006403677
0.05700048,-0.0006379153
0.05600048,-0.0006354629
0.05500048,-0.0006333171
0.05400048,-0.0006308646
0.05300048,-0.0006287188
0.05200048,-0.000626573
0.05100048,-0.0006241206
0.05000048,-0.0006219748
0.04900048,-0.0006198289
0.04800048,-0.0006176831
0.04700048,-0.0006155373
0.04600048,-0.0006133915
0.04500048,-0.0006112456
0.04400048,-0.0006090997
0.04300048,-0.0006069539
0.04200048,-0.000604808
0.04100048,-0.0006026622
0.04000048,-0.000600823
0.03900048,-0.0005986771
0.03800048,-0.0005965313
0.03700048,-0.000594692
0.03600048,-0.0005928527
0.03500048,-0.0005907068
0.03400048,-0.0005888676
0.03300048,-0.0005867218
0.03200048,-0.0005848824
0.03100048,-0.0005830431
0.03000048,-0.0005812038
0.02900048,-0.000579058
0.02800048,-0.0005772187
0.02700048,-0.0005753795
0.02600048,-0.0005735401
0.02500048,-0.0005717009
0.02400048,-0.0005698616
0.02300048,-0.0005680223
0.02200048,-0.000566183
0.02100048,-0.0005643437
0.02000048,-0.0005625045
0.01900048,-0.0005606651
0.01800048,-0.0005591324
0.01700048,-0.0005572931
0.01600048,-0.0005554538
0.01500048,-0.0005536145
0.01400048,-0.0005520818
0.01300048,-0.0005502424
0.01200048,-0.0005487097
0.01100048,-0.0005468705
0.01000048,-0.0005453377
0.009000476,-0.0005434984
0.008000477,-0.0005419657
0.007000477,-0.0005404329
0.006000477,-0.0005385936
0.005000477,-0.0005370609
0.004000477,-0.0005355282
0.003000477,-0.0005336889
0.002000477,-0.0005321561
0.001000477,-0.0005306234
