EXPID. 0915
[电化学]: CV : 0 >> 0.7 >> 0 >> 0(V) @ 0.01(V/s) X 10(Seg)
起始电位 (V),0
上限电位 (V),0.7
下限电位 (V),0
终止电位 (V),0
扫速 (V/s),0.01
电解液 信息:
KOH,1
0.001,-3.319801E-06
0.002,-2.924354E-06
0.003,-2.584085E-06
0.004,-2.348043E-06
0.005,-2.099739E-06
0.006,-1.909679E-06
0.007,-1.676702E-06
0.008,-1.428398E-06
0.009,-1.272058E-06
0.01,-1.066671E-06
0.011,-8.398255E-07
0.012,-6.037833E-07
0.013,-3.769376E-07
0.014,-2.052706E-07
0.015,6.755735E-08
0.016,2.23897E-07
0.017,4.108914E-07
0.018,6.040168E-07
0.019,6.775884E-07
0.02,8.584519E-07
0.021,9.963986E-07
0.022,1.134345E-06
0.023,1.315209E-06
0.024,1.428632E-06
0.025,1.526727E-06
0.026,1.695329E-06
0.027,1.775031E-06
0.028,1.940567E-06
0.029,2.133693E-06
0.03,2.24405E-06
0.031,2.394259E-06
0.032,2.56286E-06
0.033,2.755985E-06
0.034,2.924587E-06
0.035,3.087058E-06
0.036,3.304707E-06
0.037,3.396671E-06
0.038,3.537684E-06
0.039,3.721613E-06
0.04,3.782922E-06
0.041,3.930065E-06
0.042,4.037357E-06
0.043,4.15078E-06
0.044,4.300989E-06
0.045,4.396019E-06
0.046,4.475721E-06
0.047,4.665781E-06
0.048,4.837448E-06
0.049,4.929413E-06
0.05,5.104145E-06
0.051,5.242092E-06
0.052,5.465872E-06
0.053,5.631408E-06
0.054,5.80001E-06
0.055,5.901171E-06
0.056,6.026856E-06
0.057,6.186261E-06
0.058,6.305814E-06
0.059,6.40391E-06
0.06,6.535725E-06
0.061,6.587839E-06
0.062,6.649148E-06
0.063,6.875994E-06
0.064,7.026203E-06
0.065,7.204001E-06
0.066,7.427781E-06
0.067,7.522811E-06
0.068,7.642365E-06
0.069,7.810966E-06
0.07,7.890669E-06
0.071,8.010223E-06
0.072,8.080729E-06
0.073,8.197217E-06
0.074,8.322902E-06
0.075,8.399539E-06
0.076,8.571206E-06
0.077,8.675433E-06
0.078,8.816444E-06
0.079,9.031029E-06
0.08,9.190433E-06
0.081,9.3621E-06
0.082,9.500047E-06
0.083,9.592011E-06
0.084,9.733024E-06
0.085,9.852578E-06
0.086,9.913887E-06
0.087,1.009782E-05
0.088,1.017445E-05
0.089,1.032466E-05
0.09,1.043195E-05
0.091,1.052392E-05
0.092,1.065267E-05
0.093,1.07385E-05
0.094,1.088258E-05
0.095,1.104505E-05
0.096,1.114008E-05
0.097,1.131175E-05
0.098,1.142824E-05
0.099,1.159377E-05
0.1,1.177157E-05
0.101,1.193097E-05
0.102,1.21241E-05
0.103,1.226205E-05
0.104,1.234481E-05
0.105,1.249196E-05
0.106,1.265136E-05
0.107,1.270348E-05
0.108,1.289354E-05
0.109,1.295791E-05
0.11,1.309279E-05
0.111,1.320928E-05
0.112,1.332577E-05
0.113,1.343613E-05
0.114,1.357407E-05
0.115,1.374267E-05
0.116,1.397565E-05
0.117,1.411973E-05
0.118,1.422702E-05
0.119,1.439869E-05
0.12,1.45489E-05
0.121,1.468991E-05
0.122,1.482172E-05
0.123,1.48953E-05
0.124,1.50547E-05
0.125,1.523863E-05
0.126,1.527848E-05
0.127,1.541643E-05
0.128,1.554824E-05
0.129,1.568006E-05
0.13,1.579655E-05
0.131,1.59253E-05
0.132,1.606324E-05
0.133,1.623491E-05
0.134,1.632688E-05
0.135,1.652E-05
0.136,1.66978E-05
0.137,1.682962E-05
0.138,1.704113E-05
0.139,1.715762E-05
0.14,1.740899E-05
0.141,1.749789E-05
0.142,1.765116E-05
0.143,1.778298E-05
0.144,1.792706E-05
0.145,1.80834E-05
0.146,1.826733E-05
0.147,1.835316E-05
0.148,1.855548E-05
0.149,1.865664E-05
0.15,1.877313E-05
0.151,1.89448E-05
0.152,1.909194E-05
0.153,1.918697E-05
0.154,1.93709E-05
0.155,1.950578E-05
0.156,1.968358E-05
0.157,1.983685E-05
0.158,2.001772E-05
0.159,2.020471E-05
0.16,2.042236E-05
0.161,2.062775E-05
0.162,2.079328E-05
0.163,2.096495E-05
0.164,2.123165E-05
0.165,2.134507E-05
0.166,2.151061E-05
0.167,2.17068E-05
0.168,2.180183E-05
0.169,2.202561E-05
0.17,2.214516E-05
0.171,2.223713E-05
0.172,2.243332E-05
0.173,2.261725E-05
0.174,2.278278E-05
0.175,2.303109E-05
0.176,2.31721E-05
0.177,2.343267E-05
0.178,2.363805E-05
0.179,2.383425E-05
0.18,2.403043E-05
0.181,2.422969E-05
0.182,2.438297E-05
0.183,2.460368E-05
0.184,2.478761E-05
0.185,2.497154E-05
0.186,2.520452E-05
0.187,2.578188E-05
0.188,2.59658E-05
0.189,2.614973E-05
0.19,2.633366E-05
0.191,2.65789E-05
0.192,2.676283E-05
0.193,2.697741E-05
0.194,2.7192E-05
0.195,2.731462E-05
0.196,2.755985E-05
0.197,2.774378E-05
0.198,2.798902E-05
0.199,2.820361E-05
0.2,2.838754E-05
0.201,2.857147E-05
0.202,2.88167E-05
0.203,2.906194E-05
0.204,2.933783E-05
0.205,2.955242E-05
0.206,2.985897E-05
0.207,3.019617E-05
0.208,3.03801E-05
0.209,3.059468E-05
0.21,3.087058E-05
0.211,3.111581E-05
0.212,3.13304E-05
0.213,3.16676E-05
0.214,3.185153E-05
0.215,3.209677E-05
0.216,3.231135E-05
0.217,3.258725E-05
0.218,3.292445E-05
0.219,3.320034E-05
0.22,3.353754E-05
0.221,3.39054E-05
0.222,3.415065E-05
0.223,3.442654E-05
0.224,3.467178E-05
0.225,3.494767E-05
0.226,3.525422E-05
0.227,3.54688E-05
0.228,3.5806E-05
0.229,3.60819E-05
0.23,3.64191E-05
0.231,3.681761E-05
0.232,3.712416E-05
0.233,3.752267E-05
0.234,3.789053E-05
0.235,3.813577E-05
0.236,3.853428E-05
0.237,3.890214E-05
0.238,3.917803E-05
0.239,3.957655E-05
0.24,3.985244E-05
0.241,4.025095E-05
0.242,4.061881E-05
0.243,4.098667E-05
0.244,4.147715E-05
0.245,4.196762E-05
0.246,4.236614E-05
0.247,4.27953E-05
0.248,4.319382E-05
0.249,4.362299E-05
0.25,4.408281E-05
0.251,4.445066E-05
0.252,4.487983E-05
0.253,4.527835E-05
0.254,4.573816E-05
0.255,4.632061E-05
0.256,4.684174E-05
0.257,4.733222E-05
0.258,4.794531E-05
0.259,4.84971E-05
0.26,4.898758E-05
0.261,4.953937E-05
0.262,5.00605E-05
0.263,5.058163E-05
0.264,5.116407E-05
0.265,5.177717E-05
0.266,5.232896E-05
0.267,5.288074E-05
0.268,5.355515E-05
0.269,5.41989E-05
0.27,5.481199E-05
0.271,5.551706E-05
0.272,5.619146E-05
0.273,5.689652E-05
0.274,5.763223E-05
0.275,5.83373E-05
0.276,5.913433E-05
0.277,5.993135E-05
0.278,6.066707E-05
0.279,6.15254E-05
0.28,6.229177E-05
0.281,6.315011E-05
0.282,6.400844E-05
0.283,6.480547E-05
0.284,6.572511E-05
0.285,6.658345E-05
0.286,6.747244E-05
0.287,6.84534E-05
0.288,6.940369E-05
0.289,7.038465E-05
0.29,7.139625E-05
0.291,7.237721E-05
0.292,7.351144E-05
0.293,7.458436E-05
0.294,7.565728E-05
0.295,7.685281E-05
0.296,7.789508E-05
0.297,7.912127E-05
0.298,8.034746E-05
0.299,8.14817E-05
0.3,8.286116E-05
0.301,8.417932E-05
0.302,8.543616E-05
0.303,8.681563E-05
0.304,8.81951E-05
0.305,8.957457E-05
0.306,9.107665E-05
0.307,9.26094E-05
0.308,9.417279E-05
0.309,9.558291E-05
0.31,9.717696E-05
0.311,9.892429E-05
0.312,0.000100549
0.313,0.0001022657
0.314,0.0001040436
0.315,0.0001058523
0.316,0.0001077222
0.317,0.0001095309
0.318,0.0001114315
0.319,0.0001134853
0.32,0.0001155698
0.321,0.0001175931
0.322,0.0001198002
0.323,0.0001219461
0.324,0.0001243065
0.325,0.0001266056
0.326,0.000129058
0.327,0.000131541
0.328,0.0001340241
0.329,0.0001366604
0.33,0.0001393273
0.331,0.0001419637
0.332,0.0001449065
0.333,0.0001477574
0.334,0.0001507003
0.335,0.0001539497
0.336,0.0001570152
0.337,0.0001602646
0.338,0.0001637286
0.339,0.0001671006
0.34,0.0001709018
0.341,0.0001746111
0.342,0.0001783509
0.343,0.0001825506
0.344,0.0001866891
0.345,0.0001909194
0.346,0.0001955789
0.347,0.0002001465
0.348,0.0002052352
0.349,0.0002102626
0.35,0.0002155353
0.351,0.000221329
0.352,0.0002272147
0.353,0.0002334377
0.354,0.0002401204
0.355,0.0002469258
0.356,0.0002545895
0.357,0.0002621613
0.358,0.00027053
0.359,0.0002795732
0.36,0.0002887083
0.361,0.0003025748
0.362,0.0003129975
0.363,0.0003240332
0.364,0.0003366017
0.365,0.0003494767
0.366,0.0003632714
0.367,0.0003785988
0.368,0.0003945393
0.369,0.000411706
0.37,0.0004300989
0.371,0.0004500245
0.372,0.0004717895
0.373,0.000494474
0.374,0.000518998
0.375,0.0005462807
0.376,0.0005744831
0.377,0.0006063642
0.378,0.0006410041
0.379,0.0006771768
0.38,0.0007185608
0.381,0.0007623972
0.382,0.0008102188
0.383,0.0008632516
0.384,0.0009202696
0.385,0.0009837251
0.386,0.001052392
0.387,0.001127496
0.388,0.001211184
0.389,0.001300083
0.39,0.001398791
0.391,0.001506696
0.392,0.001622265
0.393,0.001750096
0.394,0.001887736
0.395,0.002035492
0.396,0.002198269
0.397,0.002370243
0.398,0.002554479
0.399,0.002752202
0.4,0.002958509
0.401,0.003212743
0.402,0.003439588
0.403,0.00367563
0.404,0.003927
0.405,0.004181435
0.406,0.004445066
0.407,0.00472096
0.408,0.004993788
0.409,0.005281943
0.41,0.00557623
0.411,0.00586745
0.412,0.006164802
0.413,0.006459088
0.414,0.006759506
0.415,0.007066054
0.416,0.007366471
0.417,0.00767302
0.418,0.007979568
0.419,0.008283051
0.42,0.008592664
0.421,0.008899212
0.422,0.00920576
0.423,0.009515375
0.424,0.009821923
0.425,0.01012847
0.426,0.01043502
0.427,0.01074157
0.428,0.01104811
0.429,0.01135466
0.43,0.01165815
0.431,0.01196469
0.432,0.01226818
0.433,0.01257473
0.434,0.01287821
0.435,0.01318169
0.436,0.0134913
0.437,0.01379172
0.438,0.01410134
0.439,0.01441095
0.44,0.01471137
0.441,0.01502405
0.442,0.01533366
0.443,0.01564021
0.444,0.01594982
0.445,0.01625944
0.446,0.01656905
0.447,0.01687866
0.448,0.01719134
0.449,0.01750096
0.45,0.0178075
0.451,0.01812018
0.452,0.0184298
0.453,0.01873635
0.454,0.01904596
0.455,0.01934944
0.456,0.01964986
0.457,0.01995641
0.458,0.02025069
0.459,0.02054498
0.46,0.02084233
0.461,0.02112742
0.462,0.02141251
0.463,0.0216976
0.464,0.0219643
0.465,0.02223406
0.466,0.02249769
0.467,0.02274906
0.468,0.02300043
0.469,0.02323954
0.47,0.02346945
0.471,0.0236963
0.472,0.02390475
0.473,0.02410707
0.474,0.02430326
0.475,0.02448413
0.476,0.02465579
0.477,0.024806
0.478,0.02495315
0.479,0.02507883
0.48,0.02519532
0.481,0.02529648
0.482,0.02537925
0.483,0.02544056
0.484,0.02549574
0.485,0.02552333
0.486,0.02552946
0.487,0.02552639
0.488,0.0254988
0.489,0.02545282
0.49,0.02539458
0.491,0.02531487
0.492,0.02521065
0.493,0.02511562
0.494,0.02498993
0.495,0.02485505
0.496,0.02472323
0.497,0.02457302
0.498,0.02442282
0.499,0.02427874
0.5,0.02411933
0.501,0.02397219
0.502,0.02383118
0.503,0.02368404
0.504,0.02355222
0.505,0.0234296
0.506,0.02330698
0.507,0.02321808
0.508,0.02313531
0.509,0.02305561
0.51,0.02300656
0.511,0.02297591
0.512,0.02296058
0.513,0.02297284
0.514,0.02300043
0.515,0.02304335
0.516,0.02310772
0.517,0.02319969
0.518,0.02330085
0.519,0.0234204
0.52,0.02356448
0.521,0.02372695
0.522,0.02389555
0.523,0.02408868
0.524,0.0243002
0.525,0.02451478
0.526,0.02475082
0.527,0.02499606
0.528,0.02525356
0.529,0.02552333
0.53,0.02579922
0.531,0.0260935
0.532,0.02638166
0.533,0.02667901
0.534,0.02700089
0.535,0.02731357
0.536,0.02763851
0.537,0.02797878
0.538,0.02830985
0.539,0.02865012
0.54,0.02900571
0.541,0.02935211
0.542,0.02970464
0.543,0.0300725
0.544,0.03120778
0.545,0.03157564
0.546,0.0319435
0.547,0.03231135
0.548,0.03270987
0.549,0.03310838
0.55,0.03347624
0.551,0.03387475
0.552,0.03427326
0.553,0.03464112
0.554,0.03503963
0.555,0.03543815
0.556,0.03586731
0.557,0.03626583
0.558,0.03666434
0.559,0.03706285
0.56,0.03749202
0.561,0.03789053
0.562,0.0383197
0.563,0.03871821
0.564,0.03914738
0.565,0.03957655
0.566,0.03997506
0.567,0.04040423
0.568,0.04080274
0.569,0.04123191
0.57,0.04166108
0.571,0.04209024
0.572,0.04251941
0.573,0.04294858
0.574,0.04337775
0.575,0.04380691
0.576,0.04423608
0.577,0.04466525
0.578,0.04509442
0.579,0.04552358
0.58,0.04598341
0.581,0.04641258
0.582,0.04684174
0.583,0.04727091
0.584,0.04773073
0.585,0.0481599
0.586,0.04858907
0.587,0.04904889
0.588,0.04947806
0.589,0.04990723
0.59,0.05036705
0.591,0.05079622
0.592,0.05122538
0.593,0.0516852
0.594,0.05211437
0.595,0.05257419
0.596,0.05303402
0.597,0.05346319
0.598,0.05392301
0.599,0.05438283
0.6,0.054812
0.601,0.05527182
0.602,0.05573164
0.603,0.05616081
0.604,0.05662064
0.605,0.05708046
0.606,0.05750962
0.607,0.05796945
0.608,0.05842927
0.609,0.05885844
0.61,0.05931826
0.611,0.05977808
0.612,0.0602379
0.613,0.06066707
0.614,0.06115754
0.615,0.06158672
0.616,0.06204654
0.617,0.06253701
0.618,0.06296618
0.619,0.063426
0.62,0.06388583
0.621,0.06434565
0.622,0.06480547
0.623,0.06526529
0.624,0.06569446
0.625,0.06618494
0.626,0.06661411
0.627,0.06707393
0.628,0.06753375
0.629,0.06799357
0.63,0.06845339
0.631,0.06891321
0.632,0.06937304
0.633,0.06983286
0.634,0.07029268
0.635,0.07075251
0.636,0.07121233
0.637,0.07167216
0.638,0.07213198
0.639,0.0725918
0.64,0.07305162
0.641,0.07351144
0.642,0.07397126
0.643,0.07443108
0.644,0.0748909
0.645,0.07535073
0.646,0.07581055
0.647,0.07627037
0.648,0.07676085
0.649,0.07722067
0.65,0.0776805
0.651,0.07814032
0.652,0.07860014
0.653,0.07905997
0.654,0.07951979
0.655,0.07997961
0.656,0.08043943
0.657,0.08092991
0.658,0.08138973
0.659,0.08184955
0.66,0.08230938
0.661,0.0827692
0.662,0.08322902
0.663,0.08368885
0.664,0.08417932
0.665,0.08463915
0.666,0.08509897
0.667,0.08555879
0.668,0.08604927
0.669,0.08650909
0.67,0.08699957
0.671,0.08742873
0.672,0.08791921
0.673,0.08840968
0.674,0.08883885
0.675,0.08932933
0.676,0.08981981
0.677,0.09027963
0.678,0.09077011
0.679,0.09122993
0.68,0.09168976
0.681,0.09218023
0.682,0.09264006
0.683,0.09313053
0.684,0.09362101
0.685,0.09408083
0.686,0.09454065
0.687,0.09503113
0.688,0.0954603
0.689,0.09592012
0.69,0.09641059
0.691,0.09683976
0.692,0.09729959
0.693,0.09775941
0.694,0.09821923
0.695,0.09867906
0.696,0.09913888
0.697,0.0995987
0.698,0.1000585
0.699,0.1005183
0.7,0.100641
0.6990001,0.1001505
0.6980001,0.09969067
0.6970001,0.09920018
0.6960001,0.09874036
0.6950001,0.09824988
0.6940001,0.09775941
0.6930001,0.09729959
0.6920001,0.09683976
0.6910001,0.09634929
0.6900001,0.09588946
0.6890001,0.09539898
0.6880001,0.09493916
0.6870001,0.09447934
0.6860001,0.09398887
0.6850001,0.09352904
0.6840001,0.09306922
0.6830001,0.09257875
0.6820001,0.09211892
0.6810001,0.0916591
0.6800001,0.09119927
0.6790001,0.0907088
0.6780001,0.09027963
0.6770001,0.08981981
0.6760001,0.08935999
0.6750001,0.08890016
0.6740001,0.08844034
0.6730001,0.08801118
0.6720001,0.08755135
0.6710001,0.08706088
0.6700001,0.08663171
0.6690001,0.08617189
0.6680001,0.08571207
0.6670001,0.08525224
0.6660001,0.08482307
0.6650001,0.08433259
0.6640001,0.08390342
0.6630001,0.0834436
0.6620001,0.08298378
0.6610001,0.08255462
0.6600001,0.0820948
0.6590001,0.08160432
0.6580001,0.08117515
0.6570001,0.08074598
0.6560001,0.08028616
0.6550001,0.07982634
0.6540001,0.07939716
0.6530001,0.07893734
0.6520001,0.07850818
0.6510001,0.07804836
0.6500001,0.07758854
0.6490001,0.07712871
0.6480001,0.07666889
0.6470001,0.07623972
0.6460001,0.0757799
0.6450001,0.07532008
0.6440001,0.07486025
0.6430001,0.07443108
0.6420001,0.07397126
0.6410001,0.07351144
0.6400001,0.07305162
0.6390001,0.0725918
0.6380001,0.07216263
0.6370001,0.07170281
0.6360001,0.07124298
0.6350001,0.07078316
0.6340001,0.07032334
0.6330001,0.06986352
0.6320001,0.0694037
0.6310001,0.06897452
0.6300001,0.06848405
0.6290001,0.06805488
0.6280001,0.06759506
0.6270001,0.06713524
0.6260001,0.06670607
0.6250001,0.06624625
0.6240001,0.06578642
0.6230001,0.0653266
0.6220001,0.06489744
0.6210001,0.06443761
0.6200001,0.06397779
0.6190001,0.06354862
0.6180001,0.0630888
0.6170001,0.06262898
0.6160001,0.06219981
0.6150001,0.06173999
0.6140001,0.06128017
0.6130001,0.06082034
0.6120001,0.06036052
0.6110001,0.05993135
0.6100001,0.05947153
0.6090001,0.05904236
0.6080001,0.05858254
0.6070001,0.05812272
0.6060001,0.05769355
0.6050001,0.05723373
0.6040001,0.05680456
0.6030001,0.05634474
0.6020001,0.05591557
0.6010001,0.05545575
0.6000001,0.05502658
0.5990001,0.05456676
0.5980001,0.05413759
0.5970001,0.05367777
0.5960001,0.0532486
0.5950001,0.05278878
0.5940001,0.05235961
0.5930001,0.05189979
0.5920001,0.05147062
0.5910001,0.05104145
0.5900001,0.05061228
0.5890001,0.05015246
0.5880001,0.04972329
0.5870001,0.04929413
0.5860001,0.04886496
0.5850001,0.04840514
0.5840001,0.04797597
0.5830001,0.0475468
0.5820001,0.04711764
0.5810001,0.04665781
0.5800001,0.04622864
0.5790001,0.04579948
0.5780001,0.04537031
0.5770001,0.04494114
0.5760001,0.04448132
0.5750001,0.04405215
0.5740001,0.04365364
0.5730001,0.04319382
0.5720001,0.04276465
0.5710001,0.04236614
0.5700001,0.04190632
0.5690001,0.04147715
0.5680001,0.04104798
0.5670001,0.04061881
0.5660001,0.04018965
0.5650001,0.03976048
0.5640001,0.03936196
0.5630001,0.0389328
0.5620001,0.03850363
0.5610001,0.03807446
0.5600001,0.0376453
0.5590001,0.03721613
0.5580001,0.03678696
0.5570001,0.03638845
0.5560001,0.03595928
0.5550001,0.03556077
0.5540001,0.0351316
0.5530001,0.03470243
0.5520001,0.03430392
0.5510001,0.03387475
0.5500001,0.03344558
0.5490001,0.03304707
0.5480001,0.03264856
0.5470001,0.03221939
0.5460001,0.03182088
0.5450001,0.03139171
0.5440001,0.0309932
0.5430001,0.03056403
0.5420001,0.03016552
0.5410001,0.029767
0.5400001,0.02933784
0.5390001,0.02893933
0.5380001,0.02854081
0.5370001,0.0281423
0.5360001,0.02774378
0.5350001,0.02734527
0.5340001,0.02694676
0.5330001,0.02654825
0.5320001,0.02614973
0.5310001,0.02575122
0.5300001,0.02535271
0.5290001,0.0249542
0.5280001,0.02458634
0.5270001,0.02418783
0.5260001,0.02378931
0.5250001,0.02342146
0.5240001,0.02302294
0.5230001,0.02262443
0.5220001,0.02225657
0.5210001,0.02185806
0.5200001,0.02145955
0.5190001,0.02109169
0.5180001,0.02069318
0.5170001,0.02032532
0.5160001,0.01995746
0.5150001,0.0195896
0.5140001,0.01922174
0.5130001,0.01885389
0.5120001,0.01848603
0.5110001,0.01811817
0.5100001,0.01775031
0.5090001,0.01738245
0.5080001,0.0170146
0.5070001,0.01667739
0.5060001,0.01630954
0.5050001,0.01597233
0.5040001,0.01560447
0.5030001,0.01526727
0.5020001,0.01489941
0.5010001,0.01456221
0.5000001,0.01422501
0.4990001,0.01385715
0.4980001,0.01351995
0.4970001,0.01318274
0.4960001,0.01234788
0.4950001,0.01201987
0.4940001,0.011698
0.4930001,0.01136999
0.4920001,0.01105118
0.4910001,0.01073544
0.4900001,0.01041663
0.4890001,0.01010701
0.4880001,0.009800464
0.4870001,0.009490851
0.4860001,0.009190434
0.4850001,0.008890016
0.4840001,0.008589599
0.4830001,0.008301443
0.4820001,0.008010223
0.4810001,0.007722067
0.4800001,0.007440043
0.4790001,0.007154953
0.4780001,0.006882125
0.4770001,0.006606232
0.4760001,0.006336469
0.4750001,0.006072837
0.4740001,0.005809206
0.4730001,0.00554864
0.4720001,0.00529727
0.4710001,0.005042835
0.4700001,0.004800662
0.4690001,0.004555424
0.4680001,0.004316316
0.4670001,0.00408334
0.4660001,0.003853428
0.4650001,0.003626582
0.4640001,0.003405868
0.4630001,0.003188219
0.4620001,0.0029767
0.4610001,0.002765182
0.4600001,0.002559795
0.4590001,0.002366669
0.4580001,0.002167413
0.4570001,0.001977353
0.4560001,0.001796489
0.4550001,0.001609495
0.4540001,0.001434763
0.4530001,0.001263096
0.4520001,0.001059136
0.4510001,0.0008991177
0.4500001,0.0007384865
0.4490001,0.000583373
0.4480001,0.0004316316
0.4470001,0.0002823426
0.4460001,0.0001431697
0.4450001,4.303349E-06
0.4440001,-0.0001355545
0.4430001,-0.0002616991
0.4420001,-0.0003899177
0.4410001,-0.0005119239
0.4400001,-0.0006277992
0.4390001,-0.000747353
0.4380001,-0.0008574039
0.4370001,-0.0009646958
0.4360001,-0.001073214
0.4350001,-0.001171616
0.4340001,-0.001271551
0.4330001,-0.001368726
0.4320001,-0.001460384
0.4310001,-0.001553575
0.4300001,-0.001640635
0.4290001,-0.001727388
0.4280001,-0.001812915
0.4270001,-0.001891391
0.4260001,-0.001972626
0.4250001,-0.002049264
0.4240001,-0.002122835
0.4230001,-0.002200085
0.4220001,-0.002271204
0.4210001,-0.002341097
0.4200001,-0.002411297
0.4190001,-0.002475672
0.4180001,-0.002544339
0.4170001,-0.002609327
0.4160001,-0.002671863
0.4150001,-0.002737464
0.4140001,-0.002797241
0.4130001,-0.002857631
0.4120001,-0.002920167
0.4110001,-0.002977185
0.4100001,-0.003043399
0.4090001,-0.003068431
0.4080001,-0.003120545
0.4070001,-0.003178789
0.4060001,-0.003230902
0.4050001,-0.003289146
0.4040001,-0.003344325
0.4030001,-0.003396438
0.4020001,-0.003451617
0.4010001,-0.003506796
0.4000001,-0.003561974
0.3990001,-0.003617153
0.3980001,-0.003669266
0.3970001,-0.003724444
0.3960001,-0.003782689
0.3950001,-0.003831736
0.3940001,-0.003886915
0.3930001,-0.003942094
0.3920001,-0.003991141
0.3910001,-0.004049386
0.3900001,-0.004104564
0.3890001,-0.004156678
0.3880001,-0.004211857
0.3870001,-0.00426397
0.3860001,-0.004319148
0.3850001,-0.004371261
0.3840001,-0.00442644
0.3830001,-0.004481619
0.3820001,-0.004530666
0.3810001,-0.00458891
0.3800001,-0.004644089
0.3790001,-0.004696202
0.3780001,-0.004754446
0.3770001,-0.004809625
0.3760001,-0.004861739
0.3750001,-0.004923048
0.3740001,-0.004975162
0.3730001,-0.005027275
0.3720001,-0.005088584
0.3710001,-0.005143763
0.3700001,-0.005198942
0.3690001,-0.00525412
0.3680001,-0.005309299
0.3670001,-0.005367543
0.3660001,-0.005422722
0.3650001,-0.0054779
0.3640001,-0.005536145
0.3630001,-0.005591323
0.3620001,-0.005646502
0.3610001,-0.005704746
0.3600001,-0.005759925
0.3590001,-0.005818169
0.3580001,-0.005876414
0.3570001,-0.005931592
0.3560001,-0.005986771
0.3550001,-0.006038884
0.3540001,-0.006097128
0.3530001,-0.006152307
0.3520001,-0.006207486
0.3510001,-0.00626573
0.3500001,-0.006317842
0.3490001,-0.006373021
0.3480001,-0.0064282
0.3470001,-0.006483379
0.3460001,-0.006538557
0.3450001,-0.006593736
0.3440001,-0.006645849
0.3430001,-0.006701028
0.3420001,-0.006750076
0.3410001,-0.006805255
0.3400001,-0.006857368
0.3390001,-0.006906416
0.3380001,-0.006961594
0.3370001,-0.007010642
0.3360001,-0.007056624
0.3350001,-0.007111803
0.3340001,-0.007157785
0.3330001,-0.007203767
0.3320001,-0.007252815
0.3310001,-0.007295732
0.3300001,-0.007341714
0.3290001,-0.007384631
0.3280001,-0.007421417
0.3270001,-0.007467398
0.3260001,-0.007504185
0.3250001,-0.007537905
0.3240001,-0.007574691
0.3230001,-0.007605345
0.3220001,-0.007636
0.3210001,-0.007663589
0.3200001,-0.007691179
0.3190001,-0.007712637
0.3180001,-0.00773103
0.3170001,-0.007746358
0.3160001,-0.00775862
0.3150001,-0.007761685
0.3140001,-0.007767816
0.3130001,-0.007767816
0.3120001,-0.007755554
0.3110001,-0.007746358
0.3100001,-0.007727965
0.3090001,-0.00769731
0.3080001,-0.00766972
0.3070001,-0.007632935
0.3060001,-0.007580821
0.3050001,-0.007522577
0.3040001,-0.007452071
0.3030001,-0.007372369
0.3020001,-0.007277339
0.3010001,-0.007176178
0.3000001,-0.007056624
0.2990001,-0.006921743
0.2980001,-0.006774599
0.2970001,-0.006612129
0.2960001,-0.0064282
0.2950001,-0.006228944
0.2940001,-0.006008229
0.2930001,-0.005762991
0.2920001,-0.005490162
0.2910001,-0.00518668
0.2900001,-0.004864804
0.2890001,-0.004536797
0.2880001,-0.004217987
0.2870001,-0.003926767
0.2860001,-0.003672331
0.2850001,-0.003451617
0.2840001,-0.003267688
0.2830001,-0.003108283
0.2820001,-0.002973401
0.2810001,-0.002856913
0.2800001,-0.002749621
0.2790001,-0.002657657
0.2780001,-0.002571823
0.2770001,-0.002495186
0.2760001,-0.002421614
0.2750001,-0.002354174
0.2740001,-0.002292864
0.2730001,-0.002237685
0.2720001,-0.002182507
0.2710001,-0.002133459
0.2700001,-0.002084411
0.2690001,-0.002038429
0.2680001,-0.001995512
0.2670001,-0.001955661
0.2660001,-0.001918875
0.2650001,-0.00188209
0.2640001,-0.001845304
0.2630001,-0.001811583
0.2620001,-0.001777863
0.2610001,-0.001747208
0.2600001,-0.001716554
0.2590001,-0.001688964
0.2580001,-0.001661375
0.2570001,-0.001633785
0.2560001,-0.001609262
0.2550001,-0.001621935
0.2540001,-0.001598025
0.2530001,-0.001575033
0.2520001,-0.001552655
0.2510001,-0.00153089
0.2500001,-0.001510045
0.2490001,-0.001489506
0.2480001,-0.001469581
0.2470001,-0.001450268
0.2460001,-0.001431569
0.2450001,-0.001413176
0.2440001,-0.001395703
0.2430001,-0.001378536
0.2420001,-0.001361982
0.2410001,-0.001345735
0.2400001,-0.001329488
0.2390001,-0.001314161
0.2380001,-0.001298833
0.2370001,-0.001284119
0.2360001,-0.001269711
0.2350001,-0.00125561
0.2340001,-0.001241815
0.2330001,-0.001228634
0.2320001,-0.001215452
0.2310001,-0.001202577
0.2300001,-0.001190315
0.2290001,-0.001177747
0.2280001,-0.001165791
0.2270001,-0.001153836
0.2260001,-0.001142494
0.2250001,-0.001131458
0.2240001,-0.001120422
0.2230001,-0.001109693
0.2220001,-0.001098657
0.2210001,-0.001088541
0.2200001,-0.001078425
0.2190001,-0.001068309
0.2180001,-0.0010585
0.2170001,-0.001048997
0.2160001,-0.001039494
0.2150001,-0.001030297
0.2140001,-0.001021101
0.2130001,-0.001012211
0.2120001,-0.001003321
0.2110001,-0.0009947375
0.2100001,-0.0009861541
0.2090001,-0.0009778773
0.2080001,-0.0009696006
0.2070001,-0.0009616303
0.2060001,-0.00095366
0.2050001,-0.0009459963
0.2040001,-0.0009383326
0.2030001,-0.0009306689
0.2020001,-0.0009233117
0.2010001,-0.0009162611
0.2000001,-0.000908904
0.1990001,-0.0009018534
0.1980001,-0.0008951093
0.1970001,-0.0008880587
0.1960001,-0.0008813146
0.1950001,-0.0008745705
0.1940001,-0.000868133
0.1930001,-0.0008616955
0.1920001,-0.000855258
0.1910001,-0.000849127
0.1900001,-0.0008426895
0.1890001,-0.0008365586
0.1880001,-0.0008307341
0.1870001,-0.0008246032
0.1860001,-0.0008187788
0.1850001,-0.0008132609
0.1840001,-0.0008074365
0.1830001,-0.0008019186
0.1820001,-0.0007964008
0.1810001,-0.0007908829
0.1800001,-0.0007856716
0.1790001,-0.0007801537
0.1780001,-0.0007749424
0.1770001,-0.000769731
0.1760001,-0.0007648263
0.1750001,-0.0007599215
0.1740001,-0.0007550167
0.1730001,-0.0007498054
0.1720001,-0.0007449006
0.1710001,-0.0007399959
0.1700001,-0.0007353976
0.1690001,-0.0007307994
0.1680001,-0.0007258946
0.1670001,-0.0007212964
0.1660001,-0.0007166982
0.1650001,-0.0007124065
0.1640001,-0.0007078083
0.1630001,-0.0007035166
0.1620001,-0.0006992249
0.1610001,-0.0006949333
0.1600001,-0.0006906416
0.1590001,-0.0006866565
0.1580001,-0.0006823648
0.1570001,-0.0006780731
0.1560001,-0.0006743945
0.1550001,-0.0006697963
0.1540001,-0.0006661177
0.1530001,-0.0006621326
0.1520001,-0.0006581475
0.1510001,-0.0006541623
0.1500001,-0.0006504838
0.1490001,-0.0006464986
0.1480001,-0.00064282
0.1470001,-0.0006391415
0.1460001,-0.0006354629
0.1450001,-0.0006317843
0.1440001,-0.0006281057
0.1430001,-0.0006247337
0.1420001,-0.0006210551
0.1410001,-0.0006176831
0.1400001,-0.0006140045
0.1390001,-0.0006106325
0.1380001,-0.0006072604
0.1370001,-0.0006038884
0.1360001,-0.0006005164
0.1350001,-0.0005971444
0.1340001,-0.0005937723
0.1330001,-0.0005907068
0.1320001,-0.0005876414
0.1310001,-0.0005842693
0.1300001,-0.0005812038
0.1290001,-0.0005781384
0.1280001,-0.0005750729
0.1270001,-0.0005720074
0.1260001,-0.0005689419
0.1250001,-0.0005658764
0.1240001,-0.0005631176
0.1230001,-0.000560052
0.1220001,-0.0005569865
0.1210001,-0.0005542276
0.1200001,-0.0005514687
0.1190001,-0.0005487097
0.1180001,-0.0005459508
0.1170001,-0.0005431919
0.1160001,-0.0005404329
0.1150001,-0.000537674
0.1140001,-0.0005352216
0.1130001,-0.0005324627
0.1120001,-0.0005300103
0.1110001,-0.0005275579
0.1100001,-0.0005247989
0.1090001,-0.0005223466
0.1080001,-0.0005198942
0.1070001,-0.0005174418
0.1060001,-0.0005149894
0.1050001,-0.000512537
0.1040001,-0.0005100847
0.1030001,-0.0005079389
0.1020001,-0.0005054864
0.1010001,-0.0005033406
0.1000001,-0.0005011947
0.0990001,-0.0004987424
0.09800009,-0.0004965966
0.09700009,-0.0004941442
0.0960001,-0.0004919983
0.0950001,-0.0004898525
0.09400009,-0.0004877066
0.0930001,-0.0004852542
0.0920001,-0.0004834149
0.0910001,-0.0004809626
0.09000009,-0.0004791233
0.0890001,-0.0004769774
0.0880001,-0.0004748316
0.08700009,-0.0004726858
0.08600009,-0.0004708465
0.0850001,-0.0004687006
0.0840001,-0.0004668614
0.08300009,-0.0004647155
0.08200009,-0.0004628762
0.0810001,-0.000461037
0.0800001,-0.0004591976
0.07900009,-0.0004573583
0.0780001,-0.0004552125
0.0770001,-0.0004533732
0.07600009,-0.0004515339
0.07500009,-0.0004496947
0.0740001,-0.0004478553
0.0730001,-0.0004460161
0.07200009,-0.0004441768
0.07100009,-0.000442644
0.0700001,-0.0004411113
0.0690001,-0.000439272
0.06800009,-0.0004374327
0.0670001,-0.0004355934
0.0660001,-0.0004340607
0.06500009,-0.0004322214
0.06400009,-0.0004306886
0.0630001,-0.0004291559
0.0620001,-0.0004273166
0.06100009,-0.0004257839
0.0600001,-0.0004242511
0.0590001,-0.0004224119
0.0580001,-0.0004208791
0.0570001,-0.0004193464
0.05600009,-0.0004178136
0.0550001,-0.0004162809
0.05400009,-0.0004147482
0.0530001,-0.0004132154
0.05200009,-0.0004116826
0.0510001,-0.0004101499
0.05000009,-0.0004086172
0.0490001,-0.0004070844
0.04800009,-0.0004058582
0.0470001,-0.0004043255
0.0460001,-0.0004027928
0.04500009,-0.00040126
0.0440001,-0.0003997273
0.04300009,-0.0003985011
0.0420001,-0.0003969684
0.04100009,-0.0003954356
0.0400001,-0.0003942094
0.03900009,-0.0003926767
0.0380001,-0.0003914505
0.03700009,-0.0003899177
0.0360001,-0.0003889981
0.0350001,-0.0003874653
0.03400009,-0.0003862391
0.0330001,-0.0003850129
0.03200009,-0.0003834802
0.03100009,-0.000382254
0.0300001,-0.0003810278
0.0290001,-0.0003798016
0.0280001,-0.0003785754
0.0270001,-0.0003773492
0.0260001,-0.0003761231
0.0250001,-0.0003748969
0.0240001,-0.0003736707
0.0230001,-0.0003724445
0.02200009,-0.0003709117
0.02100009,-0.0003699921
0.02000009,-0.0003687659
0.0190001,-0.0003675397
0.0180001,-0.0003663135
0.0170001,-0.0003650873
0.0160001,-0.0003638611
0.0150001,-0.0003629415
0.0140001,-0.0003617153
0.0130001,-0.0003604891
0.0120001,-0.0003592629
0.01100009,-0.0003583433
0.0100001,-0.0003571171
0.009000096,-0.0003561974
0.008000095,-0.0003549712
0.007000095,-0.0003540516
0.006000096,-0.0003528254
0.005000095,-0.0003519058
0.004000095,-0.0003506796
0.003000095,-0.0003497599
0.002000095,-0.0003485337
0.001000095,-0.0003476141
9.536743E-08,-0.0003427093
0.0009999046,-0.0003362718
0.001999905,-0.0003304474
0.002999905,-0.000325236
0.003999905,-0.0003203313
0.004999904,-0.0003160396
0.005999905,-0.0003117479
0.006999905,-0.0003074562
0.007999904,-0.0003037777
0.008999905,-0.0003000991
0.009999905,-0.0002964205
0.0109999,-0.0002930485
0.0119999,-0.0002896764
0.0129999,-0.000286611
0.0139999,-0.0002835455
0.0149999,-0.0002807866
0.0159999,-0.0002777211
0.0169999,-0.0002746556
0.0179999,-0.0002718967
0.0189999,-0.0002694443
0.0199999,-0.0002666853
0.0209999,-0.0002642329
0.0219999,-0.0002617805
0.02299991,-0.0002593282
0.02399991,-0.0002568758
0.02499991,-0.0002544234
0.02599991,-0.0002522776
0.0269999,-0.0002498252
0.0279999,-0.0002476793
0.0289999,-0.000245227
0.0299999,-0.0002433877
0.0309999,-0.0002409353
0.0319999,-0.000239096
0.0329999,-0.0002369501
0.0339999,-0.0002348043
0.0349999,-0.000232965
0.03599991,-0.0002308192
0.0369999,-0.0002289799
0.03799991,-0.0002271406
0.0389999,-0.0002253013
0.03999991,-0.000223462
0.0409999,-0.0002216227
0.04199991,-0.0002197834
0.0429999,-0.0002182507
0.0439999,-0.0002164114
0.0449999,-0.0002145721
0.0459999,-0.0002130394
0.04699991,-0.0002112001
0.0479999,-0.0002096674
0.04899991,-0.0002078281
0.0499999,-0.0002062953
0.05099991,-0.0002047626
0.0519999,-0.0002032298
0.05299991,-0.0002016971
0.0539999,-0.0001998578
0.0549999,-0.0001983251
0.0559999,-0.0001970989
0.0569999,-0.0001955661
0.05799991,-0.0001940334
0.0589999,-0.0001925007
0.05999991,-0.0001909679
0.0609999,-0.0001894352
0.06199991,-0.000188209
0.0629999,-0.0001866762
0.06399991,-0.0001851435
0.06499991,-0.0001839173
0.0659999,-0.0001823845
0.0669999,-0.0001811584
0.06799991,-0.0001796256
0.0689999,-0.0001783994
0.0699999,-0.0001771732
0.07099991,-0.0001756405
0.07199991,-0.0001744143
0.0729999,-0.0001731881
0.0739999,-0.0001719619
0.07499991,-0.0001707357
0.07599991,-0.000169203
0.0769999,-0.0001682833
0.0779999,-0.0001667506
0.07899991,-0.0001655244
0.0799999,-0.0001642982
0.0809999,-0.000163072
0.08199991,-0.0001618458
0.08299991,-0.0001606196
0.0839999,-0.0001630825
0.0849999,-0.0001619789
0.08599991,-0.0001607834
0.08699991,-0.0001595879
0.0879999,-0.0001585149
0.0889999,-0.0001574114
0.08999991,-0.0001562771
0.0909999,-0.0001552042
0.0919999,-0.0001540393
0.09299991,-0.0001529971
0.09399991,-0.0001519241
0.0949999,-0.0001508512
0.0959999,-0.000149717
0.09699991,-0.0001487054
0.09799991,-0.0001476631
0.0989999,-0.0001466209
0.0999999,-0.0001455173
0.1009999,-0.0001445057
0.1019999,-0.0001434634
0.1029999,-0.0001424518
0.1039999,-0.0001414402
0.1049999,-0.0001404592
0.1059999,-0.000139417
0.1069999,-0.0001384667
0.1079999,-0.0001374857
0.1089999,-0.0001365661
0.1099999,-0.0001356771
0.1109999,-0.0001347575
0.1119999,-0.0001337765
0.1129999,-0.0001328875
0.1139999,-0.0001319372
0.1149999,-0.0001310176
0.1159999,-0.0001300366
0.1169999,-0.000129117
0.1179999,-0.000128228
0.1189999,-0.0001272777
0.1199999,-0.0001263887
0.1209999,-0.0001255304
0.1219999,-0.0001246107
0.1229999,-0.0001238137
0.1239999,-0.000122894
0.1249999,-0.0001221277
0.1259999,-0.0001213306
0.1269999,-0.000120503
0.1279999,-0.0001197059
0.1289999,-0.0001188169
0.1299999,-0.0001180199
0.1309999,-0.0001171922
0.1319999,-0.0001163646
0.1329999,-0.0001155982
0.1339999,-0.0001148012
0.1349999,-0.0001139122
0.1359999,-0.0001131458
0.1369999,-0.0001123488
0.1379999,-0.0001115517
0.1389999,-0.000110816
0.1399999,-0.0001099884
0.1409999,-0.000109222
0.1419999,-0.0001084863
0.1429999,-0.0001076586
0.1439999,-0.0001069535
0.1449999,-0.0001062178
0.1459999,-0.0001054821
0.1469999,-0.0001047157
0.1479999,-0.0001039494
0.1489999,-0.0001032749
0.1499999,-0.0001025086
0.1509999,-0.0001017729
0.1519999,-0.0001010678
0.1529999,-0.0001003321
0.1539999,-9.959636E-05
0.1549999,-9.895261E-05
0.1559999,-9.821689E-05
0.1569999,-9.751183E-05
0.1579999,-9.686808E-05
0.1589999,-9.610171E-05
0.1599999,-9.539664E-05
0.1609999,-9.484487E-05
0.1619999,-9.407849E-05
0.1629999,-9.346539E-05
0.1639999,-9.282165E-05
0.1649999,-9.211658E-05
0.1659999,-9.150348E-05
0.1669999,-9.082907E-05
0.1679999,-9.021599E-05
0.1689999,-8.957223E-05
0.1699999,-8.892849E-05
0.1709999,-8.831538E-05
0.1719999,-8.764098E-05
0.1729999,-8.705854E-05
0.1739999,-8.641478E-05
0.1749999,-8.577103E-05
0.1759999,-8.521925E-05
0.1769999,-8.454484E-05
0.1779999,-8.39624E-05
0.1789999,-8.341061E-05
0.1799999,-8.27362E-05
0.1809999,-8.215377E-05
0.1819999,-8.151001E-05
0.1829999,-8.095823E-05
0.1839999,-8.040644E-05
0.1849999,-7.9824E-05
0.1859999,-7.918024E-05
0.1869999,-7.85978E-05
0.1879999,-7.801536E-05
0.1889999,-7.743292E-05
0.1899999,-7.688113E-05
0.1909999,-7.632935E-05
0.1919999,-7.571625E-05
0.1929999,-7.516446E-05
0.1939999,-7.458202E-05
0.1949999,-7.409155E-05
0.1959999,-7.344779E-05
0.1969999,-7.289601E-05
0.1979999,-7.237487E-05
0.1989999,-7.182309E-05
0.1999999,-7.12713E-05
0.2009999,-7.071951E-05
0.2019999,-7.016773E-05
0.2029999,-6.964659E-05
0.2039999,-6.909481E-05
0.2049999,-6.857367E-05
0.2059999,-6.802189E-05
0.2069999,-6.750075E-05
0.2079999,-6.694897E-05
0.2089999,-6.639718E-05
0.2099999,-6.590671E-05
0.2109999,-6.538557E-05
0.2119999,-6.486444E-05
0.2129999,-6.4282E-05
0.2139999,-6.376087E-05
0.2149999,-6.320909E-05
0.2159999,-6.27186E-05
0.2169999,-6.213617E-05
0.2179999,-6.161503E-05
0.2189999,-6.10939E-05
0.2199999,-6.060342E-05
0.2209999,-6.011295E-05
0.2219999,-5.959181E-05
0.2229999,-5.904003E-05
0.2239999,-5.854955E-05
0.2249999,-5.808972E-05
0.2259999,-5.753794E-05
0.2269999,-5.707812E-05
0.2279999,-5.652633E-05
0.2289999,-5.60052E-05
0.2299999,-5.554538E-05
0.2309999,-5.499359E-05
0.2319999,-5.456442E-05
0.2329999,-5.416591E-05
0.2339999,-5.364477E-05
0.2349999,-5.318495E-05
0.2359999,-5.269448E-05
0.2369999,-5.2204E-05
0.2379999,-5.165222E-05
0.2389999,-5.119239E-05
0.2399999,-5.067126E-05
0.2409999,-5.021143E-05
0.2419999,-4.965965E-05
0.2429999,-4.919983E-05
0.2439999,-4.86787E-05
0.2449999,-4.818822E-05
0.2459999,-4.772839E-05
0.2469999,-4.720726E-05
0.2479999,-4.671679E-05
0.2489999,-4.625697E-05
0.2499999,-4.579714E-05
0.2509999,-4.536797E-05
0.2519999,-4.484684E-05
0.2529999,-4.441768E-05
0.2539999,-4.39272E-05
0.2549999,-4.343672E-05
0.2559999,-4.29769E-05
0.2569999,-4.251707E-05
0.2579999,-4.199594E-05
0.2589999,-4.147481E-05
0.2599999,-4.095368E-05
0.2609999,-4.04632E-05
0.2619999,-3.994207E-05
0.2629999,-3.945159E-05
0.2639999,-3.896112E-05
0.2649999,-3.843998E-05
0.2659999,-3.78882E-05
0.2669999,-3.745903E-05
0.2679999,-3.684593E-05
0.2689999,-3.635546E-05
0.2699999,-3.583432E-05
0.2709999,-3.528254E-05
0.2719999,-3.47614E-05
0.2729999,-3.433224E-05
0.2739999,-3.374979E-05
0.2749999,-3.322866E-05
0.2759999,-3.264622E-05
0.2769999,-3.209443E-05
0.2779999,-3.160396E-05
0.2789999,-3.111348E-05
0.2799999,-3.053104E-05
0.2809999,-3.000991E-05
0.2819999,-2.948877E-05
0.2829999,-2.893699E-05
0.2839999,-2.835455E-05
0.2849999,-2.77721E-05
0.2859999,-2.718966E-05
0.2869999,-2.651526E-05
0.2879999,-2.593282E-05
0.2889999,-2.528906E-05
0.2899999,-2.467597E-05
0.2909999,-2.415484E-05
0.2919999,-2.338846E-05
0.2929999,-2.26834E-05
0.2939999,-2.203965E-05
0.2949999,-2.13959E-05
0.2959999,-2.066019E-05
0.2969999,-1.998578E-05
0.2979999,-1.921941E-05
0.2989999,-1.857566E-05
0.2999999,-1.783994E-05
0.3009999,-1.707357E-05
0.3019999,-1.633786E-05
0.3029999,-1.554083E-05
0.3039999,-1.480511E-05
0.3049999,-1.397743E-05
0.3059999,-1.318041E-05
0.3069999,-1.253771E-05
0.3079999,-1.165791E-05
0.3089999,-1.082104E-05
0.3099999,-9.959636E-06
0.3109999,-9.012402E-06
0.3119999,-8.151002E-06
0.3129999,-7.203767E-06
0.3139999,-6.182961E-06
0.3149999,-5.241858E-06
0.3159999,-4.165874E-06
0.3169999,-3.12361E-06
0.3179999,-2.130394E-06
0.3189999,-1.011492E-06
0.3199999,1.104741E-07
0.3209999,1.186458E-06
0.3219999,2.418783E-06
0.3229999,3.51316E-06
0.3239999,4.834383E-06
0.3249999,6.063641E-06
0.3259999,7.424715E-06
0.3269999,8.865492E-06
0.3279999,1.016832E-05
0.3289999,1.163362E-05
0.3299999,1.321541E-05
0.3309999,1.468684E-05
0.3319999,1.636673E-05
0.3329999,1.804355E-05
0.3339999,1.968664E-05
0.3349999,2.16271E-05
0.3359999,2.342041E-05
0.3369999,2.56286E-05
0.3379999,2.759051E-05
0.3389999,2.967504E-05
0.3399999,3.197415E-05
0.3409999,3.415065E-05
0.3419999,3.644975E-05
0.3429999,3.896345E-05
0.3439999,4.147715E-05
0.3449999,4.420543E-05
0.3459999,4.714829E-05
0.3469999,5.002984E-05
0.3479999,5.343253E-05
0.3489999,5.67739E-05
0.3499999,6.032986E-05
0.3509999,6.43763E-05
0.3519999,6.842274E-05
0.3529999,7.283704E-05
0.3539999,7.77418E-05
0.3549999,8.270788E-05
0.3559999,8.831772E-05
0.3569999,9.429541E-05
0.3579999,0.0001007329
0.3589999,0.0001078448
0.3599999,0.0001153246
0.3609999,0.0001236014
0.3619999,0.0001326446
0.3629999,0.0001423009
0.3639999,0.0001533672
0.3649999,0.0001650774
0.3659999,0.000178075
0.3669999,0.00019282
0.3679999,0.0002087605
0.3689999,0.0002270921
0.3699999,0.0002480294
0.3709999,0.0002717868
0.3719999,0.000299744
0.3729999,0.0003353755
0.3739999,0.0003730809
0.3749999,0.0004181435
0.3759999,0.0004702567
0.3769999,0.0005312599
0.3779999,0.0006017659
0.3789999,0.0006802423
0.3799999,0.0007682217
0.3809999,0.0008620254
0.3819999,0.0009622668
0.3829999,0.001067719
0.3839999,0.001175011
0.3849999,0.001286288
0.3859999,0.001398791
0.3869999,0.001511908
0.3879999,0.001627476
0.3889999,0.001742125
0.3899999,0.001858614
0.3909999,0.001976941
0.3919999,0.002094963
0.3929999,0.002216662
0.3939999,0.002339588
0.3949999,0.002464353
0.3959999,0.002593104
0.3969999,0.002724919
0.3979999,0.002860107
0.3989999,0.00299836
0.3999999,0.003169826
0.4009999,0.003313903
0.4019999,0.003464112
0.4029999,0.003617386
0.4039999,0.003776791
0.4049999,0.003936196
0.4059999,0.004104798
0.4069999,0.004276465
0.4079999,0.004448132
0.4089999,0.004632061
0.4099999,0.004822121
0.4109999,0.005002984
0.4119999,0.005193044
0.4129999,0.005383104
0.4139999,0.00557623
0.4149999,0.005775486
0.4159999,0.005974742
0.4169999,0.006173999
0.4179999,0.006379386
0.4189999,0.006581707
0.4199999,0.006784029
0.4209999,0.006992483
0.4219999,0.007194804
0.4229999,0.007403257
0.4239999,0.007608644
0.4249999,0.007810966
0.4259999,0.008013288
0.4269999,0.008209479
0.4279999,0.008408736
0.4289999,0.008601861
0.4299999,0.008794987
0.4309999,0.00898198
0.4319999,0.00916591
0.4329999,0.009346773
0.4339999,0.009521506
0.4349999,0.009690107
0.4359999,0.009855643
0.4369999,0.01001198
0.4379999,0.01016526
0.4389999,0.0103124
0.4399999,0.01044728
0.4409999,0.01058523
0.4419999,0.01071091
0.4429999,0.0108274
0.4439999,0.01094695
0.4449999,0.01105118
0.4459999,0.01114928
0.4469999,0.01124431
0.4479999,0.01133014
0.4489999,0.01141291
0.4499999,0.01148648
0.4509999,0.01156005
0.4519999,0.01163056
0.4529999,0.0116888
0.4539999,0.01175011
0.4549999,0.01180529
0.4559999,0.0118574
0.4569999,0.01190338
0.4579999,0.01194937
0.4589999,0.01199228
0.4599999,0.01202907
0.4609999,0.01206892
0.4619999,0.01210571
0.4629999,0.01213636
0.4639999,0.01216395
0.4649999,0.01219767
0.4659999,0.01221606
0.4669999,0.01224059
0.4679999,0.01227124
0.4689999,0.01228657
0.4699999,0.01230803
0.4709999,0.01232949
0.4719999,0.01234175
0.4729999,0.01235708
0.4739999,0.01238467
0.4749999,0.01239693
0.4759999,0.01241839
0.4769999,0.01244291
0.4779999,0.01246437
0.4789999,0.01249502
0.4799999,0.01252568
0.4809999,0.01256246
0.4819999,0.01260538
0.4829999,0.01265749
0.4839999,0.01271267
0.4849999,0.01277398
0.4859999,0.01284755
0.4869999,0.01293032
0.4879999,0.01301615
0.4889999,0.01312038
0.4899999,0.01323074
0.4909999,0.01335336
0.4919999,0.01348824
0.4929999,0.01362312
0.4939999,0.01378559
0.4949999,0.01394806
0.4959999,0.0141136
0.4969999,0.01430979
0.4979999,0.01450598
0.4989999,0.01470524
0.4999999,0.01493515
0.5009999,0.0151528
0.5019999,0.01538577
0.5029999,0.01563714
0.5039999,0.01588238
0.5049999,0.01614295
0.5059999,0.01641884
0.5069999,0.0166886
0.5079999,0.01697063
0.5089999,0.01726185
0.5099999,0.01755307
0.5109999,0.01785655
0.5119999,0.01816923
0.5129999,0.01847578
0.5139999,0.01879459
0.5149999,0.01911647
0.5159999,0.01944754
0.5169999,0.01977248
0.5179999,0.02011275
0.5189999,0.02044995
0.5199999,0.02078716
0.5209999,0.02113969
0.5219999,0.02148608
0.5229999,0.02183555
0.5239999,0.02219728
0.5249999,0.02255287
0.5259999,0.02290847
0.5269999,0.02327939
0.5279999,0.02364418
0.5289999,0.02401204
0.5299999,0.02438603
0.5309999,0.02476002
0.5319999,0.02513401
0.5329999,0.02551106
0.5339999,0.02589118
0.5349999,0.02626824
0.5359999,0.02665449
0.5369999,0.02704074
0.5379999,0.02742086
0.5389999,0.02781324
0.5399999,0.02820256
0.5409999,0.02859187
0.5419999,0.02899038
0.5429999,0.02938277
0.5439999,0.02977515
0.5449999,0.03017979
0.5459999,0.0313304
0.5469999,0.03172891
0.5479999,0.03212743
0.5489999,0.03252594
0.5499999,0.03295511
0.5509999,0.03335362
0.5519999,0.03375213
0.5529999,0.0341813
0.5539999,0.03457981
0.5549999,0.03500898
0.5559999,0.03543815
0.5569999,0.03583666
0.5579999,0.03623517
0.5589999,0.03666434
0.5599999,0.03709351
0.5609999,0.03752267
0.5619999,0.03792119
0.5629999,0.03835035
0.5639999,0.03877952
0.5649999,0.03920869
0.5659999,0.03963786
0.5669999,0.04003637
0.5679999,0.04046554
0.5689999,0.04089471
0.5699999,0.04132387
0.5709999,0.04175304
0.5719999,0.04218221
0.5729999,0.04261138
0.5739999,0.04304054
0.5749999,0.04346971
0.5759999,0.04392953
0.5769999,0.0443587
0.5779999,0.04478787
0.5789999,0.04521704
0.5799999,0.04567686
0.5809999,0.04610603
0.5819999,0.04653519
0.5829999,0.04696436
0.5839999,0.04742418
0.5849999,0.04785335
0.5859999,0.04828252
0.5869999,0.04871169
0.5879999,0.04914085
0.5889999,0.04957002
0.5899999,0.05002984
0.5909999,0.05045901
0.5919999,0.05088818
0.5929999,0.05131735
0.5939999,0.05177717
0.5949999,0.05220634
0.5959999,0.05266616
0.5969999,0.05309533
0.5979999,0.05352449
0.5989999,0.05398431
0.5999999,0.05441349
0.6009999,0.05484265
0.6019999,0.05530247
0.6029999,0.0557623
0.6039999,0.05619146
0.6049999,0.05665129
0.6059999,0.05711111
0.6069999,0.05754028
0.6079999,0.0580001
0.6089999,0.05842927
0.6099999,0.05888909
0.6109999,0.05934891
0.6119999,0.05977808
0.6129999,0.06020725
0.6139999,0.06069772
0.6149999,0.06112689
0.6159999,0.06158672
0.6169999,0.06204654
0.6179999,0.06247571
0.6189999,0.06293552
0.6199999,0.06339534
0.6209999,0.06382452
0.6219999,0.06431499
0.6229999,0.06477482
0.6239999,0.06520399
0.6249999,0.06566381
0.6259999,0.06612363
0.6269999,0.0665528
0.6279999,0.06704327
0.6289999,0.06747244
0.6299999,0.06793226
0.6309999,0.06842274
0.6319999,0.06885191
0.6329999,0.06931173
0.6339999,0.06977155
0.6349999,0.07020072
0.6359999,0.0706912
0.6369999,0.07115102
0.6379999,0.07158019
0.6389999,0.07204001
0.6399999,0.07253049
0.6409999,0.07295965
0.6419999,0.07341947
0.6429999,0.07387929
0.6439999,0.07430847
0.6449999,0.07479894
0.6459999,0.07525877
0.6469999,0.07571859
0.6479999,0.07617841
0.6489999,0.07663824
0.6499999,0.07709806
0.6509999,0.07755788
0.6519999,0.0780177
0.6529999,0.07847752
0.6539999,0.078968
0.6549999,0.07939716
0.6559999,0.07988765
0.6569999,0.08034747
0.6579999,0.08077663
0.6589999,0.08126711
0.6599999,0.08172693
0.6609999,0.08215611
0.6619999,0.08264658
0.6629999,0.0831064
0.6639999,0.08353557
0.6649999,0.08402605
0.6659999,0.08448587
0.6669999,0.08497635
0.6679999,0.08546682
0.6689999,0.08589599
0.6699999,0.08638646
0.6709999,0.08684629
0.6719999,0.08730611
0.6729999,0.08779659
0.6739999,0.08825641
0.6749999,0.08868558
0.6759999,0.08917606
0.6769999,0.08963588
0.6779999,0.0900957
0.6789999,0.09058618
0.6799999,0.091046
0.6809999,0.09150583
0.6819999,0.09196565
0.6829999,0.09242547
0.6839999,0.09291594
0.6849999,0.09337576
0.6859999,0.09383559
0.6869999,0.09432607
0.6879999,0.09478589
0.6889999,0.09524571
0.6899999,0.09573619
0.6909999,0.09616536
0.6919999,0.09665584
0.6929999,0.09714631
0.6939999,0.09757548
0.6949999,0.09806596
0.6959999,0.09855644
0.6969999,0.0989856
0.6979999,0.09947608
0.6989999,0.09996656
0.6999999,0.1000585
0.6990002,0.0995987
0.6980002,0.09916953
0.6970002,0.09867906
0.6960002,0.09821923
0.6950002,0.09775941
0.6940002,0.09729959
0.6930002,0.09683976
0.6920002,0.09641059
0.6910002,0.09592012
0.6900002,0.09542964
0.6890002,0.09503113
0.6880002,0.09454065
0.6870002,0.09405018
0.6860002,0.09365166
0.6850002,0.09313053
0.6840002,0.09267071
0.6830002,0.09221088
0.6820002,0.09175106
0.6810002,0.09129124
0.6800002,0.09083142
0.6790002,0.0903716
0.6780002,0.08991177
0.6770002,0.08945195
0.6760002,0.08899213
0.6750002,0.08853231
0.6740002,0.08807249
0.6730002,0.08761266
0.6720002,0.08715284
0.6710002,0.08666236
0.6700002,0.08623319
0.6690002,0.08577337
0.6680002,0.08531355
0.6670002,0.08485373
0.6660002,0.0843939
0.6650002,0.08393408
0.6640002,0.08347426
0.6630002,0.08301444
0.6620002,0.08255462
0.6610002,0.08212545
0.6600002,0.08163497
0.6590002,0.08123646
0.6580002,0.08074598
0.6570002,0.08028616
0.6560002,0.07985699
0.6550002,0.07939716
0.6540002,0.07893734
0.6530002,0.07847752
0.6520002,0.07804836
0.6510002,0.07755788
0.6500002,0.07709806
0.6490002,0.07666889
0.6480002,0.07617841
0.6470002,0.07574924
0.6460002,0.07528942
0.6450002,0.0748296
0.6440002,0.07440043
0.6430002,0.0739406
0.6420002,0.07348078
0.6410002,0.07302096
0.6400002,0.07256114
0.6390002,0.07213198
0.6380002,0.07167216
0.6370002,0.07121233
0.6360002,0.07078316
0.6350002,0.07029268
0.6340002,0.06983286
0.6330002,0.0694037
0.6320002,0.06894387
0.6310002,0.06848405
0.6300002,0.06805488
0.6290002,0.06756441
0.6280002,0.06713524
0.6270002,0.06670607
0.6260002,0.06624625
0.6250002,0.06578642
0.6240002,0.06535726
0.6230002,0.06489744
0.6220002,0.06446826
0.6210002,0.06400844
0.6200002,0.06354862
0.6190002,0.06311946
0.6180002,0.06265964
0.6170002,0.06219981
0.6160002,0.06177064
0.6150002,0.06131082
0.6140002,0.06088165
0.6130002,0.06045249
0.6120002,0.059962
0.6110002,0.05953284
0.6100002,0.05910368
0.6090002,0.05864385
0.6080002,0.05821468
0.6070002,0.05775486
0.6060002,0.05732569
0.6050002,0.05689653
0.6040002,0.0564367
0.6030002,0.05600753
0.6020002,0.05554771
0.6010002,0.05511854
0.6000002,0.05465872
0.5990002,0.05422956
0.5980002,0.05380039
0.5970002,0.05334057
0.5960002,0.0529114
0.5950002,0.05248223
0.5940002,0.05199176
0.5930002,0.05159324
0.5920002,0.05116407
0.5910002,0.05070425
0.5900002,0.05027508
0.5890002,0.04984592
0.5880002,0.04941675
0.5870002,0.04898758
0.5860002,0.04855841
0.5850002,0.04812925
0.5840002,0.04770008
0.5830002,0.04724025
0.5820002,0.04681109
0.5810002,0.04638192
0.5800002,0.04595275
0.5790002,0.04552358
0.5780002,0.04506376
0.5770002,0.0446346
0.5760002,0.04423608
0.5750002,0.04377626
0.5740002,0.04337775
0.5730002,0.04294858
0.5720002,0.04248876
0.5710002,0.04209024
0.5700002,0.04166108
0.5690002,0.04123191
0.5680002,0.04080274
0.5670002,0.04040423
0.5660002,0.03997506
0.5650002,0.03954589
0.5640002,0.03911673
0.5630002,0.03868756
0.5620002,0.03828905
0.5610002,0.03782922
0.5600002,0.03743071
0.5590002,0.03700154
0.5580002,0.03657238
0.5570002,0.03617386
0.5560002,0.03574469
0.5550002,0.03534618
0.5540002,0.03491702
0.5530002,0.0345185
0.5520002,0.03411999
0.5510002,0.03369082
0.5500002,0.03326165
0.5490002,0.03286314
0.5480002,0.03243398
0.5470002,0.03203546
0.5460002,0.03163695
0.5450002,0.03123844
0.5440002,0.03080927
0.5430002,0.03041076
0.5420002,0.03001224
0.5410002,0.02958308
0.5400002,0.02918456
0.5390002,0.02878605
0.5380002,0.02838754
0.5370002,0.02798902
0.5360002,0.02759051
0.5350002,0.027192
0.5340002,0.02679349
0.5330002,0.02639497
0.5320002,0.02599646
0.5310002,0.0256286
0.5300002,0.02523009
0.5290002,0.02483158
0.5280002,0.02446372
0.5270002,0.02406521
0.5260002,0.02366669
0.5250002,0.02329884
0.5240002,0.02290032
0.5230002,0.02253246
0.5220002,0.02213395
0.5210002,0.02176609
0.5200002,0.02136758
0.5190002,0.02099972
0.5180002,0.02063187
0.5170002,0.02023335
0.5160002,0.01989615
0.5150002,0.01949764
0.5140002,0.01916043
0.5130002,0.01876192
0.5120002,0.01842472
0.5110002,0.01805686
0.5100002,0.017689
0.5090002,0.01732115
0.5080002,0.01695329
0.5070002,0.01661608
0.5060002,0.01624822
0.5050002,0.01591102
0.5040002,0.01554316
0.5030002,0.01520596
0.5020002,0.01486876
0.5010002,0.0145009
0.5000002,0.0141637
0.4990002,0.01382649
0.4980002,0.01348929
0.4970002,0.01315209
0.4960002,0.01232642
0.4950002,0.01200148
0.4940002,0.01168574
0.4930002,0.01136079
0.4920002,0.01104198
0.4910002,0.01072931
0.4900002,0.01041356
0.4890002,0.01010701
0.4880002,0.009800464
0.4870002,0.009493916
0.4860002,0.009196565
0.4850002,0.008899212
0.4840002,0.008601861
0.4830002,0.008313705
0.4820002,0.00802555
0.4810002,0.007737394
0.4800002,0.007458436
0.4790002,0.007179477
0.4780002,0.006903583
0.4770002,0.006633821
0.4760002,0.006367124
0.4750002,0.006100427
0.4740002,0.005839861
0.4730002,0.005582361
0.4720002,0.005330991
0.4710002,0.005079621
0.4700002,0.004840514
0.4690002,0.00459834
0.4680002,0.004362299
0.4670002,0.004129322
0.4660002,0.003899411
0.4650002,0.00367563
0.4640002,0.003457981
0.4630002,0.003240332
0.4620002,0.003028814
0.4610002,0.002820361
0.4600002,0.002618039
0.4590002,0.002424913
0.4580002,0.002225657
0.4570002,0.002035597
0.4560002,0.001857799
0.4550002,0.00167387
0.4540002,0.001499138
0.4530002,0.001327471
0.4520002,0.001158869
0.4510002,0.0009668649
0.4500002,0.0008080729
0.4490002,0.0006535726
0.4480002,0.0005045901
0.4470002,0.0003571404
0.4460002,0.0002173544
0.4450002,8.063387E-05
0.4440002,-5.394082E-05
0.4430002,-0.0001845102
0.4420002,-0.0003112373
0.4410002,-0.0004322214
0.4400002,-0.0005477901
0.4390002,-0.0006639719
0.4380002,-0.0007721835
0.4370002,-0.000881008
0.4360002,-0.0009867672
0.4350002,-0.00108333
0.4340002,-0.001181732
0.4330002,-0.001279214
0.4320002,-0.001369646
0.4310002,-0.001460691
0.4300002,-0.001545911
0.4290002,-0.001631132
0.4280002,-0.001716046
0.4270002,-0.00179207
0.4260002,-0.001872079
0.4250002,-0.001947183
0.4240002,-0.002019222
0.4230002,-0.002094326
0.4220002,-0.002163913
0.4210002,-0.002232273
0.4200002,-0.002300633
0.4190002,-0.002363782
0.4180002,-0.002430303
0.4170002,-0.002492532
0.4160002,-0.002555068
0.4150002,-0.00261883
0.4140002,-0.002675235
0.4130002,-0.002735625
0.4120002,-0.002796321
0.4110002,-0.002851194
0.4100002,-0.002914343
0.4090002,-0.002976879
0.4080002,-0.003028685
0.4070002,-0.003050038
0.4060002,-0.003099086
0.4050002,-0.003154265
0.4040002,-0.003209443
0.4030002,-0.003261557
0.4020002,-0.00331367
0.4010002,-0.003365783
0.4000002,-0.003417896
0.3990002,-0.00347614
0.3980002,-0.003522123
0.3970002,-0.003577302
0.3960002,-0.00363248
0.3950002,-0.003681528
0.3940002,-0.003736707
0.3930002,-0.00378882
0.3920002,-0.003837867
0.3910002,-0.003893046
0.3900002,-0.003948225
0.3890002,-0.003997272
0.3880002,-0.004055517
0.3870002,-0.004104564
0.3860002,-0.004156678
0.3850002,-0.004211857
0.3840002,-0.004260904
0.3830002,-0.004316083
0.3820002,-0.004368196
0.3810002,-0.004420309
0.3800002,-0.004472422
0.3790002,-0.004524535
0.3780002,-0.004579714
0.3770002,-0.004634893
0.3760002,-0.004687006
0.3750002,-0.004742185
0.3740002,-0.004794298
0.3730002,-0.004849477
0.3720002,-0.004907721
0.3710002,-0.004959834
0.3700002,-0.005015012
0.3690002,-0.005070191
0.3680002,-0.005122304
0.3670002,-0.005177483
0.3660002,-0.005232662
0.3650002,-0.005287841
0.3640002,-0.005346085
0.3630002,-0.005395133
0.3620002,-0.005453377
0.3610002,-0.005508556
0.3600002,-0.005557603
0.3590002,-0.005618913
0.3580002,-0.005674092
0.3570002,-0.00572927
0.3560002,-0.005784449
0.3550002,-0.005833496
0.3540002,-0.005888675
0.3530002,-0.005943854
0.3520002,-0.005995967
0.3510002,-0.006054211
0.3500002,-0.006106324
0.3490002,-0.006155372
0.3480002,-0.006213617
0.3470002,-0.006262664
0.3460002,-0.006314777
0.3450002,-0.006369956
0.3440002,-0.006419003
0.3430002,-0.006471117
0.3420002,-0.006520165
0.3410002,-0.006569212
0.3400002,-0.006621325
0.3390002,-0.006670373
0.3380002,-0.006716356
0.3370002,-0.006765403
0.3360002,-0.006811386
0.3350002,-0.006857368
0.3340002,-0.006900284
0.3330002,-0.006943201
0.3320002,-0.006986118
0.3310002,-0.00702597
0.3300002,-0.007068886
0.3290002,-0.007102606
0.3280002,-0.007142458
0.3270002,-0.007179243
0.3260002,-0.007209898
0.3250002,-0.007240553
0.3240002,-0.007271208
0.3230002,-0.007292666
0.3220002,-0.00731719
0.3210002,-0.007335583
0.3200002,-0.007347845
0.3190002,-0.007366238
0.3180002,-0.007366238
0.3170002,-0.007369304
0.3160002,-0.007372369
0.3150002,-0.007360106
0.3140002,-0.00735091
0.3130002,-0.007332517
0.3120002,-0.007301863
0.3110002,-0.007271208
0.3100002,-0.007234422
0.3090002,-0.007179243
0.3080002,-0.007120999
0.3070002,-0.00705969
0.3060002,-0.006976922
0.3050002,-0.006884957
0.3040002,-0.006783796
0.3030002,-0.006667308
0.3020002,-0.006538557
0.3010002,-0.006397545
0.3000002,-0.006241206
0.2990002,-0.006072604
0.2980002,-0.005891741
0.2970002,-0.005692484
0.2960002,-0.005480966
0.2950002,-0.005257186
0.2940002,-0.005015012
0.2930002,-0.004757512
0.2920002,-0.004490815
0.2910002,-0.004221053
0.2900002,-0.003963552
0.2890002,-0.003724444
0.2880002,-0.003506796
0.2870002,-0.003316735
0.2860002,-0.003151199
0.2850002,-0.003004056
0.2840002,-0.002878371
0.2830002,-0.002764949
0.2820002,-0.002666853
0.2810002,-0.002577954
0.2800002,-0.002498251
0.2790002,-0.00242468
0.2780002,-0.002357239
0.2770002,-0.00229593
0.2760002,-0.002237685
0.2750002,-0.002185572
0.2740002,-0.002136525
0.2730002,-0.002087477
0.2720002,-0.002041495
0.2710002,-0.002001643
0.2700002,-0.001958727
0.2690002,-0.001921941
0.2680002,-0.001885155
0.2670002,-0.001851435
0.2660002,-0.001817714
0.2650002,-0.00178706
0.2640002,-0.001756405
0.2630002,-0.00172575
0.2620002,-0.001698161
0.2610002,-0.001670571
0.2600002,-0.001642982
0.2590002,-0.001618458
0.2580002,-0.001631438
0.2570002,-0.001607834
0.2560002,-0.001585149
0.2550002,-0.001563078
0.2540002,-0.00154162
0.2530002,-0.001521081
0.2520002,-0.001501155
0.2510002,-0.001481536
0.2500002,-0.001462837
0.2490002,-0.001444444
0.2480002,-0.001426357
0.2470002,-0.001408884
0.2460002,-0.001392024
0.2450002,-0.001375777
0.2440002,-0.001360143
0.2430002,-0.001344509
0.2420002,-0.001329182
0.2410002,-0.001314161
0.2400002,-0.001299753
0.2390002,-0.001285652
0.2380002,-0.001271857
0.2370002,-0.001258063
0.2360002,-0.001245187
0.2350002,-0.001232313
0.2340002,-0.001219437
0.2330002,-0.001207482
0.2320002,-0.00119522
0.2310002,-0.001183571
0.2300002,-0.001171922
0.2290002,-0.00116058
0.2280002,-0.001149544
0.2270002,-0.001138815
0.2260002,-0.001128086
0.2250002,-0.00111797
0.2240002,-0.001107547
0.2230002,-0.001097738
0.2220002,-0.001087928
0.2210002,-0.001078119
0.2200002,-0.001068922
0.2190002,-0.001059419
0.2180002,-0.001050529
0.2170002,-0.001041639
0.2160002,-0.001032749
0.2150002,-0.001024166
0.2140002,-0.001015583
0.2130002,-0.001006999
0.2120002,-0.0009993357
0.2110002,-0.0009907524
0.2100002,-0.0009830886
0.2090002,-0.0009754249
0.2080002,-0.0009674546
0.2070002,-0.0009600975
0.2060002,-0.0009527404
0.2050002,-0.0009456897
0.2040002,-0.0009383326
0.2030002,-0.0009312819
0.2020002,-0.0009242314
0.2010002,-0.0009177938
0.2000002,-0.0009107432
0.1990002,-0.0009039992
0.1980002,-0.0008975617
0.1970002,-0.0008911242
0.1960002,-0.0008849932
0.1950002,-0.0008785557
0.1940002,-0.0008724247
0.1930002,-0.0008662938
0.1920002,-0.0008601628
0.1910002,-0.0008543384
0.1900002,-0.000848514
0.1890002,-0.0008429961
0.1880002,-0.0008374782
0.1870002,-0.0008316538
0.1860002,-0.0008261359
0.1850002,-0.0008209246
0.1840002,-0.0008154067
0.1830002,-0.0008101954
0.1820002,-0.0008049841
0.1810002,-0.0007997728
0.1800002,-0.0007945614
0.1790002,-0.0007896567
0.1780002,-0.0007844454
0.1770002,-0.0007795406
0.1760002,-0.0007746358
0.1750002,-0.000769731
0.1740002,-0.0007651328
0.1730002,-0.0007602281
0.1720002,-0.0007556298
0.1710002,-0.0007513381
0.1700002,-0.0007467399
0.1690002,-0.0007424483
0.1680002,-0.00073785
0.1670002,-0.0007335583
0.1660002,-0.0007295733
0.1650002,-0.000724975
0.1640002,-0.0007209898
0.1630002,-0.0007166982
0.1620002,-0.0007124065
0.1610002,-0.0007084214
0.1600002,-0.0007044363
0.1590002,-0.0007004511
0.1580002,-0.0006967725
0.1570002,-0.0006927875
0.1560002,-0.0006888023
0.1550002,-0.0006848171
0.1540002,-0.0006808321
0.1530002,-0.0006771535
0.1520002,-0.0006734749
0.1510002,-0.0006697963
0.1500002,-0.0006661177
0.1490002,-0.0006624392
0.1480002,-0.0006590671
0.1470002,-0.0006553886
0.1460002,-0.00065171
0.1450002,-0.0006483379
0.1440002,-0.0006446594
0.1430002,-0.0006415938
0.1420002,-0.0006379153
0.1410002,-0.0006345432
0.1400002,-0.0006314777
0.1390002,-0.0006281057
0.1380002,-0.0006247337
0.1370002,-0.0006213617
0.1360002,-0.0006179896
0.1350002,-0.0006149242
0.1340002,-0.0006115522
0.1330002,-0.0006081801
0.1320002,-0.0006054211
0.1310002,-0.0006023557
0.1300002,-0.0005992902
0.1290002,-0.0005962247
0.1280002,-0.0005931592
0.1270002,-0.0005900938
0.1260002,-0.0005873349
0.1250002,-0.0005845759
0.1240002,-0.0005818169
0.1230002,-0.0005787515
0.1220002,-0.0005759926
0.1210002,-0.0005732336
0.1200002,-0.0005704747
0.1190002,-0.0005677157
0.1180002,-0.0005652634
0.1170002,-0.0005625045
0.1160002,-0.0005597455
0.1150002,-0.0005572931
0.1140002,-0.0005545341
0.1130002,-0.0005520818
0.1120002,-0.0005496293
0.1110002,-0.000547177
0.1100002,-0.0005447246
0.1090002,-0.0005422722
0.1080002,-0.0005398199
0.1070002,-0.0005373674
0.1060002,-0.0005352216
0.1050002,-0.0005327692
0.1040002,-0.0005303168
0.1030002,-0.000528171
0.1020002,-0.0005260251
0.1010002,-0.0005235728
0.1000002,-0.0005217335
0.09900019,-0.0005192811
0.09800019,-0.0005171353
0.09700019,-0.0005152959
0.09600019,-0.0005128436
0.09500019,-0.0005106977
0.09400019,-0.0005085519
0.09300019,-0.0005067126
0.09200019,-0.0005045668
0.09100019,-0.0005024209
0.09000019,-0.0005005816
0.08900019,-0.0004984358
0.08800019,-0.0004965966
0.08700019,-0.0004944507
0.08600019,-0.0004926114
0.08500019,-0.0004904656
0.08400019,-0.0004886262
0.08300019,-0.000486787
0.08200019,-0.0004849477
0.08100019,-0.0004828018
0.08000019,-0.0004812691
0.07900019,-0.0004794298
0.07800019,-0.0004775905
0.07700019,-0.0004757512
0.07600019,-0.000473912
0.07500019,-0.0004720727
0.07400019,-0.0004702334
0.07300019,-0.0004683941
0.07200019,-0.0004665548
0.07100019,-0.0004650221
0.07000019,-0.0004631828
0.06900019,-0.00046165
0.06800019,-0.0004598107
0.06700019,-0.000458278
0.06600019,-0.0004564387
0.06500019,-0.000454906
0.06400019,-0.0004533732
0.06300019,-0.0004518405
0.06200019,-0.0004500012
0.06100019,-0.0004484684
0.06000019,-0.0004469357
0.05900019,-0.000445403
0.05800019,-0.0004438702
0.05700019,-0.0004423375
0.05600019,-0.0004408048
0.05500019,-0.000439272
0.05400019,-0.0004377393
0.05300019,-0.0004362065
0.05200019,-0.0004346738
0.05100019,-0.0004334476
0.05000019,-0.0004319148
0.04900019,-0.0004303821
0.04800019,-0.0004291559
0.04700019,-0.0004276232
0.04600019,-0.0004260904
0.04500019,-0.0004245577
0.04400019,-0.0004233315
0.04300019,-0.0004217988
0.04200019,-0.0004205726
0.04100019,-0.0004190398
0.04000019,-0.0004178136
0.03900019,-0.0004165874
0.03800019,-0.0004150547
0.03700019,-0.0004138285
0.03600019,-0.0004126023
0.03500019,-0.0004110696
0.03400019,-0.0004098434
0.03300019,-0.0004086172
0.03200019,-0.000407391
0.03100019,-0.0004058582
0.03000019,-0.000404632
0.02900019,-0.0004034059
0.02800019,-0.0004021796
0.02700019,-0.0004009535
0.02600019,-0.0003994207
0.02500019,-0.0003981945
0.02400019,-0.0003969684
0.02300019,-0.0003957421
0.02200019,-0.000394516
0.02100019,-0.0003935963
0.02000019,-0.0003923701
0.01900019,-0.0003911439
0.01800019,-0.0003899177
0.01700019,-0.0003886915
0.01600019,-0.0003877719
0.01500019,-0.0003865457
0.01400019,-0.0003853195
0.01300019,-0.0003840933
0.01200019,-0.0003831737
0.01100019,-0.0003819475
0.01000019,-0.0003807213
0.009000191,-0.0003798016
0.00800019,-0.0003785754
0.007000191,-0.0003776558
0.006000191,-0.0003764296
0.005000191,-0.0003752034
0.004000191,-0.0003742838
0.003000191,-0.0003730576
0.002000191,-0.0003721379
0.001000191,-0.0003712183
1.907349E-07,-0.0003663135
0.0009998092,-0.0003592629
0.001999809,-0.0003531319
0.002999809,-0.0003479206
0.003999809,-0.0003427093
0.004999809,-0.0003381111
0.005999809,-0.0003335129
0.006999809,-0.0003292212
0.007999809,-0.000325236
0.00899981,-0.0003212509
0.009999809,-0.0003175724
0.01099981,-0.0003138937
0.01199981,-0.0003102152
0.01299981,-0.0003068431
0.01399981,-0.0003037777
0.01499981,-0.0003004056
0.01599981,-0.0002973401
0.01699981,-0.0002945812
0.01799981,-0.0002915157
0.01899981,-0.0002887568
0.01999981,-0.0002859978
0.02099981,-0.0002832389
0.02199981,-0.00028048
0.02299981,-0.0002777211
0.02399981,-0.0002752687
0.02499981,-0.0002728163
0.02599981,-0.0002703639
0.02699981,-0.0002679115
0.02799981,-0.0002657657
0.02899981,-0.0002633133
0.02999981,-0.0002608609
0.03099981,-0.0002587151
0.03199981,-0.0002565692
0.03299981,-0.0002541168
0.03399981,-0.000251971
0.03499981,-0.0002501317
0.03599981,-0.0002476793
0.03699981,-0.00024584
0.03799981,-0.0002436942
0.03899981,-0.0002415484
0.03999981,-0.0002397091
0.04099981,-0.0002375632
0.04199981,-0.000235724
0.04299981,-0.0002338847
0.04399981,-0.0002320454
0.04499981,-0.0002302061
0.04599981,-0.0002283668
0.04699981,-0.0002265275
0.04799981,-0.0002246882
0.04899981,-0.0002228489
0.04999981,-0.0002210096
0.05099981,-0.0002194769
0.05199981,-0.0002176376
0.05299981,-0.0002157983
0.05399981,-0.0002142656
0.05499981,-0.0002127328
0.05599981,-0.0002108935
0.05699981,-0.0002093608
0.05799981,-0.0002078281
0.05899981,-0.0002062953
0.05999981,-0.000204456
0.06099981,-0.0002029233
0.06199981,-0.0002013905
0.06299981,-0.0001998578
0.06399981,-0.0001983251
0.06499981,-0.0001967923
0.06599981,-0.0001952596
0.06699981,-0.0001937268
0.06799981,-0.0001925007
0.06899981,-0.0001909679
0.06999981,-0.0001894352
0.07099981,-0.0001879024
0.07199981,-0.0001866762
0.07299981,-0.0001851435
0.07399981,-0.0001839173
0.07499981,-0.0001823845
0.07599981,-0.0001811584
0.07699981,-0.0001796256
0.07799981,-0.0001783994
0.07899981,-0.0001768667
0.07999981,-0.0001756405
0.08099981,-0.0001744143
0.08199981,-0.0001728816
0.08299981,-0.0001716554
0.08399981,-0.0001704292
0.08499981,-0.000169203
0.08599981,-0.0001679768
0.08699981,-0.000166444
0.08799981,-0.0001652178
0.08899981,-0.0001639917
0.08999981,-0.0001627655
0.09099981,-0.0001615393
0.09199981,-0.0001603131
0.09299981,-0.0001590869
0.09399981,-0.0001613045
0.09499981,-0.0001600783
0.09599981,-0.0001589748
0.09699981,-0.0001577792
0.09799981,-0.0001565837
0.09899981,-0.0001555414
0.09999981,-0.0001543765
0.1009998,-0.000153273
0.1019998,-0.0001522001
0.1029998,-0.0001510352
0.1039998,-0.0001499316
0.1049998,-0.0001488893
0.1059998,-0.0001477858
0.1069998,-0.0001467435
0.1079998,-0.0001456399
0.1089998,-0.0001445977
0.1099998,-0.0001435247
0.1109998,-0.0001424825
0.1119998,-0.0001414709
0.1129998,-0.0001404592
0.1139998,-0.000139417
0.1149998,-0.0001383747
0.1159998,-0.0001373631
0.1169998,-0.0001363515
0.1179998,-0.0001354012
0.1189998,-0.0001343589
0.1199998,-0.0001334393
0.1209998,-0.0001324583
0.1219998,-0.0001314774
0.1229998,-0.0001305271
0.1239998,-0.0001295155
0.1249998,-0.0001285652
0.1259998,-0.0001277068
0.1269998,-0.0001267565
0.1279998,-0.0001258675
0.1289998,-0.0001249172
0.1299998,-0.0001239976
0.1309998,-0.000123078
0.1319998,-0.0001221583
0.1329998,-0.0001213
0.1339998,-0.0001204416
0.1349998,-0.00011943
0.1359998,-0.0001185104
0.1369998,-0.0001176521
0.1379998,-0.0001167937
0.1389998,-0.0001160274
0.1399998,-0.0001151077
0.1409998,-0.0001142494
0.1419998,-0.0001134523
0.1429998,-0.0001126247
0.1439998,-0.0001118276
0.1449998,-0.000111
0.1459998,-0.0001102029
0.1469998,-0.0001094059
0.1479998,-0.0001086395
0.1489998,-0.0001078425
0.1499998,-0.0001070761
0.1509998,-0.0001063098
0.1519998,-0.0001055434
0.1529998,-0.0001047464
0.1539998,-0.0001039494
0.1549998,-0.0001032136
0.1559998,-0.000102386
0.1569998,-0.0001015889
0.1579998,-0.0001008532
0.1589998,-0.0001000255
0.1599998,-9.935112E-05
0.1609998,-9.86154E-05
0.1619998,-9.787969E-05
0.1629998,-9.711332E-05
0.1639998,-9.643891E-05
0.1649998,-9.573385E-05
0.1659998,-9.502879E-05
0.1669998,-9.429307E-05
0.1679998,-9.361867E-05
0.1689998,-9.294426E-05
0.1699998,-9.220855E-05
0.1709998,-9.15648E-05
0.1719998,-9.089039E-05
0.1729998,-9.018533E-05
0.1739998,-8.951092E-05
0.1749998,-8.880586E-05
0.1759998,-8.819276E-05
0.1769998,-8.754901E-05
0.1779998,-8.684395E-05
0.1789998,-8.623085E-05
0.1799998,-8.555645E-05
0.1809998,-8.494335E-05
0.1819998,-8.42996E-05
0.1829998,-8.362519E-05
0.1839998,-8.30121E-05
0.1849998,-8.236835E-05
0.1859998,-8.169394E-05
0.1869998,-8.108085E-05
0.1879998,-8.046775E-05
0.1889998,-7.985465E-05
0.1899998,-7.927221E-05
0.1909998,-7.85978E-05
0.1919998,-7.79847E-05
0.1929998,-7.740227E-05
0.1939998,-7.685048E-05
0.1949998,-7.623738E-05
0.1959998,-7.556297E-05
0.1969998,-7.50725E-05
0.1979998,-7.439809E-05
0.1989998,-7.3785E-05
0.1999998,-7.329452E-05
0.2009998,-7.268143E-05
0.2019998,-7.209898E-05
0.2029998,-7.15472E-05
0.2039998,-7.096475E-05
0.2049998,-7.041297E-05
0.2059998,-6.979987E-05
0.2069998,-6.918678E-05
0.2079998,-6.866564E-05
0.2089998,-6.811386E-05
0.2099998,-6.753141E-05
0.2109998,-6.701028E-05
0.2119998,-6.639718E-05
0.2129998,-6.58454E-05
0.2139998,-6.532426E-05
0.2149998,-6.471117E-05
0.2159998,-6.415938E-05
0.2169998,-6.369956E-05
0.2179998,-6.308646E-05
0.2189998,-6.256533E-05
0.2199998,-6.198289E-05
0.2209998,-6.146176E-05
0.2219998,-6.097128E-05
0.2229998,-6.038884E-05
0.2239998,-5.98064E-05
0.2249998,-5.934657E-05
0.2259998,-5.879479E-05
0.2269998,-5.8243E-05
0.2279998,-5.772187E-05
0.2289998,-5.717008E-05
0.2299998,-5.66796E-05
0.2309998,-5.612781E-05
0.2319998,-5.557603E-05
0.2329998,-5.514687E-05
0.2339998,-5.459508E-05
0.2349998,-5.41046E-05
0.2359998,-5.352216E-05
0.2369998,-5.300103E-05
0.2379998,-5.25412E-05
0.2389998,-5.202007E-05
0.2399998,-5.149894E-05
0.2409998,-5.100846E-05
0.2419998,-5.045668E-05
0.2429998,-4.993554E-05
0.2439998,-4.944507E-05
0.2449998,-4.889328E-05
0.2459998,-4.84028E-05
0.2469998,-4.785102E-05
0.2479998,-4.736054E-05
0.2489998,-4.687006E-05
0.2499998,-4.631827E-05
0.2509998,-4.58278E-05
0.2519998,-4.527601E-05
0.2529998,-4.475488E-05
0.2539998,-4.429505E-05
0.2549998,-4.374327E-05
0.2559998,-4.322214E-05
0.2569998,-4.270101E-05
0.2579998,-4.211856E-05
0.2589998,-4.162809E-05
0.2599998,-4.10763E-05
0.2609998,-4.058582E-05
0.2619998,-4.003403E-05
0.2629998,-3.948225E-05
0.2639998,-3.889981E-05
0.2649998,-3.840933E-05
0.2659998,-3.785754E-05
0.2669998,-3.733641E-05
0.2679998,-3.675397E-05
0.2689998,-3.620218E-05
0.2699998,-3.561974E-05
0.2709998,-3.509861E-05
0.2719998,-3.457748E-05
0.2729998,-3.399503E-05
0.2739998,-3.341259E-05
0.2749998,-3.283015E-05
0.2759998,-3.21864E-05
0.2769998,-3.166527E-05
0.2779998,-3.108283E-05
0.2789998,-3.043907E-05
0.2799998,-2.991794E-05
0.2809998,-2.927419E-05
0.2819998,-2.86611E-05
0.2829998,-2.807865E-05
0.2839998,-2.737359E-05
0.2849998,-2.672984E-05
0.2859998,-2.61474E-05
0.2869998,-2.547299E-05
0.2879998,-2.482924E-05
0.2889998,-2.418549E-05
0.2899998,-2.348043E-05
0.2909998,-2.286733E-05
0.2919998,-2.210096E-05
0.2929998,-2.142655E-05
0.2939998,-2.075215E-05
0.2949998,-2.004709E-05
0.2959998,-1.931137E-05
0.2969998,-1.860631E-05
0.2979998,-1.78706E-05
0.2989998,-1.719619E-05
0.2999998,-1.63072E-05
0.3009998,-1.551017E-05
0.3019998,-1.483577E-05
0.3029998,-1.394678E-05
0.3039998,-1.31191E-05
0.3049998,-1.252544E-05
0.3059998,-1.163339E-05
0.3069998,-1.071374E-05
0.3079998,-9.766511E-06
0.3089998,-8.825407E-06
0.3099998,-7.957876E-06
0.3109998,-6.934005E-06
0.3119998,-5.940788E-06
0.3129998,-4.93531E-06
0.3139998,-3.825605E-06
0.3149998,-2.850782E-06
0.3159998,-1.698161E-06
0.3169998,-6.344382E-07
0.3179998,4.905939E-07
0.3189998,1.710656E-06
0.3199998,2.900063E-06
0.3209998,4.101732E-06
0.3219998,5.45361E-06
0.3229998,6.713524E-06
0.3239998,8.151234E-06
0.3249998,9.457131E-06
0.3259998,1.087338E-05
0.3269998,1.243065E-05
0.3279998,1.390821E-05
0.3289998,1.541949E-05
0.3299998,1.708712E-05
0.3309998,1.872102E-05
0.3319998,2.056337E-05
0.3329998,2.220341E-05
0.3339998,2.437175E-05
0.3349998,2.62417E-05
0.3359998,2.823426E-05
0.3369998,3.028813E-05
0.3379998,3.246463E-05
0.3389998,3.467178E-05
0.3399998,3.712416E-05
0.3409998,3.942327E-05
0.3419998,4.199828E-05
0.3429998,4.478787E-05
0.3439998,4.742418E-05
0.3449998,5.045901E-05
0.3459998,5.35858E-05
0.3469998,5.67739E-05
0.3479998,6.039118E-05
0.3489998,6.40391E-05
0.3499998,6.787095E-05
0.3509998,7.219328E-05
0.3519998,7.654627E-05
0.3529998,8.135907E-05
0.3539998,8.66317E-05
0.3549998,9.19963E-05
0.3559998,9.815791E-05
0.3569998,0.0001045035
0.3579998,0.0001115234
0.3589998,0.0001193711
0.3599998,0.0001275559
0.3609998,0.0001368136
0.3619998,0.0001468684
0.3629998,0.0001576283
0.3639998,0.0001701354
0.3649998,0.0001838075
0.3659998,0.0001988897
0.3669998,0.0002162096
0.3679998,0.0002355529
0.3689998,0.0002580228
0.3699998,0.0002842634
0.3709998,0.0003182088
0.3719998,0.0003540749
0.3729998,0.000396072
0.3739998,0.0004460394
0.3749998,0.0005045901
0.3759998,0.0005714177
0.3769998,0.0006483613
0.3779998,0.0007335817
0.3789998,0.0008258527
0.3799998,0.0009254809
0.3809998,0.001029094
0.3819998,0.001136693
0.3829998,0.001247663
0.3839998,0.001358634
0.3849998,0.00147267
0.3859998,0.001587319
0.3869998,0.001701048
0.3879998,0.001818456
0.3889998,0.001933718
0.3899998,0.002051433
0.3909998,0.0021716
0.3919998,0.002291154
0.3929998,0.002414999
0.3939998,0.00254099
0.3949998,0.002668208
0.3959998,0.002801863
0.3969998,0.002936438
0.3979998,0.003075611
0.3989998,0.003246463
0.3999998,0.00339054
0.4009998,0.003540749
0.4019998,0.003694023
0.4029998,0.003853428
0.4039998,0.004018964
0.4049998,0.004181435
0.4059998,0.004350036
0.4069998,0.004524769
0.4079998,0.004699502
0.4089998,0.00488343
0.4099998,0.005070425
0.4109998,0.005254354
0.4119998,0.005447479
0.4129998,0.005634474
0.4139998,0.005824534
0.4149998,0.006020725
0.4159998,0.006216915
0.4169998,0.006413106
0.4179998,0.006609297
0.4189998,0.006805488
0.4199998,0.007001679
0.4209998,0.00719787
0.4219998,0.007390995
0.4229998,0.007587186
0.4239998,0.007780312
0.4249998,0.007970371
0.4259998,0.008157366
0.4269998,0.008341295
0.4279998,0.008525223
0.4289998,0.008706087
0.4299998,0.008877754
0.4309998,0.009049421
0.4319998,0.009214957
0.4329998,0.009374362
0.4339998,0.009530702
0.4349998,0.009677845
0.4359998,0.009818858
0.4369998,0.009956804
0.4379998,0.01008555
0.4389998,0.01020817
0.4399998,0.01032773
0.4409998,0.01043808
0.4419998,0.01053925
0.4429998,0.01064041
0.4439998,0.01073237
0.4449998,0.01081207
0.4459998,0.01089791
0.4469998,0.01096841
0.4479998,0.01103892
0.4489998,0.01110636
0.4499998,0.0111646
0.4509998,0.01121978
0.4519998,0.01127496
0.4529998,0.01132401
0.4539998,0.01136693
0.4549998,0.01141597
0.4559998,0.01145582
0.4569998,0.01149568
0.4579998,0.01153553
0.4589998,0.01157538
0.4599998,0.0116091
0.4609998,0.01164282
0.4619998,0.0116796
0.4629998,0.01170719
0.4639998,0.01173478
0.4649998,0.0117685
0.4659998,0.01179609
0.4669998,0.01182368
0.4679998,0.01185434
0.4689998,0.01187273
0.4699998,0.01190645
0.4709998,0.01193097
0.4719998,0.0119555
0.4729998,0.01199228
0.4739998,0.01201987
0.4749998,0.01204746
0.4759998,0.01209038
0.4769998,0.01212103
0.4779998,0.01216089
0.4789998,0.012213
0.4799998,0.01226205
0.4809998,0.01231416
0.4819998,0.01238467
0.4829998,0.01244904
0.4839998,0.01252568
0.4849998,0.01261764
0.4859998,0.01270041
0.4869998,0.0128077
0.4879998,0.01291806
0.4889998,0.01303455
0.4899998,0.01316636
0.4909998,0.01330124
0.4919998,0.01345452
0.4929998,0.01361392
0.4939998,0.01377946
0.4949998,0.01396339
0.4959998,0.01414732
0.4969998,0.01434351
0.4979998,0.01455196
0.4989998,0.01476961
0.4999998,0.01499646
0.5009998,0.0152325
0.5019998,0.01547161
0.5029998,0.01572298
0.5039998,0.01598048
0.5049998,0.01624717
0.5059998,0.01652
0.5069998,0.01679896
0.5079998,0.01708711
0.5089998,0.01737527
0.5099998,0.01767262
0.5109998,0.01797611
0.5119998,0.01828572
0.5129998,0.01860453
0.5139998,0.01892027
0.5149998,0.01923908
0.5159998,0.01957935
0.5169998,0.01989816
0.5179998,0.02023843
0.5189998,0.02058483
0.5199998,0.0209159
0.5209998,0.02126843
0.5219998,0.02161483
0.5229998,0.02196123
0.5239998,0.0223199
0.5249998,0.02267549
0.5259998,0.02303722
0.5269998,0.02340508
0.5279998,0.02376067
0.5289998,0.0241316
0.5299998,0.02450558
0.5309998,0.02487651
0.5319998,0.0252505
0.5329998,0.02562449
0.5339998,0.02600154
0.5349998,0.02637553
0.5359998,0.02676178
0.5369998,0.02714496
0.5379998,0.02752509
0.5389998,0.0279144
0.5399998,0.02830372
0.5409998,0.0286869
0.5419998,0.02908235
0.5429998,0.02947473
0.5439998,0.02986405
0.5449998,0.03102385
0.5459998,0.03142237
0.5469998,0.03182088
0.5479998,0.03221939
0.5489998,0.0326179
0.5499998,0.03301642
0.5509998,0.03344558
0.5519998,0.03384409
0.5529998,0.03424261
0.5539998,0.03464112
0.5549998,0.03503963
0.5559998,0.0354688
0.5569998,0.03589797
0.5579998,0.03629648
0.5589998,0.03672565
0.5599998,0.03712416
0.5609998,0.03755333
0.5619998,0.03795184
0.5629998,0.03841167
0.5639998,0.03881018
0.5649998,0.03923934
0.5659998,0.03966851
0.5669998,0.04006703
0.5679998,0.04049619
0.5689998,0.04092536
0.5699998,0.04135453
0.5709998,0.0417837
0.5719998,0.04218221
0.5729998,0.04264203
0.5739998,0.0430712
0.5749998,0.04346971
0.5759998,0.04392953
0.5769998,0.0443587
0.5779998,0.04478787
0.5789998,0.04521704
0.5799998,0.0456462
0.5809998,0.04607537
0.5819998,0.04653519
0.5829998,0.04693371
0.5839998,0.04739353
0.5849998,0.0478227
0.5859998,0.04825186
0.5869998,0.04871169
0.5879998,0.04914085
0.5889998,0.04957002
0.5899998,0.04999919
0.5909998,0.05042836
0.5919998,0.05085753
0.5929998,0.05131735
0.5939998,0.05174651
0.5949998,0.05217568
0.5959998,0.0526355
0.5969998,0.05306467
0.5979998,0.05349384
0.5989998,0.05395366
0.5999998,0.05441349
0.6009998,0.05484265
0.6019998,0.05530247
0.6029998,0.05573164
0.6039998,0.05616081
0.6049998,0.05662064
0.6059998,0.0570498
0.6069998,0.05750962
0.6079998,0.05796945
0.6089998,0.05839861
0.6099998,0.05882778
0.6109998,0.05931826
0.6119998,0.05974742
0.6129998,0.06017659
0.6139998,0.06066707
0.6149998,0.06109623
0.6159998,0.0615254
0.6169998,0.06201588
0.6179998,0.06244505
0.6189998,0.06290487
0.6199998,0.06336469
0.6209998,0.06379386
0.6219998,0.06425368
0.6229998,0.06471351
0.6239998,0.06514268
0.6249998,0.0656025
0.6259998,0.06606232
0.6269998,0.06649148
0.6279998,0.06698196
0.6289998,0.06741113
0.6299998,0.06787095
0.6309998,0.06833078
0.6319998,0.0687906
0.6329998,0.06921976
0.6339998,0.06971025
0.6349998,0.07013941
0.6359998,0.07059924
0.6369998,0.07108971
0.6379998,0.07151888
0.6389998,0.07194804
0.6399998,0.07240786
0.6409998,0.07286769
0.6419998,0.07335817
0.6429998,0.07378733
0.6439998,0.07424716
0.6449998,0.07470698
0.6459998,0.07516681
0.6469998,0.07562663
0.6479998,0.07608645
0.6489998,0.07654627
0.6499998,0.07697544
0.6509998,0.07743526
0.6519998,0.07792573
0.6529998,0.0783549
0.6539998,0.07884538
0.6549998,0.0793052
0.6559998,0.07973437
0.6569998,0.08022485
0.6579998,0.08068467
0.6589998,0.0811445
0.6599998,0.08157366
0.6609998,0.08203348
0.6619998,0.08249331
0.6629998,0.08298378
0.6639998,0.08341295
0.6649998,0.08390342
0.6659998,0.08436324
0.6669998,0.08482307
0.6679998,0.08525224
0.6689998,0.08577337
0.6699998,0.08623319
0.6709998,0.08669301
0.6719998,0.08715284
0.6729998,0.08761266
0.6739998,0.08807249
0.6749998,0.08853231
0.6759998,0.08902278
0.6769998,0.08948261
0.6779998,0.08994243
0.6789998,0.09040225
0.6799998,0.09086207
0.6809998,0.09132189
0.6819998,0.09181237
0.6829998,0.09227219
0.6839998,0.09270137
0.6849998,0.09322249
0.6859998,0.09368231
0.6869998,0.09414214
0.6879998,0.09460196
0.6889998,0.09506179
0.6899998,0.09552161
0.6909998,0.09601208
0.6919998,0.09644125
0.6929998,0.09693173
0.6939998,0.09739155
0.6949998,0.09785137
0.6959998,0.09834184
0.6969998,0.09880167
0.6979998,0.09923084
0.6989998,0.09972132
0.6999998,0.09984394
0.6990003,0.09938411
0.6980003,0.09892429
0.6970003,0.09843381
0.6960003,0.09800465
0.6950003,0.09754483
0.6940003,0.09705435
0.6930003,0.09662518
0.6920003,0.09616536
0.6910003,0.09570553
0.6900003,0.09527637
0.6890003,0.09481654
0.6880003,0.09432607
0.6870003,0.09386625
0.6860003,0.09340642
0.6850003,0.0929466
0.6840003,0.09245612
0.6830003,0.09202696
0.6820003,0.09156714
0.6810003,0.09110731
0.6800003,0.09064749
0.6790003,0.09015701
0.6780003,0.0897585
0.6770003,0.08926802
0.6760003,0.0888082
0.6750003,0.08840968
0.6740003,0.08791921
0.6730003,0.08742873
0.6720003,0.08699957
0.6710003,0.08653974
0.6700003,0.08607992
0.6690003,0.0856201
0.6680003,0.08516028
0.6670003,0.0846698
0.6660003,0.08424063
0.6650003,0.08375015
0.6640003,0.08332099
0.6630003,0.08286116
0.6620003,0.08240134
0.6610003,0.08197217
0.6600003,0.08151235
0.6590003,0.08105253
0.6580003,0.08062336
0.6570003,0.08013289
0.6560003,0.07967306
0.6550003,0.07924389
0.6540003,0.07878407
0.6530003,0.07829359
0.6520003,0.07786443
0.6510003,0.0774046
0.6500003,0.07691412
0.6490003,0.07648496
0.6480003,0.07605579
0.6470003,0.07559597
0.6460003,0.07516681
0.6450003,0.07467633
0.6440003,0.07424716
0.6430003,0.07378733
0.6420003,0.07332751
0.6410003,0.07289835
0.6400003,0.07243852
0.6390003,0.0719787
0.6380003,0.07154953
0.6370003,0.07112037
0.6360003,0.07062989
0.6350003,0.07020072
0.6340003,0.0697409
0.6330003,0.06925042
0.6320003,0.06882125
0.6310003,0.06839209
0.6300003,0.06793226
0.6290003,0.06750309
0.6280003,0.06704327
0.6270003,0.06661411
0.6260003,0.06615429
0.6250003,0.06569446
0.6240003,0.06526529
0.6230003,0.06480547
0.6220003,0.06431499
0.6210003,0.06388583
0.6200003,0.06345665
0.6190003,0.06299683
0.6180003,0.06253701
0.6170003,0.06210784
0.6160003,0.06164802
0.6150003,0.06121886
0.6140003,0.06078969
0.6130003,0.06029921
0.6120003,0.0599007
0.6110003,0.05944088
0.6100003,0.05898106
0.6090003,0.05855189
0.6080003,0.05812272
0.6070003,0.05766289
0.6060003,0.05723373
0.6050003,0.05677391
0.6040003,0.05634474
0.6030003,0.05591557
0.6020003,0.05545575
0.6010003,0.05502658
0.6000003,0.05459742
0.5990003,0.05413759
0.5980003,0.05370842
0.5970003,0.05327926
0.5960003,0.05281943
0.5950003,0.05239027
0.5940003,0.0519611
0.5930003,0.05150127
0.5920003,0.05110276
0.5910003,0.05067359
0.5900003,0.05024443
0.5890003,0.04981526
0.5880003,0.04935544
0.5870003,0.04895693
0.5860003,0.0484971
0.5850003,0.04806793
0.5840003,0.04763877
0.5830003,0.0472096
0.5820003,0.04678043
0.5810003,0.04635127
0.5800003,0.0459221
0.5790003,0.04546228
0.5780003,0.04506376
0.5770003,0.04460394
0.5760003,0.04417477
0.5750003,0.04377626
0.5740003,0.04334709
0.5730003,0.04288727
0.5720003,0.04248876
0.5710003,0.04209024
0.5700003,0.04163042
0.5690003,0.04120126
0.5680003,0.04080274
0.5670003,0.04037357
0.5660003,0.03994441
0.5650003,0.03954589
0.5640003,0.03911673
0.5630003,0.03868756
0.5620003,0.03825839
0.5610003,0.03782922
0.5600003,0.03743071
0.5590003,0.03700154
0.5580003,0.03657238
0.5570003,0.03617386
0.5560003,0.03574469
0.5550003,0.03534618
0.5540003,0.03494767
0.5530003,0.0345185
0.5520003,0.03411999
0.5510003,0.03372148
0.5500003,0.03329231
0.5490003,0.03286314
0.5480003,0.03246463
0.5470003,0.03206612
0.5460003,0.0316676
0.5450003,0.03126909
0.5440003,0.03083992
0.5430003,0.03044141
0.5420003,0.0300429
0.5410003,0.02964438
0.5400003,0.02924587
0.5390003,0.02884736
0.5380003,0.02841819
0.5370003,0.02805033
0.5360003,0.02765182
0.5350003,0.02725331
0.5340003,0.0268548
0.5330003,0.02645628
0.5320003,0.02605777
0.5310003,0.02565926
0.5300003,0.02526074
0.5290003,0.02489289
0.5280003,0.02449437
0.5270003,0.02412652
0.5260003,0.023728
0.5250003,0.02336015
0.5240003,0.02296163
0.5230003,0.02259377
0.5220003,0.02219526
0.5210003,0.02182741
0.5200003,0.02145955
0.5190003,0.02106103
0.5180003,0.02069318
0.5170003,0.02032532
0.5160003,0.01995746
0.5150003,0.0195896
0.5140003,0.01922174
0.5130003,0.01885389
0.5120003,0.01848603
0.5110003,0.01811817
0.5100003,0.01775031
0.5090003,0.01741311
0.5080003,0.01704525
0.5070003,0.01667739
0.5060003,0.01634019
0.5050003,0.01600299
0.5040003,0.01563513
0.5030003,0.01529793
0.5020003,0.01496072
0.5010003,0.01459287
0.5000003,0.01425566
0.4990003,0.01391846
0.4980003,0.01358126
0.4970003,0.01327471
0.4960003,0.01243065
0.4950003,0.01210877
0.4940003,0.01179303
0.4930003,0.01146502
0.4920003,0.01114928
0.4910003,0.01083966
0.4900003,0.01052392
0.4890003,0.01021737
0.4880003,0.009913887
0.4870003,0.009607339
0.4860003,0.009313053
0.4850003,0.009015701
0.4840003,0.008715284
0.4830003,0.008430193
0.4820003,0.008142038
0.4810003,0.007856948
0.4800003,0.00757799
0.4790003,0.0072929
0.4780003,0.007026203
0.4770003,0.006753375
0.4760003,0.006483613
0.4750003,0.006223046
0.4740003,0.005959415
0.4730003,0.005701914
0.4720003,0.00545361
0.4710003,0.005202241
0.4700003,0.004957002
0.4690003,0.004717894
0.4680003,0.004478787
0.4670003,0.004248876
0.4660003,0.004018964
0.4650003,0.003795184
0.4640003,0.003574469
0.4630003,0.00335682
0.4620003,0.003148367
0.4610003,0.002936849
0.4600003,0.002731462
0.4590003,0.002538336
0.4580003,0.002342145
0.4570003,0.00214902
0.4560003,0.001968157
0.4550003,0.001787293
0.4540003,0.001609495
0.4530003,0.001437828
0.4520003,0.001266161
0.4510003,0.001073237
0.4500003,0.0009141387
0.4490003,0.0007590252
0.4480003,0.0006069773
0.4470003,0.0004589144
0.4460003,0.0003185153
0.4450003,0.0001802621
0.4440003,4.384808E-05
0.4430003,-8.856062E-05
0.4420003,-0.0002165752
0.4410003,-0.0003392864
0.4400003,-0.0004542929
0.4390003,-0.000572927
0.4380003,-0.0006820582
0.4370003,-0.0007905763
0.4360003,-0.0008990944
0.4350003,-0.0009965767
0.4340003,-0.001096205
0.4330003,-0.001192461
0.4320003,-0.0012832
0.4310003,-0.001377003
0.4300003,-0.001462224
0.4290003,-0.00154867
0.4280003,-0.001633891
0.4270003,-0.001710221
0.4260003,-0.001790537
0.4250003,-0.001865948
0.4240003,-0.001938906
0.4230003,-0.002015237
0.4220003,-0.00208421
0.4210003,-0.002152877
0.4200003,-0.002222463
0.4190003,-0.002285306
0.4180003,-0.00235152
0.4170003,-0.002414669
0.4160003,-0.002474139
0.4150003,-0.002540354
0.4140003,-0.002599211
0.4130003,-0.002656229
0.4120003,-0.002716313
0.4110003,-0.002772411
0.4100003,-0.002835253
0.4090003,-0.002897176
0.4080003,-0.002948676
0.4070003,-0.003004161
0.4060003,-0.003022449
0.4050003,-0.003071497
0.4040003,-0.003126675
0.4030003,-0.003178789
0.4020003,-0.003230902
0.4010003,-0.003283015
0.4000003,-0.003335128
0.3990003,-0.003393373
0.3980003,-0.003439354
0.3970003,-0.003494533
0.3960003,-0.003549712
0.3950003,-0.003595694
0.3940003,-0.003650873
0.3930003,-0.003699921
0.3920003,-0.003748968
0.3910003,-0.003804147
0.3900003,-0.00385626
0.3890003,-0.003908373
0.3880003,-0.003963552
0.3870003,-0.0040126
0.3860003,-0.004064713
0.3850003,-0.004116826
0.3840003,-0.004165874
0.3830003,-0.004224118
0.3820003,-0.004273166
0.3810003,-0.004325279
0.3800003,-0.004383523
0.3790003,-0.004429505
0.3780003,-0.004484684
0.3770003,-0.004539863
0.3760003,-0.004591976
0.3750003,-0.004647155
0.3740003,-0.004699268
0.3730003,-0.004754446
0.3720003,-0.00480656
0.3710003,-0.004861739
0.3700003,-0.004916917
0.3690003,-0.004969031
0.3680003,-0.005024209
0.3670003,-0.005079388
0.3660003,-0.005134566
0.3650003,-0.005189745
0.3640003,-0.005244924
0.3630003,-0.005297037
0.3620003,-0.005352216
0.3610003,-0.005404329
0.3600003,-0.005459507
0.3590003,-0.005517752
0.3580003,-0.005569865
0.3570003,-0.005625044
0.3560003,-0.005680223
0.3550003,-0.005732335
0.3540003,-0.00579058
0.3530003,-0.005842693
0.3520003,-0.005894806
0.3510003,-0.00595305
0.3500003,-0.006002098
0.3490003,-0.006054211
0.3480003,-0.00610939
0.3470003,-0.006158438
0.3460003,-0.006213617
0.3450003,-0.00626573
0.3440003,-0.006314777
0.3430003,-0.006369956
0.3420003,-0.006419003
0.3410003,-0.006468052
0.3400003,-0.00652323
0.3390003,-0.006569212
0.3380003,-0.00661826
0.3370003,-0.006667308
0.3360003,-0.006710225
0.3350003,-0.006759272
0.3340003,-0.006805255
0.3330003,-0.006845106
0.3320003,-0.006888022
0.3310003,-0.006927874
0.3300003,-0.006967725
0.3290003,-0.007004511
0.3280003,-0.007041297
0.3270003,-0.007071951
0.3260003,-0.007105672
0.3250003,-0.007136327
0.3240003,-0.007160851
0.3230003,-0.007182309
0.3220003,-0.007203767
0.3210003,-0.007216029
0.3200003,-0.007228291
0.3190003,-0.007237487
0.3180003,-0.007237487
0.3170003,-0.007237487
0.3160003,-0.007228291
0.3150003,-0.007212963
0.3140003,-0.007197636
0.3130003,-0.007166982
0.3120003,-0.00712713
0.3110003,-0.007090344
0.3100003,-0.007035166
0.3090003,-0.006970791
0.3080003,-0.00690335
0.3070003,-0.006823647
0.3060003,-0.006728617
0.3050003,-0.006627456
0.3040003,-0.006504837
0.3030003,-0.006373021
0.3020003,-0.006228944
0.3010003,-0.006072604
0.3000003,-0.005904003
0.2990003,-0.005723139
0.2980003,-0.005530014
0.2970003,-0.005324626
0.2960003,-0.005110043
0.2950003,-0.004883197
0.2940003,-0.004637958
0.2930003,-0.004398851
0.2920003,-0.004147481
0.2910003,-0.003908373
0.2900003,-0.00369379
0.2890003,-0.003491468
0.2880003,-0.00331367
0.2870003,-0.00315733
0.2860003,-0.003016318
0.2850003,-0.002893699
0.2840003,-0.002783341
0.2830003,-0.002679115
0.2820003,-0.002590216
0.2810003,-0.002507448
0.2800003,-0.002430811
0.2790003,-0.00236337
0.2780003,-0.002298995
0.2770003,-0.002243817
0.2760003,-0.002188638
0.2750003,-0.00213959
0.2740003,-0.002090542
0.2730003,-0.002047626
0.2720003,-0.002004709
0.2710003,-0.001964858
0.2700003,-0.001928072
0.2690003,-0.001891286
0.2680003,-0.001857566
0.2670003,-0.001823845
0.2660003,-0.00179319
0.2650003,-0.001762536
0.2640003,-0.001734946
0.2630003,-0.001704292
0.2620003,-0.001679768
0.2610003,-0.001652178
0.2600003,-0.001627655
0.2590003,-0.001603131
0.2580003,-0.001616724
0.2570003,-0.001594346
0.2560003,-0.001572581
0.2550003,-0.001551736
0.2540003,-0.00153089
0.2530003,-0.001511271
0.2520003,-0.001491959
0.2510003,-0.001472646
0.2500003,-0.001454866
0.2490003,-0.001437393
0.2480003,-0.00141992
0.2470003,-0.00140306
0.2460003,-0.001386813
0.2450003,-0.001370872
0.2440003,-0.001355545
0.2430003,-0.001340524
0.2420003,-0.001325503
0.2410003,-0.001311402
0.2400003,-0.001297301
0.2390003,-0.001283506
0.2380003,-0.001270324
0.2370003,-0.001257143
0.2360003,-0.001244268
0.2350003,-0.001232006
0.2340003,-0.001219744
0.2330003,-0.001208095
0.2320003,-0.001196446
0.2310003,-0.001184797
0.2300003,-0.001173455
0.2290003,-0.001162726
0.2280003,-0.001151997
0.2270003,-0.001141268
0.2260003,-0.001131151
0.2250003,-0.001121035
0.2240003,-0.001110613
0.2230003,-0.00110111
0.2220003,-0.001091607
0.2210003,-0.001081797
0.2200003,-0.001072907
0.2190003,-0.001064017
0.2180003,-0.001055128
0.2170003,-0.001046544
0.2160003,-0.001037654
0.2150003,-0.001029377
0.2140003,-0.001020794
0.2130003,-0.001012824
0.2120003,-0.001004854
0.2110003,-0.0009968834
0.2100003,-0.0009892196
0.2090003,-0.0009815559
0.2080003,-0.0009738922
0.2070003,-0.000966535
0.2060003,-0.0009594844
0.2050003,-0.0009524338
0.2040003,-0.0009453832
0.2030003,-0.0009383326
0.2020003,-0.0009315885
0.2010003,-0.0009248445
0.2000003,-0.0009181004
0.1990003,-0.0009116629
0.1980003,-0.0009052254
0.1970003,-0.0008990944
0.1960003,-0.0008926569
0.1950003,-0.0008865259
0.1940003,-0.000880395
0.1930003,-0.000874264
0.1920003,-0.0008684396
0.1910003,-0.0008626151
0.1900003,-0.0008567907
0.1890003,-0.0008512728
0.1880003,-0.000845755
0.1870003,-0.0008399306
0.1860003,-0.0008350258
0.1850003,-0.0008295079
0.1840003,-0.0008239901
0.1830003,-0.0008187788
0.1820003,-0.000813874
0.1810003,-0.0008086627
0.1800003,-0.0008034513
0.1790003,-0.0007985466
0.1780003,-0.0007933353
0.1770003,-0.000788737
0.1760003,-0.0007838323
0.1750003,-0.0007789275
0.1740003,-0.0007743293
0.1730003,-0.0007700376
0.1720003,-0.0007651328
0.1710003,-0.0007605346
0.1700003,-0.0007562429
0.1690003,-0.0007519512
0.1680003,-0.000747353
0.1670003,-0.0007433679
0.1660003,-0.0007387697
0.1650003,-0.0007344779
0.1640003,-0.0007304929
0.1630003,-0.0007262012
0.1620003,-0.000722216
0.1610003,-0.0007179244
0.1600003,-0.0007139393
0.1590003,-0.0007099541
0.1580003,-0.000705969
0.1570003,-0.0007019839
0.1560003,-0.0006983053
0.1550003,-0.0006946267
0.1540003,-0.0006906416
0.1530003,-0.0006872696
0.1520003,-0.0006832844
0.1510003,-0.0006792994
0.1500003,-0.0006756207
0.1490003,-0.0006722487
0.1480003,-0.0006682636
0.1470003,-0.0006648915
0.1460003,-0.0006615195
0.1450003,-0.0006578409
0.1440003,-0.0006544688
0.1430003,-0.0006507903
0.1420003,-0.0006471117
0.1410003,-0.0006440463
0.1400003,-0.0006406742
0.1390003,-0.0006373022
0.1380003,-0.0006339302
0.1370003,-0.0006308646
0.1360003,-0.0006271861
0.1350003,-0.0006241206
0.1340003,-0.0006210551
0.1330003,-0.0006179896
0.1320003,-0.0006149242
0.1310003,-0.0006118587
0.1300003,-0.0006090997
0.1290003,-0.0006060342
0.1280003,-0.0006029688
0.1270003,-0.0005999033
0.1260003,-0.0005971444
0.1250003,-0.0005943854
0.1240003,-0.0005916265
0.1230003,-0.0005888676
0.1220003,-0.0005861087
0.1210003,-0.0005833497
0.1200003,-0.0005805907
0.1190003,-0.0005781384
0.1180003,-0.0005753795
0.1170003,-0.000572927
0.1160003,-0.0005704747
0.1150003,-0.0005677157
0.1140003,-0.0005655699
0.1130003,-0.0005631176
0.1120003,-0.0005603586
0.1110003,-0.0005579062
0.1100003,-0.0005554538
0.1090003,-0.0005530014
0.1080003,-0.0005508556
0.1070003,-0.0005484032
0.1060003,-0.0005462574
0.1050003,-0.000543805
0.1040003,-0.0005416591
0.1030003,-0.0005395133
0.1020003,-0.0005373674
0.1010003,-0.0005349151
0.1000003,-0.0005327692
0.09900028,-0.0005306234
0.09800029,-0.0005284776
0.09700029,-0.0005263317
0.09600028,-0.0005241859
0.09500029,-0.00052204
0.09400029,-0.0005202008
0.09300029,-0.0005180549
0.09200028,-0.0005159091
0.09100029,-0.0005140697
0.09000029,-0.0005119239
0.08900028,-0.0005100847
0.08800028,-0.0005079389
0.08700029,-0.0005060995
0.08600029,-0.0005042602
0.08500028,-0.0005021144
0.08400029,-0.0005002751
0.08300029,-0.0004984358
0.08200029,-0.0004965966
0.08100028,-0.0004947572
0.08000029,-0.000492918
0.07900029,-0.0004910787
0.07800028,-0.0004892393
0.07700028,-0.0004874001
0.07600029,-0.0004855608
0.07500029,-0.0004840281
0.07400028,-0.0004821887
0.07300029,-0.0004803495
0.07200029,-0.0004785102
0.07100029,-0.0004769774
0.07000028,-0.0004751382
0.06900029,-0.0004736054
0.06800029,-0.0004720727
0.06700028,-0.0004702334
0.06600028,-0.0004687006
0.06500029,-0.0004668614
0.06400029,-0.0004653286
0.06300028,-0.0004637959
0.06200029,-0.0004622631
0.06100029,-0.0004607304
0.06000029,-0.0004591976
0.05900029,-0.0004576649
0.05800029,-0.0004561322
0.05700029,-0.0004545994
0.05600028,-0.0004530667
0.05500029,-0.0004515339
0.05400028,-0.0004500012
0.05300029,-0.0004484684
0.05200029,-0.0004469357
0.05100029,-0.0004457095
0.05000029,-0.0004441768
0.04900029,-0.0004429506
0.04800029,-0.0004414178
0.04700029,-0.0004398851
0.04600029,-0.0004386589
0.04500028,-0.0004371261
0.04400029,-0.0004359
0.04300028,-0.0004343672
0.04200029,-0.000433141
0.04100028,-0.0004316083
0.04000029,-0.0004303821
0.03900029,-0.0004291559
0.03800029,-0.0004279297
0.03700029,-0.000426397
0.03600029,-0.0004251708
0.03500029,-0.0004239446
0.03400028,-0.0004224119
0.03300029,-0.0004211857
0.03200028,-0.0004199595
0.03100029,-0.0004187333
0.03000029,-0.0004175071
0.02900029,-0.0004162809
0.02800029,-0.0004150547
0.02700029,-0.0004138285
0.02600029,-0.0004122957
0.02500029,-0.0004113761
0.02400029,-0.0004101499
0.02300029,-0.0004089237
0.02200029,-0.0004076975
0.02100029,-0.0004061648
0.02000029,-0.0004052451
0.01900029,-0.000404019
0.01800029,-0.0004027928
0.01700029,-0.0004015666
0.01600029,-0.0004003404
0.01500029,-0.0003991142
0.01400029,-0.0003981945
0.01300029,-0.0003969684
0.01200029,-0.0003957421
0.01100029,-0.000394516
0.01000029,-0.0003935963
0.009000286,-0.0003923701
0.008000286,-0.0003911439
0.007000286,-0.0003902243
0.006000286,-0.0003889981
0.005000286,-0.0003880784
0.004000286,-0.0003871588
0.003000286,-0.0003859326
0.002000286,-0.0003847064
0.001000286,-0.0003837868
2.861023E-07,-0.000378882
0.0009997139,-0.0003715248
0.001999714,-0.0003653939
0.002999714,-0.0003601825
0.003999714,-0.0003549712
0.004999714,-0.0003497599
0.005999714,-0.0003454682
0.006999714,-0.00034087
0.007999714,-0.0003368849
0.008999714,-0.0003325932
0.009999714,-0.0003286081
0.01099971,-0.0003249295
0.01199971,-0.0003212509
0.01299971,-0.0003178789
0.01399971,-0.0003142003
0.01499971,-0.0003108283
0.01599971,-0.0003077628
0.01699971,-0.0003046973
0.01799971,-0.0003016318
0.01899971,-0.0002985664
0.01999971,-0.0002958074
0.02099971,-0.0002927419
0.02199971,-0.000289983
0.02299971,-0.0002872241
0.02399971,-0.0002844651
0.02499971,-0.0002820127
0.02599971,-0.0002792538
0.02699971,-0.0002768014
0.02799971,-0.000274349
0.02899971,-0.0002718967
0.02999971,-0.0002691377
0.03099971,-0.0002669919
0.03199971,-0.0002645395
0.03299971,-0.0002620871
0.03399972,-0.0002599413
0.03499971,-0.0002577954
0.03599972,-0.000255343
0.03699971,-0.0002531972
0.03799972,-0.0002510514
0.03899971,-0.0002489055
0.03999971,-0.0002467597
0.04099971,-0.0002446139
0.04199971,-0.000242468
0.04299971,-0.0002406287
0.04399971,-0.0002384829
0.04499971,-0.000236337
0.04599971,-0.0002344978
0.04699972,-0.0002326585
0.04799971,-0.0002308192
0.04899972,-0.0002289799
0.04999971,-0.0002271406
0.05099971,-0.0002249948
0.05199971,-0.000223462
0.05299971,-0.0002213162
0.05399971,-0.0002197834
0.05499971,-0.0002179441
0.05599971,-0.0002161049
0.05699971,-0.0002142656
0.05799972,-0.0002127328
0.05899971,-0.0002108935
0.05999972,-0.0002093608
0.06099971,-0.0002075215
0.06199971,-0.0002059888
0.06299971,-0.0002041495
0.06399971,-0.0002026167
0.06499971,-0.0002007774
0.06599972,-0.0001992447
0.06699971,-0.000197712
0.06799971,-0.0001961792
0.06899972,-0.0001946465
0.06999972,-0.0001931137
0.07099971,-0.0001912744
0.07199971,-0.0001900483
0.07299972,-0.0001885155
0.07399971,-0.0001869828
0.07499971,-0.00018545
0.07599971,-0.0001842238
0.07699972,-0.0001823845
0.07799971,-0.0001811584
0.07899971,-0.0001796256
0.07999972,-0.0001780929
0.08099972,-0.0001768667
0.08199971,-0.0001753339
0.08299971,-0.0001741077
0.08399972,-0.000172575
0.08499971,-0.0001713488
0.08599971,-0.0001698161
0.08699971,-0.0001685899
0.08799972,-0.0001673637
0.08899971,-0.0001658309
0.08999971,-0.0001646047
0.09099972,-0.0001633786
0.09199972,-0.0001618458
0.09299971,-0.0001609262
0.09399971,-0.0001629292
0.09499972,-0.0001616724
0.09599971,-0.0001604768
0.09699971,-0.0001592813
0.09799971,-0.0001580551
0.09899972,-0.0001568596
0.09999971,-0.0001555721
0.1009997,-0.0001544685
0.1019997,-0.0001533036
0.1029997,-0.0001520161
0.1039997,-0.0001508512
0.1049997,-0.0001497476
0.1059997,-0.0001485215
0.1069997,-0.0001474792
0.1079997,-0.0001463756
0.1089997,-0.0001452721
0.1099997,-0.0001441991
0.1109997,-0.0001431262
0.1119997,-0.000141992
0.1129997,-0.0001409804
0.1139997,-0.0001399075
0.1149997,-0.0001389265
0.1159997,-0.0001378536
0.1169997,-0.000136842
0.1179997,-0.0001357997
0.1189997,-0.0001347575
0.1199997,-0.0001338072
0.1209997,-0.0001328262
0.1219997,-0.0001318452
0.1229997,-0.0001308336
0.1239997,-0.000129914
0.1249997,-0.0001289024
0.1259997,-0.0001279827
0.1269997,-0.0001270018
0.1279997,-0.0001260515
0.1289997,-0.0001251625
0.1299997,-0.0001242122
0.1309997,-0.0001232926
0.1319997,-0.0001222809
0.1329997,-0.0001213613
0.1339997,-0.0001204723
0.1349997,-0.000119522
0.1359997,-0.000118633
0.1369997,-0.0001177747
0.1379997,-0.000116947
0.1389997,-0.0001161193
0.1399997,-0.000115261
0.1409997,-0.0001144026
0.1419997,-0.0001136056
0.1429997,-0.0001127166
0.1439997,-0.0001119196
0.1449997,-0.0001110306
0.1459997,-0.000110111
0.1469997,-0.0001092526
0.1479997,-0.0001084863
0.1489997,-0.0001076892
0.1499997,-0.0001069535
0.1509997,-0.0001060952
0.1519997,-0.0001054208
0.1529997,-0.0001045624
0.1539997,-0.0001038267
0.1549997,-0.0001030604
0.1559997,-0.000102294
0.1569997,-0.000101497
0.1579997,-0.0001007306
0.1589997,-9.993356E-05
0.1599997,-9.919784E-05
0.1609997,-9.846213E-05
0.1619997,-9.763445E-05
0.1629997,-9.686808E-05
0.1639997,-9.613237E-05
0.1649997,-9.542731E-05
0.1659997,-9.469159E-05
0.1669997,-9.395587E-05
0.1679997,-9.328147E-05
0.1689997,-9.254575E-05
0.1699997,-9.184069E-05
0.1709997,-9.122759E-05
0.1719997,-9.049188E-05
0.1729997,-8.978682E-05
0.1739997,-8.914307E-05
0.1749997,-8.8438E-05
0.1759997,-8.770229E-05
0.1769997,-8.711984E-05
0.1779997,-8.644543E-05
0.1789997,-8.583234E-05
0.1799997,-8.512728E-05
0.1809997,-8.445288E-05
0.1819997,-8.383978E-05
0.1829997,-8.319603E-05
0.1839997,-8.252162E-05
0.1849997,-8.193919E-05
0.1859997,-8.129543E-05
0.1869997,-8.068234E-05
0.1879997,-8.003858E-05
0.1889997,-7.939483E-05
0.1899997,-7.881239E-05
0.1909997,-7.816863E-05
0.1919997,-7.755554E-05
0.1929997,-7.691179E-05
0.1939997,-7.62987E-05
0.1949997,-7.571625E-05
0.1959997,-7.510315E-05
0.1969997,-7.44594E-05
0.1979997,-7.393827E-05
0.1989997,-7.326387E-05
0.1999997,-7.268143E-05
0.2009997,-7.209898E-05
0.2019997,-7.145523E-05
0.2029997,-7.087279E-05
0.2039997,-7.029035E-05
0.2049997,-6.97079E-05
0.2059997,-6.912547E-05
0.2069997,-6.851237E-05
0.2079997,-6.796058E-05
0.2089997,-6.740879E-05
0.2099997,-6.676505E-05
0.2109997,-6.624391E-05
0.2119997,-6.569213E-05
0.2129997,-6.510968E-05
0.2139997,-6.45579E-05
0.2149997,-6.39448E-05
0.2159997,-6.348498E-05
0.2169997,-6.284122E-05
0.2179997,-6.225878E-05
0.2189997,-6.179896E-05
0.2199997,-6.127783E-05
0.2209997,-6.075669E-05
0.2219997,-6.026622E-05
0.2229997,-5.971443E-05
0.2239997,-5.916264E-05
0.2249997,-5.858021E-05
0.2259997,-5.802842E-05
0.2269997,-5.744598E-05
0.2279997,-5.686353E-05
0.2289997,-5.637306E-05
0.2299997,-5.582127E-05
0.2309997,-5.526948E-05
0.2319997,-5.4779E-05
0.2329997,-5.416591E-05
0.2339997,-5.364477E-05
0.2349997,-5.309299E-05
0.2359997,-5.251055E-05
0.2369997,-5.205073E-05
0.2379997,-5.156024E-05
0.2389997,-5.100846E-05
0.2399997,-5.051799E-05
0.2409997,-5.008882E-05
0.2419997,-4.950637E-05
0.2429997,-4.90159E-05
0.2439997,-4.846411E-05
0.2449997,-4.791233E-05
0.2459997,-4.736054E-05
0.2469997,-4.680875E-05
0.2479997,-4.628762E-05
0.2489997,-4.573583E-05
0.2499997,-4.515339E-05
0.2509997,-4.466291E-05
0.2519997,-4.404982E-05
0.2529997,-4.355934E-05
0.2539997,-4.300755E-05
0.2549997,-4.248642E-05
0.2559997,-4.193463E-05
0.2569997,-4.14135E-05
0.2579997,-4.092303E-05
0.2589997,-4.040189E-05
0.2599997,-3.985011E-05
0.2609997,-3.929832E-05
0.2619997,-3.877719E-05
0.2629997,-3.82254E-05
0.2639997,-3.764296E-05
0.2649997,-3.712183E-05
0.2659997,-3.657004E-05
0.2669997,-3.604891E-05
0.2679997,-3.53745E-05
0.2689997,-3.482271E-05
0.2699997,-3.424027E-05
0.2709997,-3.368848E-05
0.2719997,-3.310604E-05
0.2729997,-3.255426E-05
0.2739997,-3.187985E-05
0.2749997,-3.129741E-05
0.2759997,-3.071497E-05
0.2769997,-3.013253E-05
0.2779997,-2.951943E-05
0.2789997,-2.887568E-05
0.2799997,-2.832389E-05
0.2809997,-2.764948E-05
0.2819997,-2.703639E-05
0.2829997,-2.645395E-05
0.2839997,-2.565692E-05
0.2849997,-2.507448E-05
0.2859997,-2.443073E-05
0.2869997,-2.369501E-05
0.2879997,-2.298995E-05
0.2889997,-2.23462E-05
0.2899997,-2.161048E-05
0.2909997,-2.090542E-05
0.2919997,-2.013905E-05
0.2929997,-1.940334E-05
0.2939997,-1.866762E-05
0.2949997,-1.790125E-05
0.2959997,-1.716554E-05
0.2969997,-1.633786E-05
0.2979997,-1.557148E-05
0.2989997,-1.47438E-05
0.2999997,-1.391612E-05
0.3009997,-1.299648E-05
0.3019997,-1.235378E-05
0.3029997,-1.15261E-05
0.3039997,-1.064017E-05
0.3049997,-9.705202E-06
0.3059997,-8.797818E-06
0.3069997,-7.872042E-06
0.3079997,-6.884957E-06
0.3089997,-5.854954E-06
0.3099997,-4.932245E-06
0.3109997,-3.871588E-06
0.3119997,-2.841585E-06
0.3129997,-1.829976E-06
0.3139997,-7.110752E-07
0.3149997,3.924985E-07
0.3159997,1.57884E-06
0.3169997,2.768247E-06
0.3179997,3.887149E-06
0.3189997,5.232896E-06
0.3199997,6.53266E-06
0.3209997,7.820163E-06
0.3219997,9.168975E-06
0.3229997,1.049939E-05
0.3239997,1.198922E-05
0.3249997,1.337788E-05
0.3259997,1.497193E-05
0.3269997,1.656905E-05
0.3279997,1.811099E-05
0.3289997,1.969584E-05
0.3299997,2.151367E-05
0.3309997,2.314758E-05
0.3319997,2.535271E-05
0.3329997,2.716134E-05
0.3339997,2.900063E-05
0.3349997,3.111581E-05
0.3359997,3.316969E-05
0.3369997,3.528487E-05
0.3379997,3.758398E-05
0.3389997,3.985244E-05
0.3399997,4.239679E-05
0.3409997,4.487983E-05
0.3419997,4.760811E-05
0.3429997,5.048966E-05
0.3439997,5.32486E-05
0.3449997,5.637539E-05
0.3459997,5.971677E-05
0.3469997,6.305814E-05
0.3479997,6.670607E-05
0.3489997,7.047661E-05
0.3499997,7.443108E-05
0.3509997,7.890669E-05
0.3519997,8.347426E-05
0.3529997,8.831772E-05
0.3539997,9.383559E-05
0.3549997,9.93228E-05
0.3559997,0.0001057296
0.3569997,0.0001123511
0.3579997,0.0001196163
0.3589997,0.0001276478
0.3599997,0.0001362925
0.3609997,0.0001457036
0.3619997,0.0001562488
0.3629997,0.0001677137
0.3639997,0.0001808953
0.3649997,0.0001950885
0.3659997,0.0002113355
0.3669997,0.000229943
0.3679997,0.0002508496
0.3689997,0.0002754041
0.3699997,0.0003040664
0.3709997,0.0003408933
0.3719997,0.0003810512
0.3729997,0.00042734
0.3739997,0.0004825187
0.3749997,0.0005472003
0.3759997,0.0006201588
0.3769997,0.0007035399
0.3779997,0.0007945848
0.3789997,0.0008923737
0.3799997,0.0009969067
0.3809997,0.001104199
0.3819997,0.001215169
0.3829997,0.001329205
0.3839997,0.001442321
0.3849997,0.001558503
0.3859997,0.001674378
0.3869997,0.001790253
0.3879997,0.001909194
0.3889997,0.002026602
0.3899997,0.00214585
0.3909997,0.002267856
0.3919997,0.002389249
0.3929997,0.002515547
0.3939997,0.002643071
0.3949997,0.002772434
0.3959997,0.002908235
0.3969997,0.003045262
0.3979997,0.003215808
0.3989997,0.003359886
0.3999997,0.003503963
0.4009997,0.003660303
0.4019997,0.003813577
0.4029997,0.003976048
0.4039997,0.004141584
0.4049997,0.004304054
0.4059997,0.004475721
0.4069997,0.004653519
0.4079997,0.004825186
0.4089997,0.005012181
0.4099997,0.005199175
0.4109997,0.005380039
0.4119997,0.005573164
0.4129997,0.005760158
0.4139997,0.005947153
0.4149997,0.006143344
0.4159997,0.006333403
0.4169997,0.006526529
0.4179997,0.006719654
0.4189997,0.006909714
0.4199997,0.007105905
0.4209997,0.007295965
0.4219997,0.007482959
0.4229997,0.00767302
0.4239997,0.007860013
0.4249997,0.008040877
0.4259997,0.008224807
0.4269997,0.008399539
0.4279997,0.008574272
0.4289997,0.008745939
0.4299997,0.008911475
0.4309997,0.009073945
0.4319997,0.009227219
0.4329997,0.009380493
0.4339997,0.009521506
0.4349997,0.009659452
0.4359997,0.009794333
0.4369997,0.009913887
0.4379997,0.01003651
0.4389997,0.01014686
0.4399997,0.01025109
0.4409997,0.01035532
0.4419997,0.01044422
0.4429997,0.01052698
0.4439997,0.01061588
0.4449997,0.01068026
0.4459997,0.01075383
0.4469997,0.01082127
0.4479997,0.01087645
0.4489997,0.01093776
0.4499997,0.01098987
0.4509997,0.01103279
0.4519997,0.0110849
0.4529997,0.01112782
0.4539997,0.0111646
0.4549997,0.01120752
0.4559997,0.01124737
0.4569997,0.01128109
0.4579997,0.01131481
0.4589997,0.01134853
0.4599997,0.01137919
0.4609997,0.01141291
0.4619997,0.01144663
0.4629997,0.01147115
0.4639997,0.01150181
0.4649997,0.01153859
0.4659997,0.01156005
0.4669997,0.01159071
0.4679997,0.01162749
0.4689997,0.01165202
0.4699997,0.01168574
0.4709997,0.01172252
0.4719997,0.01174705
0.4729997,0.0117869
0.4739997,0.01182981
0.4749997,0.01186047
0.4759997,0.01190952
0.4769997,0.01195856
0.4779997,0.01200761
0.4789997,0.01206585
0.4799997,0.01213023
0.4809997,0.01219154
0.4819997,0.01227124
0.4829997,0.01234788
0.4839997,0.01243678
0.4849997,0.01253794
0.4859997,0.01263604
0.4869997,0.01275252
0.4879997,0.01287208
0.4889997,0.01299776
0.4899997,0.01313877
0.4909997,0.01329205
0.4919997,0.01344532
0.4929997,0.01361086
0.4939997,0.01379172
0.4949997,0.01397872
0.4959997,0.01416571
0.4969997,0.01437416
0.4979997,0.01458568
0.4989997,0.01480027
0.4999997,0.01503631
0.5009997,0.01527235
0.5019997,0.01551146
0.5029997,0.01576896
0.5039997,0.01602952
0.5049997,0.01629316
0.5059997,0.01657518
0.5069997,0.01684801
0.5079997,0.01713923
0.5089997,0.01743351
0.5099997,0.01772474
0.5109997,0.01803435
0.5119997,0.01834396
0.5129997,0.01865358
0.5139997,0.01897545
0.5149997,0.0192912
0.5159997,0.0196192
0.5169997,0.01995028
0.5179997,0.02028748
0.5189997,0.02062468
0.5199997,0.02096189
0.5209997,0.02130829
0.5219997,0.02165162
0.5229997,0.02200108
0.5239997,0.02235668
0.5249997,0.02271228
0.5259997,0.02307094
0.5269997,0.02342653
0.5279997,0.02379439
0.5289997,0.02416225
0.5299997,0.02452091
0.5309997,0.02490103
0.5319997,0.02527196
0.5329997,0.02563368
0.5339997,0.026023
0.5349997,0.02639699
0.5359997,0.02677098
0.5369997,0.02716029
0.5379997,0.02753735
0.5389997,0.02792053
0.5399997,0.02831905
0.5409997,0.02869303
0.5419997,0.02908235
0.5429997,0.0294778
0.5439997,0.02986405
0.5449997,0.03102385
0.5459997,0.03142237
0.5469997,0.03179022
0.5479997,0.03221939
0.5489997,0.03258725
0.5499997,0.03298576
0.5509997,0.03341493
0.5519997,0.03381344
0.5529997,0.03421196
0.5539997,0.03464112
0.5549997,0.03503963
0.5559997,0.03543815
0.5569997,0.03586731
0.5579997,0.03626583
0.5589997,0.03666434
0.5599997,0.03709351
0.5609997,0.03752267
0.5619997,0.03792119
0.5629997,0.03835035
0.5639997,0.03877952
0.5649997,0.03917804
0.5659997,0.0396072
0.5669997,0.04003637
0.5679997,0.04043488
0.5689997,0.04089471
0.5699997,0.04129322
0.5709997,0.04172239
0.5719997,0.04218221
0.5729997,0.04258072
0.5739997,0.04300989
0.5749997,0.04343906
0.5759997,0.04386823
0.5769997,0.04429739
0.5779997,0.04472656
0.5789997,0.04515573
0.5799997,0.04558489
0.5809997,0.04601406
0.5819997,0.04644323
0.5829997,0.04690305
0.5839997,0.04730156
0.5849997,0.04776139
0.5859997,0.04822121
0.5869997,0.04861972
0.5879997,0.04907954
0.5889997,0.04950871
0.5899997,0.04993788
0.5909997,0.05033639
0.5919997,0.05079622
0.5929997,0.05122538
0.5939997,0.05165455
0.5949997,0.05211437
0.5959997,0.05254354
0.5969997,0.0529727
0.5979997,0.05343253
0.5989997,0.0538617
0.5999997,0.05429087
0.6009997,0.05475069
0.6019997,0.05521051
0.6029997,0.05563968
0.6039997,0.0560995
0.6049997,0.05652867
0.6059997,0.05695784
0.6069997,0.05741766
0.6079997,0.05784683
0.6089997,0.0583373
0.6099997,0.05876647
0.6109997,0.05919564
0.6119997,0.0596248
0.6129997,0.06008463
0.6139997,0.06051379
0.6149997,0.06100427
0.6159997,0.06143344
0.6169997,0.06189326
0.6179997,0.06232243
0.6189997,0.06278225
0.6199997,0.06324207
0.6209997,0.06367125
0.6219997,0.06413107
0.6229997,0.06456023
0.6239997,0.06502005
0.6249997,0.06547987
0.6259997,0.06590905
0.6269997,0.06636887
0.6279997,0.06682869
0.6289997,0.06725786
0.6299997,0.06771768
0.6309997,0.06814685
0.6319997,0.06860667
0.6329997,0.06906649
0.6339997,0.06952631
0.6349997,0.06998613
0.6359997,0.07044595
0.6369997,0.07090578
0.6379997,0.07133495
0.6389997,0.07182543
0.6399997,0.07225459
0.6409997,0.07271441
0.6419997,0.07317424
0.6429997,0.07360341
0.6439997,0.07406323
0.6449997,0.07455371
0.6459997,0.07498287
0.6469997,0.07544269
0.6479997,0.07590251
0.6489997,0.07636234
0.6499997,0.07682216
0.6509997,0.07728198
0.6519997,0.07774181
0.6529997,0.07820163
0.6539997,0.07866146
0.6549997,0.07912128
0.6559997,0.0795811
0.6569997,0.08004092
0.6579997,0.08050074
0.6589997,0.08096056
0.6599997,0.08142038
0.6609997,0.08184955
0.6619997,0.08230938
0.6629997,0.08279985
0.6639997,0.08322902
0.6649997,0.08368885
0.6659997,0.08417932
0.6669997,0.08460849
0.6679997,0.08506831
0.6689997,0.08555879
0.6699997,0.08601861
0.6709997,0.08647843
0.6719997,0.08693825
0.6729997,0.08739807
0.6739997,0.08785789
0.6749997,0.08834838
0.6759997,0.08877754
0.6769997,0.08926802
0.6779997,0.08972784
0.6789997,0.09015701
0.6799997,0.09064749
0.6809997,0.09110731
0.6819997,0.09156714
0.6829997,0.09205761
0.6839997,0.09248678
0.6849997,0.09297726
0.6859997,0.09346773
0.6869997,0.0938969
0.6879997,0.09438737
0.6889997,0.09484719
0.6899997,0.09527637
0.6909997,0.09576684
0.6919997,0.09622667
0.6929997,0.09668649
0.6939997,0.09717696
0.6949997,0.09763679
0.6959997,0.09809661
0.6969997,0.09855644
0.6979997,0.09901626
0.6989997,0.09947608
0.6999997,0.0995987
0.6990004,0.09916953
0.6980004,0.0986484
0.6970004,0.09821923
0.6960004,0.09779006
0.6950004,0.09729959
0.6940004,0.09687041
0.6930004,0.09641059
0.6920004,0.09592012
0.6910004,0.0954603
0.6900004,0.09506179
0.6890004,0.09457131
0.6880004,0.09414214
0.6870004,0.09368231
0.6860004,0.09319184
0.6850004,0.09276267
0.6840004,0.09227219
0.6830004,0.09181237
0.6820004,0.09135254
0.6810004,0.09089272
0.6800004,0.0904329
0.6790004,0.09000374
0.6780004,0.08954392
0.6770004,0.08905344
0.6760004,0.08862427
0.6750004,0.08816445
0.6740004,0.08767397
0.6730004,0.0872448
0.6720004,0.08678498
0.6710004,0.0862945
0.6700004,0.08586534
0.6690004,0.08540551
0.6680004,0.08494569
0.6670004,0.08448587
0.6660004,0.08402605
0.6650004,0.08356623
0.6640004,0.08313706
0.6630004,0.08267724
0.6620004,0.08221742
0.6610004,0.08175759
0.6600004,0.08129777
0.6590004,0.08086859
0.6580004,0.08040877
0.6570004,0.07994895
0.6560004,0.07951979
0.6550004,0.07902931
0.6540004,0.07856949
0.6530004,0.07814032
0.6520004,0.0776805
0.6510004,0.07722067
0.6500004,0.07679151
0.6490004,0.07633169
0.6480004,0.07587186
0.6470004,0.07544269
0.6460004,0.07498287
0.6450004,0.07452305
0.6440004,0.07406323
0.6430004,0.07363406
0.6420004,0.07317424
0.6410004,0.07271441
0.6400004,0.07225459
0.6390004,0.07182543
0.6380004,0.07139625
0.6370004,0.07093643
0.6360004,0.07050727
0.6350004,0.07004745
0.6340004,0.06955697
0.6330004,0.0691278
0.6320004,0.06866798
0.6310004,0.06820816
0.6300004,0.06777899
0.6290004,0.06731917
0.6280004,0.06688999
0.6270004,0.06643017
0.6260004,0.06600101
0.6250004,0.06554119
0.6240004,0.06511202
0.6230004,0.0646522
0.6220004,0.06419238
0.6210004,0.06379386
0.6200004,0.06330338
0.6190004,0.06287422
0.6180004,0.06244505
0.6170004,0.06198522
0.6160004,0.0615254
0.6150004,0.06109623
0.6140004,0.06063641
0.6130004,0.06020725
0.6120004,0.05974742
0.6110004,0.0592876
0.6100004,0.05885844
0.6090004,0.05842927
0.6080004,0.05796945
0.6070004,0.05754028
0.6060004,0.05711111
0.6050004,0.05668194
0.6040004,0.05622212
0.6030004,0.05582361
0.6020004,0.05536379
0.6010004,0.05493462
0.6000004,0.0544748
0.5990004,0.05404563
0.5980004,0.05361646
0.5970004,0.05315664
0.5960004,0.05272747
0.5950004,0.0522983
0.5940004,0.05183848
0.5930004,0.05143997
0.5920004,0.0510108
0.5910004,0.05055097
0.5900004,0.05012181
0.5890004,0.04972329
0.5880004,0.04926347
0.5870004,0.04883431
0.5860004,0.04843579
0.5850004,0.04797597
0.5840004,0.0475468
0.5830004,0.04711764
0.5820004,0.04668847
0.5810004,0.0462593
0.5800004,0.04583013
0.5790004,0.04540097
0.5780004,0.0449718
0.5770004,0.04454263
0.5760004,0.04411346
0.5750004,0.0436843
0.5740004,0.04325513
0.5730004,0.04282596
0.5720004,0.04242745
0.5710004,0.04199828
0.5700004,0.04156911
0.5690004,0.04113995
0.5680004,0.04074143
0.5670004,0.04031226
0.5660004,0.0398831
0.5650004,0.03945393
0.5640004,0.03905542
0.5630004,0.03862625
0.5620004,0.03819708
0.5610004,0.03776791
0.5600004,0.0373694
0.5590004,0.03694023
0.5580004,0.03654172
0.5570004,0.03611255
0.5560004,0.03568339
0.5550004,0.03528487
0.5540004,0.03488636
0.5530004,0.03448785
0.5520004,0.03405868
0.5510004,0.03366017
0.5500004,0.033231
0.5490004,0.03283248
0.5480004,0.03243398
0.5470004,0.03203546
0.5460004,0.03163695
0.5450004,0.03120778
0.5440004,0.03080927
0.5430004,0.0303801
0.5420004,0.02998159
0.5410004,0.02961373
0.5400004,0.02921522
0.5390004,0.0288167
0.5380004,0.02841819
0.5370004,0.02801968
0.5360004,0.02762116
0.5350004,0.02722265
0.5340004,0.02682414
0.5330004,0.02645628
0.5320004,0.02605777
0.5310004,0.02565926
0.5300004,0.02526074
0.5290004,0.02489289
0.5280004,0.02449437
0.5270004,0.02412652
0.5260004,0.02375866
0.5250004,0.02336015
0.5240004,0.02296163
0.5230004,0.02259377
0.5220004,0.02219526
0.5210004,0.02182741
0.5200004,0.02145955
0.5190004,0.02106103
0.5180004,0.02069318
0.5170004,0.02032532
0.5160004,0.01995746
0.5150004,0.0195896
0.5140004,0.01922174
0.5130004,0.01885389
0.5120004,0.01848603
0.5110004,0.01814882
0.5100004,0.01778097
0.5090004,0.01744376
0.5080004,0.01707591
0.5070004,0.01670805
0.5060004,0.01637085
0.5050004,0.01603364
0.5040004,0.01569644
0.5030004,0.01532858
0.5020004,0.01499138
0.5010004,0.01465417
0.5000004,0.01431697
0.4990004,0.01397977
0.4980004,0.01361191
0.4970004,0.01330536
0.4960004,0.0124797
0.4950004,0.01215169
0.4940004,0.01183288
0.4930004,0.01151407
0.4920004,0.01119219
0.4910004,0.01088871
0.4900004,0.01057603
0.4890004,0.01026335
0.4880004,0.009966001
0.4870004,0.009659452
0.4860004,0.0093621
0.4850004,0.00907088
0.4840004,0.008773527
0.4830004,0.008482307
0.4820004,0.008200282
0.4810004,0.007915192
0.4800004,0.007633169
0.4790004,0.007357275
0.4780004,0.007084447
0.4770004,0.006811619
0.4760004,0.006544922
0.4750004,0.006287422
0.4740004,0.006020725
0.4730004,0.005766289
0.4720004,0.005517985
0.4710004,0.005260485
0.4700004,0.005024442
0.4690004,0.00478227
0.4680004,0.004540097
0.4670004,0.004313251
0.4660004,0.00408334
0.4650004,0.003859559
0.4640004,0.003638844
0.4630004,0.003421195
0.4620004,0.003212743
0.4610004,0.003001224
0.4600004,0.002795837
0.4590004,0.002599646
0.4580004,0.002403455
0.4570004,0.002213395
0.4560004,0.002032532
0.4550004,0.001845537
0.4540004,0.001670805
0.4530004,0.001499138
0.4520004,0.001327471
0.4510004,0.001168066
0.4500004,0.0009742221
0.4490004,0.000818189
0.4480004,0.0006679803
0.4470004,0.0005186913
0.4460004,0.0003773726
0.4450004,0.0002385062
0.4440004,0.0001020923
0.4430004,-2.573838E-05
0.4420004,-0.0001588521
0.4410004,-0.0002816553
0.4400004,-0.0003988076
0.4390004,-0.0005165222
0.4380004,-0.0006259599
0.4370004,-0.0007363172
0.4360004,-0.0008442223
0.4350004,-0.0009426242
0.4340004,-0.001043785
0.4330004,-0.001140041
0.4320004,-0.001231393
0.4310004,-0.001326116
0.4300004,-0.001411643
0.4290004,-0.001497477
0.4280004,-0.001583617
0.4270004,-0.001659947
0.4260004,-0.001739343
0.4250004,-0.001816593
0.4240004,-0.001888939
0.4230004,-0.001963123
0.4220004,-0.002034549
0.4210004,-0.002103523
0.4200004,-0.002171576
0.4190004,-0.002235032
0.4180004,-0.002301246
0.4170004,-0.002364089
0.4160004,-0.002425398
0.4150004,-0.002488854
0.4140004,-0.002544339
0.4130004,-0.002605035
0.4120004,-0.002665425
0.4110004,-0.002717539
0.4100004,-0.00278314
0.4090004,-0.002845369
0.4080004,-0.002893191
0.4070004,-0.002951129
0.4060004,-0.003002935
0.4050004,-0.003019383
0.4040004,-0.003074562
0.4030004,-0.00312361
0.4020004,-0.003172658
0.4010004,-0.003227836
0.4000004,-0.003276884
0.3990004,-0.003332063
0.3980004,-0.003384176
0.3970004,-0.003436289
0.3960004,-0.003488402
0.3950004,-0.00353745
0.3940004,-0.003589563
0.3930004,-0.003641677
0.3920004,-0.003690724
0.3910004,-0.003745903
0.3900004,-0.003794951
0.3890004,-0.003847064
0.3880004,-0.003899177
0.3870004,-0.003948225
0.3860004,-0.004003403
0.3850004,-0.004055517
0.3840004,-0.004101499
0.3830004,-0.004159743
0.3820004,-0.004208791
0.3810004,-0.004260904
0.3800004,-0.004316083
0.3790004,-0.00436513
0.3780004,-0.004420309
0.3770004,-0.004472422
0.3760004,-0.004524535
0.3750004,-0.004579714
0.3740004,-0.004631828
0.3730004,-0.004683941
0.3720004,-0.004739119
0.3710004,-0.004794298
0.3700004,-0.004846411
0.3690004,-0.00490159
0.3680004,-0.004953703
0.3670004,-0.005008881
0.3660004,-0.005060995
0.3650004,-0.005116174
0.3640004,-0.005171353
0.3630004,-0.005223466
0.3620004,-0.00528171
0.3610004,-0.005333823
0.3600004,-0.005385936
0.3590004,-0.00544418
0.3580004,-0.005499359
0.3570004,-0.005551472
0.3560004,-0.005609716
0.3550004,-0.005658764
0.3540004,-0.005717008
0.3530004,-0.005769121
0.3520004,-0.0058243
0.3510004,-0.005879479
0.3500004,-0.005928526
0.3490004,-0.00598064
0.3480004,-0.006038884
0.3470004,-0.006087931
0.3460004,-0.00614311
0.3450004,-0.006198289
0.3440004,-0.006247337
0.3430004,-0.00629945
0.3420004,-0.006351563
0.3410004,-0.006400611
0.3400004,-0.006449659
0.3390004,-0.006501772
0.3380004,-0.006547754
0.3370004,-0.006596802
0.3360004,-0.006645849
0.3350004,-0.006688766
0.3340004,-0.006734748
0.3330004,-0.006783796
0.3320004,-0.006820582
0.3310004,-0.006860433
0.3300004,-0.00690335
0.3290004,-0.00693707
0.3280004,-0.006967725
0.3270004,-0.007004511
0.3260004,-0.007032101
0.3250004,-0.00705969
0.3240004,-0.007090344
0.3230004,-0.00709954
0.3220004,-0.007120999
0.3210004,-0.007133261
0.3200004,-0.007139392
0.3190004,-0.007145523
0.3180004,-0.007139392
0.3170004,-0.007130195
0.3160004,-0.007124064
0.3150004,-0.007096475
0.3140004,-0.007071951
0.3130004,-0.007041297
0.3120004,-0.006992249
0.3110004,-0.006946267
0.3100004,-0.006884957
0.3090004,-0.006811386
0.3080004,-0.006731683
0.3070004,-0.006645849
0.3060004,-0.006538557
0.3050004,-0.006419003
0.3040004,-0.006293319
0.3030004,-0.006149241
0.3020004,-0.005995967
0.3010004,-0.005833496
0.3000004,-0.005655698
0.2990004,-0.005465638
0.2980004,-0.005272513
0.2970004,-0.005060995
0.2960004,-0.00484028
0.2950004,-0.0046165
0.2940004,-0.004383523
0.2930004,-0.004147481
0.2920004,-0.003926767
0.2910004,-0.003712183
0.2900004,-0.003519057
0.2890004,-0.00334739
0.2880004,-0.003191051
0.2870004,-0.003053104
0.2860004,-0.002936616
0.2850004,-0.002823193
0.2840004,-0.002725097
0.2830004,-0.002633133
0.2820004,-0.002547299
0.2810004,-0.002470662
0.2800004,-0.002400156
0.2790004,-0.002332716
0.2780004,-0.002271406
0.2770004,-0.002216227
0.2760004,-0.002164114
0.2750004,-0.002118132
0.2740004,-0.002069084
0.2730004,-0.002026167
0.2720004,-0.001986316
0.2710004,-0.00194953
0.2700004,-0.001912744
0.2690004,-0.001875959
0.2680004,-0.001845304
0.2670004,-0.001811583
0.2660004,-0.001783994
0.2650004,-0.001753339
0.2640004,-0.00172575
0.2630004,-0.001698161
0.2620004,-0.001673637
0.2610004,-0.001646047
0.2600004,-0.001624589
0.2590004,-0.001600065
0.2580004,-0.001614272
0.2570004,-0.001592507
0.2560004,-0.001571048
0.2550004,-0.001551429
0.2540004,-0.001531504
0.2530004,-0.001511885
0.2520004,-0.001493492
0.2510004,-0.001475712
0.2500004,-0.001457932
0.2490004,-0.001441072
0.2480004,-0.001423905
0.2470004,-0.001407965
0.2460004,-0.001391717
0.2450004,-0.00137639
0.2440004,-0.001361676
0.2430004,-0.001347268
0.2420004,-0.001332554
0.2410004,-0.001318759
0.2400004,-0.001304964
0.2390004,-0.001291783
0.2380004,-0.001278601
0.2370004,-0.001266033
0.2360004,-0.001254077
0.2350004,-0.001241509
0.2340004,-0.00122986
0.2330004,-0.001218211
0.2320004,-0.001206869
0.2310004,-0.00119614
0.2300004,-0.001184797
0.2290004,-0.001174068
0.2280004,-0.001163952
0.2270004,-0.001153223
0.2260004,-0.001143413
0.2250004,-0.001133604
0.2240004,-0.001124101
0.2230004,-0.001114598
0.2220004,-0.001105095
0.2210004,-0.001095898
0.2200004,-0.001087009
0.2190004,-0.001078119
0.2180004,-0.001069535
0.2170004,-0.001061258
0.2160004,-0.001052675
0.2150004,-0.001044705
0.2140004,-0.001036428
0.2130004,-0.001028458
0.2120004,-0.001020794
0.2110004,-0.001013131
0.2100004,-0.001005467
0.2090004,-0.0009981095
0.2080004,-0.0009907524
0.2070004,-0.0009837018
0.2060004,-0.0009763446
0.2050004,-0.0009696006
0.2040004,-0.0009628565
0.2030004,-0.0009558058
0.2020004,-0.0009490618
0.2010004,-0.0009423177
0.2000004,-0.0009355737
0.1990004,-0.0009294427
0.1980004,-0.0009233117
0.1970004,-0.0009168742
0.1960004,-0.0009107432
0.1950004,-0.0009046123
0.1940004,-0.0008984813
0.1930004,-0.0008926569
0.1920004,-0.0008868325
0.1910004,-0.0008813146
0.1900004,-0.0008754902
0.1890004,-0.0008696658
0.1880004,-0.0008641479
0.1870004,-0.0008586301
0.1860004,-0.0008534187
0.1850004,-0.0008479009
0.1840004,-0.000842383
0.1830004,-0.0008374782
0.1820004,-0.0008319604
0.1810004,-0.000826749
0.1800004,-0.0008218443
0.1790004,-0.0008166329
0.1780004,-0.0008117282
0.1770004,-0.0008068234
0.1760004,-0.0008019186
0.1750004,-0.0007970139
0.1740004,-0.0007924156
0.1730004,-0.0007875108
0.1720004,-0.0007829126
0.1710004,-0.0007783144
0.1700004,-0.0007737162
0.1690004,-0.0007691179
0.1680004,-0.0007648263
0.1670004,-0.0007602281
0.1660004,-0.0007562429
0.1650004,-0.0007519512
0.1640004,-0.0007476595
0.1630004,-0.0007433679
0.1620004,-0.0007390762
0.1610004,-0.000735091
0.1600004,-0.000731106
0.1590004,-0.0007268143
0.1580004,-0.0007231357
0.1570004,-0.000718844
0.1560004,-0.0007148589
0.1550004,-0.0007108737
0.1540004,-0.0007071952
0.1530004,-0.0007032101
0.1520004,-0.0006992249
0.1510004,-0.0006955464
0.1500004,-0.0006918678
0.1490004,-0.0006881892
0.1480004,-0.0006845106
0.1470004,-0.0006805255
0.1460004,-0.0006768469
0.1450004,-0.0006734749
0.1440004,-0.0006697963
0.1430004,-0.0006664242
0.1420004,-0.0006627457
0.1410004,-0.0006593736
0.1400004,-0.0006560017
0.1390004,-0.000652323
0.1380004,-0.000648951
0.1370004,-0.0006458855
0.1360004,-0.0006425135
0.1350004,-0.0006391415
0.1340004,-0.0006357695
0.1330004,-0.0006323974
0.1320004,-0.0006293319
0.1310004,-0.0006259599
0.1300004,-0.0006228944
0.1290004,-0.0006198289
0.1280004,-0.0006167634
0.1270004,-0.0006140045
0.1260004,-0.0006109391
0.1250004,-0.0006081801
0.1240004,-0.0006051146
0.1230004,-0.0006023557
0.1220004,-0.0005995968
0.1210004,-0.0005971444
0.1200004,-0.0005940789
0.1190004,-0.0005916265
0.1180004,-0.0005891741
0.1170004,-0.0005864152
0.1160004,-0.0005836562
0.1150004,-0.0005812038
0.1140004,-0.0005784449
0.1130004,-0.0005759926
0.1120004,-0.0005735401
0.1110004,-0.0005710878
0.1100004,-0.0005686354
0.1090004,-0.000566183
0.1080004,-0.0005637306
0.1070004,-0.0005615847
0.1060004,-0.0005591324
0.1050004,-0.00055668
0.1040004,-0.0005545341
0.1030004,-0.0005523883
0.1020004,-0.0005502424
0.1010004,-0.0005477901
0.1000004,-0.0005456443
0.09900038,-0.0005434984
0.09800038,-0.0005413526
0.09700038,-0.0005395133
0.09600038,-0.0005370609
0.09500038,-0.0005349151
0.09400038,-0.0005327692
0.09300038,-0.0005306234
0.09200038,-0.0005287841
0.09100038,-0.0005266382
0.09000038,-0.0005247989
0.08900038,-0.0005226531
0.08800038,-0.0005208139
0.08700038,-0.0005189746
0.08600038,-0.0005168287
0.08500038,-0.0005149894
0.08400038,-0.0005131501
0.08300038,-0.0005113108
0.08200038,-0.0005094716
0.08100038,-0.0005076323
0.08000038,-0.000505793
0.07900038,-0.0005039537
0.07800038,-0.0005021144
0.07700038,-0.0005002751
0.07600038,-0.0004984358
0.07500038,-0.0004965966
0.07400038,-0.0004950638
0.07300038,-0.0004935311
0.07200038,-0.0004916918
0.07100038,-0.0004898525
0.07000038,-0.0004883197
0.06900038,-0.000486787
0.06800038,-0.0004849477
0.06700038,-0.0004834149
0.06600038,-0.0004815757
0.06500039,-0.0004797364
0.06400038,-0.0004782036
0.06300038,-0.0004766709
0.06200038,-0.0004751382
0.06100038,-0.0004736054
0.06000038,-0.0004720727
0.05900038,-0.0004705399
0.05800038,-0.0004690072
0.05700038,-0.0004674745
0.05600038,-0.0004659417
0.05500038,-0.0004644089
0.05400038,-0.0004628762
0.05300038,-0.0004613435
0.05200038,-0.0004601173
0.05100038,-0.0004585845
0.05000038,-0.0004570518
0.04900038,-0.0004555191
0.04800038,-0.0004542929
0.04700038,-0.0004527601
0.04600038,-0.0004512274
0.04500038,-0.0004500012
0.04400038,-0.0004484684
0.04300038,-0.0004469357
0.04200038,-0.0004457095
0.04100038,-0.0004444833
0.04000038,-0.0004429506
0.03900038,-0.0004417244
0.03800038,-0.0004404982
0.03700038,-0.0004389654
0.03600038,-0.0004377393
0.03500038,-0.000436513
0.03400038,-0.0004349803
0.03300038,-0.0004337541
0.03200038,-0.0004325279
0.03100038,-0.0004313017
0.03000038,-0.000429769
0.02900038,-0.0004288494
0.02800038,-0.0004276232
0.02700038,-0.0004260904
0.02600038,-0.0004248642
0.02500038,-0.000423638
0.02400038,-0.0004224119
0.02300038,-0.0004211857
0.02200038,-0.0004199595
0.02100038,-0.0004187333
0.02000038,-0.0004175071
0.01900038,-0.0004162809
0.01800038,-0.0004153613
0.01700038,-0.0004141351
0.01600038,-0.0004129088
0.01500038,-0.0004116826
0.01400038,-0.0004104565
0.01300038,-0.0004092303
0.01200038,-0.0004080041
0.01100038,-0.0004067779
0.01000038,-0.0004055517
0.009000381,-0.000404632
0.008000381,-0.0004034059
0.007000382,-0.0004021796
0.006000381,-0.0004009535
0.005000381,-0.0004000338
0.004000382,-0.0003988076
0.003000381,-0.0003975815
0.002000381,-0.0003963552
0.001000381,-0.0003954356
3.814697E-07,-0.0003902243
0.0009996186,-0.0003828671
0.001999618,-0.0003764296
0.002999618,-0.0003709117
0.003999618,-0.0003653939
0.004999619,-0.0003601825
0.005999619,-0.0003555843
0.006999618,-0.0003506796
0.007999619,-0.0003463879
0.008999619,-0.0003424028
0.009999619,-0.0003381111
0.01099962,-0.0003344325
0.01199962,-0.0003304474
0.01299962,-0.0003267688
0.01399962,-0.0003230902
0.01499962,-0.0003194116
0.01599962,-0.0003160396
0.01699962,-0.0003129741
0.01799962,-0.0003096021
0.01899962,-0.00030623
0.01999962,-0.0003031646
0.02099962,-0.0003004056
0.02199962,-0.0002973401
0.02299962,-0.0002942747
0.02399962,-0.0002912092
0.02499962,-0.0002884502
0.02599962,-0.0002856913
0.02699962,-0.0002832389
0.02799962,-0.00028048
0.02899962,-0.0002777211
0.02999962,-0.0002752687
0.03099962,-0.0002725097
0.03199962,-0.0002700574
0.03299962,-0.0002672984
0.03399962,-0.0002648461
0.03499962,-0.0002627002
0.03599962,-0.0002602478
0.03699962,-0.0002577954
0.03799962,-0.0002556496
0.03899962,-0.0002531972
0.03999962,-0.0002510514
0.04099962,-0.000248599
0.04199962,-0.0002461466
0.04299962,-0.0002440007
0.04399962,-0.0002418549
0.04499962,-0.0002397091
0.04599962,-0.0002375632
0.04699962,-0.000235724
0.04799962,-0.0002335781
0.04899962,-0.0002314323
0.04999962,-0.0002292864
0.05099962,-0.0002274471
0.05199962,-0.0002253013
0.05299962,-0.000223462
0.05399962,-0.0002213162
0.05499962,-0.0002197834
0.05599962,-0.0002179441
0.05699962,-0.0002157983
0.05799962,-0.000213959
0.05899962,-0.0002121197
0.05999962,-0.000210587
0.06099962,-0.0002087477
0.06199962,-0.0002069084
0.06299962,-0.0002050691
0.06399962,-0.0002035364
0.06499962,-0.0002020036
0.06599962,-0.0002001643
0.06699962,-0.0001986316
0.06799962,-0.0001967923
0.06899962,-0.0001952596
0.06999962,-0.0001937268
0.07099961,-0.0001921941
0.07199962,-0.0001903548
0.07299962,-0.0001888221
0.07399962,-0.0001872893
0.07499962,-0.0001860631
0.07599962,-0.0001845304
0.07699962,-0.0001829976
0.07799962,-0.0001814649
0.07899962,-0.0001799322
0.07999962,-0.000178706
0.08099962,-0.0001771732
0.08199961,-0.0001756405
0.08299962,-0.0001741077
0.08399962,-0.0001728816
0.08499962,-0.0001716554
0.08599962,-0.0001701226
0.08699962,-0.0001685899
0.08799962,-0.0001673637
0.08899962,-0.0001661375
0.08999962,-0.0001646047
0.09099962,-0.0001633786
0.09199962,-0.0001621524
0.09299962,-0.0001609262
0.09399962,-0.0001629292
0.09499962,-0.0001616724
0.09599962,-0.0001604768
0.09699962,-0.00015922
0.09799962,-0.0001580245
0.09899962,-0.0001568902
0.09999962,-0.0001556027
0.1009996,-0.0001544685
0.1019996,-0.0001533343
0.1029996,-0.0001521081
0.1039996,-0.0001510352
0.1049996,-0.0001498703
0.1059996,-0.0001487054
0.1069996,-0.0001476938
0.1079996,-0.0001464676
0.1089996,-0.0001454253
0.1099996,-0.0001443524
0.1109996,-0.0001431875
0.1119996,-0.0001421453
0.1129996,-0.0001410417
0.1139996,-0.0001399994
0.1149996,-0.0001389878
0.1159996,-0.0001378842
0.1169996,-0.000136842
0.1179996,-0.0001358917
0.1189996,-0.0001347881
0.1199996,-0.0001337765
0.1209996,-0.0001327955
0.1219996,-0.0001317533
0.1229996,-0.000130803
0.1239996,-0.000129822
0.1249996,-0.0001288104
0.1259996,-0.0001278295
0.1269996,-0.0001268485
0.1279996,-0.0001258675
0.1289996,-0.0001248866
0.1299996,-0.0001239363
0.1309996,-0.000123078
0.1319996,-0.0001221583
0.1329996,-0.0001212693
0.1339996,-0.0001203497
0.1349996,-0.00011943
0.1359996,-0.000118541
0.1369996,-0.0001176521
0.1379996,-0.0001168244
0.1389996,-0.000115966
0.1399996,-0.0001150771
0.1409996,-0.0001142494
0.1419996,-0.0001134217
0.1429996,-0.0001125327
0.1439996,-0.000111705
0.1449996,-0.000110908
0.1459996,-0.0001100803
0.1469996,-0.000109314
0.1479996,-0.0001084863
0.1489996,-0.0001076586
0.1499996,-0.0001069229
0.1509996,-0.0001060952
0.1519996,-0.0001052982
0.1529996,-0.0001045011
0.1539996,-0.0001037348
0.1549996,-0.0001029684
0.1559996,-0.0001021714
0.1569996,-0.000101405
0.1579996,-0.0001006693
0.1589996,-9.990291E-05
0.1599996,-9.910588E-05
0.1609996,-9.837017E-05
0.1619996,-9.766511E-05
0.1629996,-9.696004E-05
0.1639996,-9.616302E-05
0.1649996,-9.545796E-05
0.1659996,-9.472224E-05
0.1669996,-9.398653E-05
0.1679996,-9.331212E-05
0.1689996,-9.260706E-05
0.1699996,-9.190199E-05
0.1709996,-9.122759E-05
0.1719996,-9.055319E-05
0.1729996,-8.981747E-05
0.1739996,-8.914307E-05
0.1749996,-8.846866E-05
0.1759996,-8.77636E-05
0.1769996,-8.708919E-05
0.1779996,-8.641478E-05
0.1789996,-8.574038E-05
0.1799996,-8.506597E-05
0.1809996,-8.439157E-05
0.1819996,-8.371716E-05
0.1829996,-8.310407E-05
0.1839996,-8.249097E-05
0.1849996,-8.181656E-05
0.1859996,-8.11115E-05
0.1869996,-8.052905E-05
0.1879996,-7.985465E-05
0.1889996,-7.918024E-05
0.1899996,-7.85978E-05
0.1909996,-7.795405E-05
0.1919996,-7.734096E-05
0.1929996,-7.672786E-05
0.1939996,-7.611477E-05
0.1949996,-7.550167E-05
0.1959996,-7.491923E-05
0.1969996,-7.427547E-05
0.1979996,-7.369304E-05
0.1989996,-7.304928E-05
0.1999996,-7.246684E-05
0.2009996,-7.185374E-05
0.2019996,-7.120999E-05
0.2029996,-7.065821E-05
0.2039996,-7.004511E-05
0.2049996,-6.943201E-05
0.2059996,-6.888022E-05
0.2069996,-6.823648E-05
0.2079996,-6.765403E-05
0.2089996,-6.710224E-05
0.2099996,-6.648915E-05
0.2109996,-6.590671E-05
0.2119996,-6.535492E-05
0.2129996,-6.474183E-05
0.2139996,-6.419003E-05
0.2149996,-6.363825E-05
0.2159996,-6.305581E-05
0.2169996,-6.247337E-05
0.2179996,-6.192158E-05
0.2189996,-6.133914E-05
0.2199996,-6.075669E-05
0.2209996,-6.023556E-05
0.2219996,-5.971443E-05
0.2229996,-5.913199E-05
0.2239996,-5.861086E-05
0.2249996,-5.805907E-05
0.2259996,-5.747663E-05
0.2269996,-5.69555E-05
0.2279996,-5.637306E-05
0.2289996,-5.579061E-05
0.2299996,-5.536145E-05
0.2309996,-5.474835E-05
0.2319996,-5.422722E-05
0.2329996,-5.370608E-05
0.2339996,-5.31543E-05
0.2349996,-5.260251E-05
0.2359996,-5.205073E-05
0.2369996,-5.152959E-05
0.2379996,-5.097781E-05
0.2389996,-5.042602E-05
0.2399996,-4.990489E-05
0.2409996,-4.944507E-05
0.2419996,-4.886262E-05
0.2429996,-4.831083E-05
0.2439996,-4.775905E-05
0.2449996,-4.720726E-05
0.2459996,-4.665548E-05
0.2469996,-4.604238E-05
0.2479996,-4.549059E-05
0.2489996,-4.496946E-05
0.2499996,-4.435637E-05
0.2509996,-4.377393E-05
0.2519996,-4.316083E-05
0.2529996,-4.260904E-05
0.2539996,-4.211856E-05
0.2549996,-4.147481E-05
0.2559996,-4.095368E-05
0.2569996,-4.040189E-05
0.2579996,-3.981945E-05
0.2589996,-3.929832E-05
0.2599996,-3.865457E-05
0.2609996,-3.807212E-05
0.2619996,-3.752034E-05
0.2629996,-3.69379E-05
0.2639996,-3.638611E-05
0.2649996,-3.577301E-05
0.2659996,-3.519057E-05
0.2669996,-3.460813E-05
0.2679996,-3.399503E-05
0.2689996,-3.335128E-05
0.2699996,-3.273819E-05
0.2709996,-3.212509E-05
0.2719996,-3.151199E-05
0.2729996,-3.092955E-05
0.2739996,-3.025514E-05
0.2749996,-2.961139E-05
0.2759996,-2.89983E-05
0.2769996,-2.823193E-05
0.2779996,-2.761883E-05
0.2789996,-2.685246E-05
0.2799996,-2.61474E-05
0.2809996,-2.55343E-05
0.2819996,-2.482924E-05
0.2829996,-2.418549E-05
0.2839996,-2.341912E-05
0.2849996,-2.274471E-05
0.2859996,-2.210096E-05
0.2869996,-2.133459E-05
0.2879996,-2.066019E-05
0.2889996,-1.992447E-05
0.2899996,-1.909679E-05
0.2909996,-1.842238E-05
0.2919996,-1.756405E-05
0.2929996,-1.676702E-05
0.2939996,-1.600065E-05
0.2949996,-1.511166E-05
0.2959996,-1.425333E-05
0.2969996,-1.34563E-05
0.2979996,-1.271244E-05
0.2989996,-1.190315E-05
0.2999996,-1.094366E-05
0.3009996,-1.009145E-05
0.3019996,-9.147283E-06
0.3029996,-8.193918E-06
0.3039996,-7.237487E-06
0.3049996,-6.281057E-06
0.3059996,-5.272513E-06
0.3069996,-4.248642E-06
0.3079996,-3.096021E-06
0.3089996,-2.130394E-06
0.3099996,-1.054409E-06
0.3109996,9.208121E-08
0.3119996,1.146607E-06
0.3129996,2.271639E-06
0.3139996,3.543815E-06
0.3149996,4.684174E-06
0.3159996,5.9962E-06
0.3169996,7.26531E-06
0.3179996,8.522158E-06
0.3189996,9.824988E-06
0.3199996,1.125963E-05
0.3209996,1.259005E-05
0.3219996,1.410747E-05
0.3229996,1.547161E-05
0.3239996,1.708405E-05
0.3249996,1.863518E-05
0.3259996,2.012501E-05
0.3269996,2.181716E-05
0.3279996,2.352157E-05
0.3289996,2.553664E-05
0.3299996,2.737593E-05
0.3309996,2.912325E-05
0.3319996,3.114647E-05
0.3329996,3.313903E-05
0.3339996,3.51316E-05
0.3349996,3.740006E-05
0.3359996,3.954589E-05
0.3369996,4.1845E-05
0.3379996,4.432804E-05
0.3389996,4.665781E-05
0.3399996,4.929413E-05
0.3409996,5.19611E-05
0.3419996,5.465872E-05
0.3429996,5.763223E-05
0.3439996,6.051379E-05
0.3449996,6.37019E-05
0.3459996,6.713524E-05
0.3469996,7.053792E-05
0.3479996,7.452305E-05
0.3489996,7.838555E-05
0.3499996,8.252395E-05
0.3509996,8.727545E-05
0.3519996,9.178172E-05
0.3529996,9.693173E-05
0.3539996,0.0001023576
0.3549996,0.0001080288
0.3559996,0.0001144663
0.3569996,0.0001212103
0.3579996,0.0001286288
0.3589996,0.0001369363
0.3599996,0.0001455196
0.3609996,0.0001552372
0.3619996,0.000166089
0.3629996,0.0001777685
0.3639996,0.000191134
0.3649996,0.000205971
0.3659996,0.0002225245
0.3669996,0.0002417145
0.3679996,0.0002633568
0.3689996,0.0002888003
0.3699996,0.0003218873
0.3709996,0.0003568339
0.3719996,0.0003985244
0.3729996,0.0004475722
0.3739996,0.0005052032
0.3749996,0.0005723373
0.3759996,0.0006489744
0.3769996,0.0007348079
0.3779996,0.0008292248
0.3789996,0.0009300791
0.3799996,0.001036758
0.3809996,0.001147115
0.3819996,0.001260538
0.3829996,0.001376107
0.3839996,0.001491369
0.3849996,0.001610003
0.3859996,0.001727411
0.3869996,0.001845126
0.3879996,0.001966212
0.3889996,0.002083621
0.3899996,0.00220532
0.3909996,0.002329472
0.3919996,0.002450865
0.3929996,0.002579309
0.3939996,0.002708979
0.3949996,0.002838342
0.3959996,0.002975982
0.3969996,0.003145302
0.3979996,0.003283249
0.3989996,0.003430392
0.3999996,0.003577535
0.4009996,0.003730809
0.4019996,0.003890214
0.4029996,0.004049619
0.4039996,0.004215155
0.4049996,0.004383757
0.4059996,0.004552358
0.4069996,0.004730156
0.4079996,0.004904889
0.4089996,0.005085752
0.4099996,0.005275812
0.4109996,0.005459741
0.4119996,0.00564367
0.4129996,0.005830665
0.4139996,0.006020725
0.4149996,0.006207719
0.4159996,0.006400844
0.4169996,0.006590905
0.4179996,0.006777898
0.4189996,0.006967959
0.4199996,0.007158018
0.4209996,0.007341947
0.4219996,0.007532008
0.4229996,0.007715936
0.4239996,0.007893735
0.4249996,0.008077663
0.4259996,0.00824933
0.4269996,0.008417931
0.4279996,0.008592664
0.4289996,0.0087582
0.4299996,0.008914541
0.4309996,0.009073945
0.4319996,0.009218022
0.4329996,0.0093621
0.4339996,0.009503113
0.4349996,0.009625732
0.4359996,0.009754483
0.4369996,0.009870971
0.4379996,0.009978263
0.4389996,0.01008862
0.4399996,0.01018365
0.4409996,0.01027561
0.4419996,0.01036145
0.4429996,0.01043808
0.4439996,0.01051166
0.4449996,0.01058216
0.4459996,0.01064041
0.4469996,0.01070172
0.4479996,0.01075689
0.4489996,0.01080594
0.4499996,0.01085499
0.4509996,0.01089791
0.4519996,0.01093776
0.4529996,0.01098067
0.4539996,0.01101746
0.4549996,0.01105118
0.4559996,0.0110849
0.4569996,0.01112475
0.4579996,0.01114928
0.4589996,0.011183
0.4599996,0.01121672
0.4609996,0.01124124
0.4619996,0.01127803
0.4629996,0.01130255
0.4639996,0.01133014
0.4649996,0.01136386
0.4659996,0.01138838
0.4669996,0.01141904
0.4679996,0.01145582
0.4689996,0.01148341
0.4699996,0.0115202
0.4709996,0.01155698
0.4719996,0.01158764
0.4729996,0.01163669
0.4739996,0.01168267
0.4749996,0.01172559
0.4759996,0.0117777
0.4769996,0.01182981
0.4779996,0.01188806
0.4789996,0.01195856
0.4799996,0.012026
0.4809996,0.01210264
0.4819996,0.01218541
0.4829996,0.01227124
0.4839996,0.01236934
0.4849996,0.01247357
0.4859996,0.01258699
0.4869996,0.01270041
0.4879996,0.01283223
0.4889996,0.01297017
0.4899996,0.01311118
0.4909996,0.01326753
0.4919996,0.01343919
0.4929996,0.01360166
0.4939996,0.01378559
0.4949996,0.01397872
0.4959996,0.01416878
0.4969996,0.01438336
0.4979996,0.01459794
0.4989996,0.01481559
0.4999996,0.01505163
0.5009996,0.01529381
0.5019996,0.01553598
0.5029996,0.01579042
0.5039996,0.01605405
0.5049996,0.01632075
0.5059996,0.01659051
0.5069996,0.0168756
0.5079996,0.01716375
0.5089996,0.01745191
0.5099996,0.01774926
0.5109996,0.01804968
0.5119996,0.01836236
0.5129996,0.0186781
0.5139996,0.01899078
0.5149996,0.01930959
0.5159996,0.01964373
0.5169996,0.01996254
0.5179996,0.02029974
0.5189996,0.02064001
0.5199996,0.02097108
0.5209996,0.02131748
0.5219996,0.02166388
0.5229996,0.02200722
0.5239996,0.02236281
0.5249996,0.02272147
0.5259996,0.023074
0.5269996,0.02343573
0.5279996,0.02379746
0.5289996,0.02415919
0.5299996,0.02452398
0.5309996,0.02489797
0.5319996,0.02526582
0.5329996,0.02563675
0.5339996,0.0260138
0.5349996,0.02638472
0.5359996,0.02676178
0.5369996,0.02714803
0.5379996,0.02752202
0.5389996,0.02790827
0.5399996,0.02829146
0.5409996,0.02867158
0.5419996,0.02907009
0.5429996,0.02944714
0.5439996,0.02983952
0.5449996,0.0302411
0.5459996,0.03139171
0.5469996,0.03175957
0.5479996,0.03218874
0.5489996,0.03255659
0.5499996,0.03295511
0.5509996,0.03338427
0.5519996,0.03378279
0.5529996,0.0341813
0.5539996,0.03457981
0.5549996,0.03497833
0.5559996,0.03540749
0.5569996,0.035806
0.5579996,0.03620452
0.5589996,0.03663369
0.5599996,0.0370322
0.5609996,0.03746137
0.5619996,0.03785988
0.5629996,0.03828905
0.5639996,0.03871821
0.5649996,0.03914738
0.5659996,0.03954589
0.5669996,0.03997506
0.5679996,0.04040423
0.5689996,0.04083339
0.5699996,0.04126256
0.5709996,0.04166108
0.5719996,0.04209024
0.5729996,0.04251941
0.5739996,0.04294858
0.5749996,0.04337775
0.5759996,0.04380691
0.5769996,0.04423608
0.5779996,0.0446346
0.5789996,0.04506376
0.5799996,0.04552358
0.5809996,0.0459221
0.5819996,0.04638192
0.5829996,0.04681109
0.5839996,0.04724025
0.5849996,0.04766942
0.5859996,0.04809859
0.5869996,0.04852776
0.5879996,0.04895693
0.5889996,0.0493861
0.5899996,0.04981526
0.5909996,0.05024443
0.5919996,0.05070425
0.5929996,0.05110276
0.5939996,0.05156258
0.5949996,0.05202241
0.5959996,0.05242092
0.5969996,0.05288074
0.5979996,0.05330991
0.5989996,0.05376973
0.5999996,0.0541989
0.6009996,0.05462807
0.6019996,0.05508789
0.6029996,0.05551706
0.6039996,0.05594623
0.6049996,0.05640605
0.6059996,0.05683522
0.6069996,0.05726438
0.6079996,0.05772421
0.6089996,0.05818403
0.6099996,0.05861319
0.6109996,0.05907302
0.6119996,0.05953284
0.6129996,0.05993135
0.6139996,0.06042183
0.6149996,0.060851
0.6159996,0.06128017
0.6169996,0.06177064
0.6179996,0.06219981
0.6189996,0.06262898
0.6199996,0.0630888
0.6209996,0.06351797
0.6219996,0.06397779
0.6229996,0.06443761
0.6239996,0.06486678
0.6249996,0.0653266
0.6259996,0.06578642
0.6269996,0.0662156
0.6279996,0.06667542
0.6289996,0.06710459
0.6299996,0.06756441
0.6309996,0.06802423
0.6319996,0.06845339
0.6329996,0.06888256
0.6339996,0.06937304
0.6349996,0.06983286
0.6359996,0.07026203
0.6369996,0.07075251
0.6379996,0.07118168
0.6389996,0.07161084
0.6399996,0.07210132
0.6409996,0.07253049
0.6419996,0.07299031
0.6429996,0.07345013
0.6439996,0.07390995
0.6449996,0.07433912
0.6459996,0.0748296
0.6469996,0.07525877
0.6479996,0.07571859
0.6489996,0.07617841
0.6499996,0.07663824
0.6509996,0.07709806
0.6519996,0.07752723
0.6529996,0.07798705
0.6539996,0.07847752
0.6549996,0.07890669
0.6559996,0.07936651
0.6569996,0.07982634
0.6579996,0.08028616
0.6589996,0.08071532
0.6599996,0.08120581
0.6609996,0.08163497
0.6619996,0.0820948
0.6629996,0.08258527
0.6639996,0.08301444
0.6649996,0.08347426
0.6659996,0.08393408
0.6669996,0.0843939
0.6679996,0.08488438
0.6689996,0.08531355
0.6699996,0.08577337
0.6709996,0.08626385
0.6719996,0.08669301
0.6729996,0.0871835
0.6739996,0.08764332
0.6749996,0.08810314
0.6759996,0.08856296
0.6769996,0.08905344
0.6779996,0.08948261
0.6789996,0.08994243
0.6799996,0.0904329
0.6809996,0.09089272
0.6819996,0.09132189
0.6829996,0.09181237
0.6839996,0.09227219
0.6849996,0.09270137
0.6859996,0.09322249
0.6869996,0.09365166
0.6879996,0.09411149
0.6889996,0.09460196
0.6899996,0.09503113
0.6909996,0.09552161
0.6919996,0.09598143
0.6929996,0.09644125
0.6939996,0.09690107
0.6949996,0.0973609
0.6959996,0.09782072
0.6969996,0.09828054
0.6979996,0.09874036
0.6989996,0.09920018
0.6999996,0.09935346
0.6990005,0.09889363
0.6980005,0.09843381
0.6970005,0.09797399
0.6960005,0.09751417
0.6950005,0.09705435
0.6940005,0.09662518
0.6930005,0.09616536
0.6920004,0.09567488
0.6910005,0.09524571
0.6900005,0.09478589
0.6890005,0.09429541
0.6880005,0.09386625
0.6870005,0.09340642
0.6860005,0.0929466
0.6850005,0.09248678
0.6840005,0.0919963
0.6830005,0.09156714
0.6820005,0.09107666
0.6810005,0.09064749
0.6800005,0.09021832
0.6790005,0.08972784
0.6780005,0.08929868
0.6770005,0.08883885
0.6760005,0.08837903
0.6750005,0.08788855
0.6740005,0.08745939
0.6730005,0.08699957
0.6720005,0.08653974
0.6710005,0.08611058
0.6700005,0.08565076
0.6690005,0.08516028
0.6680005,0.08476176
0.6670005,0.08427128
0.6660005,0.08384212
0.6650005,0.0833823
0.6640005,0.08289181
0.6630005,0.08246265
0.6620005,0.08200283
0.6610005,0.08154301
0.6600005,0.08111384
0.6590005,0.08065402
0.6580005,0.08022485
0.6570005,0.07976502
0.6560005,0.0793052
0.6550004,0.07884538
0.6540005,0.07841621
0.6530005,0.07792573
0.6520005,0.07749657
0.6510005,0.07703675
0.6500005,0.07657693
0.6490005,0.0761171
0.6480005,0.07568794
0.6470005,0.07522812
0.6460005,0.07476829
0.6450005,0.07433912
0.6440005,0.07387929
0.6430005,0.07341947
0.6420005,0.07295965
0.6410004,0.07253049
0.6400005,0.07207067
0.6390005,0.0716415
0.6380005,0.07121233
0.6370005,0.07075251
0.6360005,0.07032334
0.6350005,0.06986352
0.6340005,0.06937304
0.6330005,0.06897452
0.6320005,0.06848405
0.6310005,0.06805488
0.6300005,0.06762572
0.6290005,0.0671659
0.6280005,0.06670607
0.6270005,0.0662769
0.6260005,0.06581708
0.6250005,0.06538791
0.6240005,0.06495874
0.6230005,0.06449892
0.6220005,0.06406976
0.6210005,0.06360994
0.6200005,0.06318077
0.6190005,0.06272095
0.6180004,0.06226112
0.6170005,0.06183195
0.6160005,0.06140279
0.6150005,0.06094296
0.6140005,0.06051379
0.6130005,0.06005397
0.6120005,0.0596248
0.6110005,0.05916498
0.6100005,0.05876647
0.6090005,0.05830665
0.6080005,0.05784683
0.6070005,0.05741766
0.6060005,0.05698849
0.6050005,0.05655932
0.6040004,0.0560995
0.6030005,0.05567033
0.6020005,0.05521051
0.6010005,0.05478134
0.6000005,0.05435218
0.5990005,0.05392301
0.5980005,0.05346319
0.5970005,0.05303402
0.5960005,0.05260485
0.5950005,0.05217568
0.5940005,0.05171586
0.5930005,0.05131735
0.5920005,0.05085753
0.5910005,0.05042836
0.5900005,0.05002984
0.5890005,0.04960068
0.5880005,0.04917151
0.5870005,0.04874234
0.5860005,0.04828252
0.5850005,0.04785335
0.5840005,0.04745484
0.5830005,0.04699502
0.5820005,0.04656585
0.5810004,0.04616734
0.5800005,0.04570751
0.5790005,0.04527835
0.5780005,0.04484918
0.5770005,0.04445067
0.5760005,0.0440215
0.5750005,0.04359233
0.5740005,0.04316316
0.5730005,0.04273399
0.5720005,0.04230483
0.5710005,0.04190632
0.5700005,0.04147715
0.5690005,0.04107863
0.5680005,0.04064947
0.5670004,0.0402203
0.5660005,0.03982178
0.5650005,0.03939262
0.5640005,0.03896345
0.5630005,0.03856494
0.5620005,0.03813577
0.5610005,0.03770661
0.5600005,0.03730809
0.5590005,0.03687892
0.5580005,0.03648041
0.5570005,0.0360819
0.5560005,0.03565273
0.5550005,0.03522356
0.5540005,0.03482505
0.5530005,0.03439588
0.5520005,0.03402802
0.5510005,0.03359886
0.5500005,0.03320035
0.5490005,0.03277118
0.5480005,0.03237266
0.5470005,0.03197415
0.5460005,0.03157564
0.5450005,0.03117712
0.5440005,0.03074796
0.5430005,0.03034945
0.5420005,0.02995093
0.5410005,0.02955242
0.5400005,0.02915391
0.5390005,0.02875539
0.5380005,0.02835688
0.5370005,0.02798902
0.5360005,0.02759051
0.5350005,0.027192
0.5340005,0.02679349
0.5330005,0.02639497
0.5320005,0.02599646
0.5310005,0.0256286
0.5300004,0.02523009
0.5290005,0.02486223
0.5280005,0.02446372
0.5270005,0.02406521
0.5260005,0.02369735
0.5250005,0.02332949
0.5240005,0.02293098
0.5230005,0.02256312
0.5220005,0.02219526
0.5210005,0.02179675
0.5200005,0.02142889
0.5190005,0.02106103
0.5180005,0.02069318
0.5170005,0.02032532
0.5160004,0.01995746
0.5150005,0.0195896
0.5140005,0.01922174
0.5130005,0.01885389
0.5120005,0.01848603
0.5110005,0.01814882
0.5100005,0.01778097
0.5090005,0.01744376
0.5080005,0.01707591
0.5070005,0.0167387
0.5060005,0.01637085
0.5050005,0.01603364
0.5040005,0.01569644
0.5030005,0.01532858
0.5020005,0.01499138
0.5010005,0.01465417
0.5000005,0.01431697
0.4990005,0.01397977
0.4980005,0.01364256
0.4970005,0.01330536
0.4960005,0.01249196
0.4950005,0.01216702
0.4940005,0.01184821
0.4930005,0.01153246
0.4920005,0.01121365
0.4910005,0.0109071
0.4900005,0.01059442
0.4890005,0.01028481
0.4880005,0.009984394
0.4870005,0.00968091
0.4860005,0.009383559
0.4850005,0.009089272
0.4840005,0.008798052
0.4830005,0.008506831
0.4820005,0.008221741
0.4810005,0.007942782
0.4800005,0.007660758
0.4790005,0.007381798
0.4780005,0.007112036
0.4770005,0.006842274
0.4760005,0.006575576
0.4750005,0.006315011
0.4740005,0.006051379
0.4730005,0.005796944
0.4720005,0.00554864
0.4710005,0.00529727
0.4700005,0.005055097
0.4690005,0.00481599
0.4680005,0.004579948
0.4670005,0.004350036
0.4660005,0.004120125
0.4650005,0.003896345
0.4640005,0.003678696
0.4630005,0.003457981
0.4620005,0.003249528
0.4610005,0.00303801
0.4600005,0.002832623
0.4590005,0.002639497
0.4580005,0.002443306
0.4570005,0.002253246
0.4560005,0.002069318
0.4550005,0.001885388
0.4540005,0.001710656
0.4530005,0.001538989
0.4520005,0.001367322
0.4510005,0.001207917
0.4500005,0.001014073
0.4490005,0.0008583469
0.4480005,0.0007075251
0.4470005,0.0005585426
0.4460005,0.0004169173
0.4450005,0.0002777444
0.4440005,0.0001419435
0.4430005,1.28867E-05
0.4420005,-0.0001209628
0.4410005,-0.0002439499
0.4400005,-0.0003601825
0.4390005,-0.0004785102
0.4380005,-0.0005888676
0.4370005,-0.0006979987
0.4360005,-0.0008059037
0.4350005,-0.0009039992
0.4340005,-0.001005467
0.4330005,-0.001102336
0.4320005,-0.001192768
0.4310005,-0.001287185
0.4300005,-0.001372405
0.4290005,-0.001458545
0.4280005,-0.001545298
0.4270005,-0.001622548
0.4260005,-0.001701944
0.4250005,-0.001778888
0.4240005,-0.00185154
0.4230005,-0.001925725
0.4220005,-0.001996537
0.4210005,-0.002064897
0.4200005,-0.002133564
0.4190005,-0.002196407
0.4180005,-0.002262621
0.4170005,-0.002324851
0.4160005,-0.002386467
0.4150005,-0.002450535
0.4140005,-0.00250602
0.4130005,-0.002565491
0.4120005,-0.002625881
0.4110005,-0.002678607
0.4100005,-0.002742676
0.4090005,-0.002804599
0.4080005,-0.002852726
0.4070005,-0.002909744
0.4060005,-0.002961244
0.4050005,-0.003012745
0.4040005,-0.003031645
0.4030005,-0.003080693
0.4020005,-0.003132806
0.4010005,-0.003184919
0.4000005,-0.003237033
0.3990005,-0.003289146
0.3980005,-0.003338194
0.3970005,-0.003390307
0.3960005,-0.003445486
0.3950005,-0.003491468
0.3940005,-0.003546647
0.3930005,-0.003595694
0.3920005,-0.003644742
0.3910005,-0.003696855
0.3900005,-0.003748968
0.3890005,-0.003798016
0.3880005,-0.003850129
0.3870005,-0.003899177
0.3860005,-0.00395129
0.3850005,-0.004003403
0.3840005,-0.004052451
0.3830005,-0.00410763
0.3820005,-0.004156678
0.3810005,-0.004208791
0.3800005,-0.00426397
0.3790005,-0.004313017
0.3780005,-0.004368196
0.3770005,-0.004420309
0.3760005,-0.004469357
0.3750005,-0.004527601
0.3740005,-0.004576649
0.3730005,-0.004628762
0.3720005,-0.004683941
0.3710005,-0.004736054
0.3700005,-0.004791233
0.3690005,-0.004846411
0.3680005,-0.004895459
0.3670005,-0.004953703
0.3660005,-0.005005816
0.3650005,-0.005060995
0.3640005,-0.005116174
0.3630005,-0.005168287
0.3620005,-0.0052204
0.3610005,-0.005278645
0.3600005,-0.005330757
0.3590005,-0.005385936
0.3580005,-0.005438049
0.3570005,-0.005496293
0.3560005,-0.005548407
0.3550005,-0.005600519
0.3540005,-0.005658764
0.3530005,-0.005710877
0.3520005,-0.005762991
0.3510005,-0.005821235
0.3500005,-0.005870283
0.3490005,-0.005925461
0.3480005,-0.00598064
0.3470005,-0.006029687
0.3460005,-0.006084866
0.3450005,-0.006136979
0.3440005,-0.006189092
0.3430005,-0.006241206
0.3420005,-0.006290253
0.3410005,-0.006342367
0.3400005,-0.00639448
0.3390005,-0.006443528
0.3380005,-0.006495641
0.3370005,-0.006541623
0.3360005,-0.00658454
0.3350005,-0.006636653
0.3340005,-0.00667957
0.3330005,-0.006722487
0.3320005,-0.006765403
0.3310005,-0.006799124
0.3300005,-0.006838975
0.3290005,-0.006878826
0.3280005,-0.006906416
0.3270005,-0.006943201
0.3260005,-0.006973856
0.3250005,-0.006992249
0.3240005,-0.007016772
0.3230005,-0.007035166
0.3220005,-0.007044362
0.3210005,-0.007056624
0.3200005,-0.007062755
0.3190005,-0.00705969
0.3180005,-0.007056624
0.3170005,-0.007044362
0.3160005,-0.00702597
0.3150005,-0.00699838
0.3140005,-0.006967725
0.3130005,-0.006927874
0.3120005,-0.006878826
0.3110005,-0.006826713
0.3100005,-0.006753141
0.3090005,-0.00667957
0.3080005,-0.006587605
0.3070005,-0.00648951
0.3060005,-0.006379152
0.3050005,-0.006247337
0.3040005,-0.006112455
0.3030005,-0.005968377
0.3020005,-0.005805907
0.3010005,-0.005637306
0.3000005,-0.005456442
0.2990005,-0.005260251
0.2980005,-0.005060995
0.2970005,-0.004852542
0.2960005,-0.004631828
0.2950005,-0.004411113
0.2940005,-0.004187332
0.2930005,-0.003963552
0.2920005,-0.003758165
0.2910005,-0.003565039
0.2900005,-0.003393373
0.2890005,-0.003240098
0.2880005,-0.003102152
0.2870005,-0.002979532
0.2860005,-0.00287224
0.2850005,-0.002774145
0.2840005,-0.00268218
0.2830005,-0.002599412
0.2820005,-0.00251971
0.2810005,-0.002446138
0.2800005,-0.002378698
0.2790005,-0.002317388
0.2780005,-0.002259144
0.2770005,-0.002203965
0.2760005,-0.002154917
0.2750005,-0.00210587
0.2740005,-0.002062953
0.2730005,-0.002020036
0.2720005,-0.00198325
0.2710005,-0.001943399
0.2700005,-0.001909679
0.2690005,-0.001875959
0.2680005,-0.001845304
0.2670005,-0.001814649
0.2660005,-0.001783994
0.2650005,-0.001756405
0.2640005,-0.001728815
0.2630005,-0.001704292
0.2620005,-0.001676702
0.2610005,-0.001652178
0.2600005,-0.00163072
0.2590005,-0.001609262
0.2580005,-0.001622242
0.2570005,-0.00160109
0.2560005,-0.001580858
0.2550005,-0.001560932
0.2540005,-0.001541926
0.2530005,-0.001523227
0.2520005,-0.001504834
0.2510005,-0.001487361
0.2500005,-0.0014705
0.2490005,-0.00145364
0.2480005,-0.001437393
0.2470005,-0.001422066
0.2460005,-0.001406125
0.2450005,-0.001391411
0.2440005,-0.00137731
0.2430005,-0.001362595
0.2420005,-0.001348801
0.2410005,-0.001335313
0.2400005,-0.001321825
0.2390005,-0.00130895
0.2380005,-0.001296381
0.2370005,-0.001283813
0.2360005,-0.001271857
0.2350005,-0.001259902
0.2340005,-0.001248253
0.2330005,-0.001236604
0.2320005,-0.001225875
0.2310005,-0.001215146
0.2300005,-0.001204417
0.2290005,-0.001193994
0.2280005,-0.001183878
0.2270005,-0.001173455
0.2260005,-0.001163952
0.2250005,-0.001154449
0.2240005,-0.001145253
0.2230005,-0.00113575
0.2220005,-0.00112686
0.2210005,-0.001117663
0.2200005,-0.00110908
0.2190005,-0.001100497
0.2180005,-0.00109222
0.2170005,-0.001083943
0.2160005,-0.001075666
0.2150005,-0.001068003
0.2140005,-0.001060032
0.2130005,-0.001052369
0.2120005,-0.001044705
0.2110005,-0.001037041
0.2100005,-0.001029991
0.2090005,-0.001022634
0.2080005,-0.001015583
0.2070005,-0.001008532
0.2060005,-0.001001482
0.2050005,-0.000995044
0.2040005,-0.0009886065
0.2030005,-0.0009815559
0.2020005,-0.0009751184
0.2010005,-0.0009689874
0.2000005,-0.0009622434
0.1990005,-0.0009564189
0.1980005,-0.000950288
0.1970005,-0.0009438504
0.1960005,-0.0009380261
0.1950005,-0.0009322016
0.1940005,-0.0009263772
0.1930005,-0.0009208593
0.1920005,-0.0009150349
0.1910005,-0.0009098236
0.1900005,-0.0009043057
0.1890005,-0.0008987879
0.1880005,-0.00089327
0.1870005,-0.0008883653
0.1860005,-0.0008828474
0.1850005,-0.0008776361
0.1840005,-0.0008727313
0.1830005,-0.0008678265
0.1820005,-0.0008626151
0.1810005,-0.0008577104
0.1800005,-0.0008528056
0.1790005,-0.0008479009
0.1780005,-0.0008433026
0.1770005,-0.0008383978
0.1760005,-0.0008337997
0.1750005,-0.0008292014
0.1740005,-0.0008246032
0.1730005,-0.0008203115
0.1720005,-0.0008160198
0.1710005,-0.0008111151
0.1700005,-0.00080713
0.1690005,-0.0008028382
0.1680005,-0.0007982401
0.1670005,-0.0007942549
0.1660005,-0.0007899632
0.1650005,-0.0007856716
0.1640005,-0.0007813799
0.1630005,-0.0007773947
0.1620005,-0.0007731031
0.1610005,-0.0007691179
0.1600005,-0.0007648263
0.1590005,-0.0007611477
0.1580005,-0.0007571626
0.1570005,-0.0007528709
0.1560005,-0.0007491923
0.1550005,-0.0007452072
0.1540005,-0.0007412221
0.1530005,-0.0007372369
0.1520005,-0.0007332518
0.1510005,-0.0007292667
0.1500005,-0.0007255881
0.1490005,-0.0007216029
0.1480005,-0.0007176179
0.1470005,-0.0007139393
0.1460005,-0.0007099541
0.1450005,-0.0007062756
0.1440005,-0.0007022904
0.1430005,-0.0006986118
0.1420005,-0.0006949333
0.1410005,-0.0006912547
0.1400005,-0.0006875761
0.1390005,-0.000683591
0.1380005,-0.000680219
0.1370005,-0.0006765404
0.1360005,-0.0006725552
0.1350005,-0.0006691832
0.1340005,-0.0006655046
0.1330005,-0.0006621326
0.1320005,-0.0006587606
0.1310005,-0.0006550819
0.1300005,-0.0006514034
0.1290005,-0.0006480314
0.1280005,-0.0006446594
0.1270005,-0.0006409807
0.1260005,-0.0006376088
0.1250005,-0.0006342367
0.1240005,-0.0006308646
0.1230005,-0.0006277992
0.1220005,-0.0006244272
0.1210005,-0.0006213617
0.1200005,-0.0006182962
0.1190005,-0.0006155373
0.1180005,-0.0006124718
0.1170005,-0.0006094063
0.1160005,-0.0006066473
0.1150005,-0.0006035819
0.1140005,-0.000600823
0.1130005,-0.000598064
0.1120005,-0.0005953051
0.1110005,-0.0005925461
0.1100005,-0.0005900938
0.1090005,-0.0005876414
0.1080005,-0.0005848824
0.1070005,-0.00058243
0.1060005,-0.0005799776
0.1050005,-0.0005775253
0.1040005,-0.0005747664
0.1030005,-0.0005726205
0.1020005,-0.0005704747
0.1010005,-0.0005680223
0.1000005,-0.0005655699
0.09900048,-0.0005631176
0.09800047,-0.0005609716
0.09700048,-0.0005588258
0.09600048,-0.0005563734
0.09500048,-0.0005542276
0.09400047,-0.0005517752
0.09300048,-0.0005496293
0.09200048,-0.0005474835
0.09100047,-0.0005453377
0.09000048,-0.0005431919
0.08900048,-0.0005413526
0.08800048,-0.0005392068
0.08700047,-0.0005373674
0.08600048,-0.0005352216
0.08500048,-0.0005333824
0.08400048,-0.0005312365
0.08300047,-0.0005293972
0.08200048,-0.0005275579
0.08100048,-0.0005257186
0.08000048,-0.0005235728
0.07900048,-0.0005217335
0.07800048,-0.0005195877
0.07700048,-0.0005177484
0.07600047,-0.0005162156
0.07500048,-0.0005140697
0.07400048,-0.000512537
0.07300048,-0.0005106977
0.07200047,-0.0005088585
0.07100048,-0.0005070192
0.07000048,-0.0005051799
0.06900048,-0.0005036471
0.06800048,-0.0005018078
0.06700048,-0.0005002751
0.06600048,-0.0004987424
0.06500047,-0.0004969031
0.06400048,-0.0004953703
0.06300048,-0.0004938376
0.06200048,-0.0004919983
0.06100048,-0.0004904656
0.06000048,-0.0004889328
0.05900048,-0.0004870935
0.05800048,-0.0004855608
0.05700048,-0.0004840281
0.05600048,-0.0004824953
0.05500048,-0.0004809626
0.05400048,-0.0004794298
0.05300048,-0.0004778971
0.05200048,-0.0004763643
0.05100048,-0.0004748316
0.05000048,-0.0004732989
0.04900048,-0.0004720727
0.04800048,-0.0004702334
0.04700048,-0.0004690072
0.04600048,-0.0004674745
0.04500048,-0.0004659417
0.04400048,-0.0004644089
0.04300048,-0.0004631828
0.04200048,-0.0004619566
0.04100048,-0.0004604238
0.04000048,-0.0004588911
0.03900048,-0.0004576649
0.03800048,-0.0004561322
0.03700048,-0.000454906
0.03600048,-0.0004533732
0.03500048,-0.0004518405
0.03400048,-0.0004506143
0.03300048,-0.0004493881
0.03200048,-0.0004478553
0.03100048,-0.0004466292
0.03000048,-0.0004450964
0.02900048,-0.0004438702
0.02800048,-0.000442644
0.02700048,-0.0004414178
0.02600048,-0.0004401917
0.02500048,-0.0004386589
0.02400048,-0.0004374327
0.02300048,-0.0004362065
0.02200048,-0.0004346738
0.02100048,-0.0004334476
0.02000048,-0.0004322214
0.01900048,-0.0004309952
0.01800048,-0.000429769
0.01700048,-0.0004285428
0.01600048,-0.0004273166
0.01500048,-0.0004260904
0.01400048,-0.0004245577
0.01300048,-0.0004233315
0.01200048,-0.0004221053
0.01100048,-0.0004208791
0.01000048,-0.0004196529
0.009000476,-0.0004184267
0.008000477,-0.0004172005
0.007000477,-0.0004159743
0.006000477,-0.0004144416
0.005000477,-0.0004132154
0.004000477,-0.0004119892
0.003000477,-0.0004104565
0.002000477,-0.0004095368
0.001000477,-0.0004080041
