EXPID. 0651
[电化学]: CV : 0 >> 0.7 >> 0 >> 0(V) @ 0.01(V/s) X 10(Seg)
起始电位 (V),0
上限电位 (V),0.7
下限电位 (V),0
终止电位 (V),0
扫速 (V/s),0.01
电解液 信息:
KOH,1
0.001,9.29466E-06
0.002,9.693173E-06
0.003,9.972132E-06
0.004,1.030014E-05
0.005,1.062508E-05
0.006,1.096841E-05
0.007,1.11646E-05
0.008,1.140065E-05
0.009,1.159377E-05
0.01,1.179609E-05
0.011,1.190952E-05
0.012,1.207199E-05
0.013,1.226205E-05
0.014,1.252874E-05
0.015,1.284755E-05
0.016,1.298243E-05
0.017,1.313877E-05
0.018,1.334416E-05
0.019,1.345452E-05
0.02,1.361392E-05
0.021,1.376107E-05
0.022,1.394193E-05
0.023,1.42025E-05
0.024,1.44508E-05
0.025,1.453357E-05
0.026,1.475122E-05
0.027,1.489223E-05
0.028,1.504244E-05
0.029,1.511294E-05
0.03,1.528461E-05
0.031,1.545628E-05
0.032,1.565553E-05
0.033,1.590997E-05
0.034,1.605711E-05
0.035,1.620119E-05
0.036,1.638819E-05
0.037,1.648322E-05
0.038,1.656292E-05
0.039,1.674991E-05
0.04,1.690932E-05
0.041,1.718521E-05
0.042,1.736301E-05
0.043,1.743965E-05
0.044,1.759292E-05
0.045,1.770021E-05
0.046,1.779524E-05
0.047,1.796691E-05
0.048,1.814777E-05
0.049,1.835929E-05
0.05,1.851563E-05
0.051,1.864131E-05
0.052,1.879459E-05
0.053,1.881605E-05
0.054,1.895093E-05
0.055,1.915019E-05
0.056,1.939236E-05
0.057,1.951498E-05
0.058,1.967132E-05
0.059,1.97265E-05
0.06,1.986444E-05
0.061,1.992882E-05
0.062,2.00729E-05
0.063,2.033346E-05
0.064,2.05082E-05
0.065,2.065227E-05
0.066,2.076876E-05
0.067,2.086379E-05
0.068,2.098948E-05
0.069,2.103239E-05
0.07,2.117341E-05
0.071,2.133894E-05
0.072,2.156272E-05
0.073,2.171906E-05
0.074,2.183248E-05
0.075,2.193978E-05
0.076,2.211451E-05
0.077,2.213903E-05
0.078,2.22126E-05
0.079,2.232602E-05
0.08,2.241799E-05
0.081,2.266323E-05
0.082,2.288088E-05
0.083,2.29851E-05
0.084,2.312612E-05
0.085,2.322728E-05
0.086,2.334683E-05
0.087,2.345106E-05
0.088,2.35185E-05
0.089,2.363192E-05
0.09,2.376374E-05
0.091,2.393234E-05
0.092,2.452503E-05
0.093,2.46783E-05
0.094,2.477027E-05
0.095,2.49542E-05
0.096,2.501551E-05
0.097,2.513812E-05
0.098,2.526074E-05
0.099,2.532205E-05
0.1,2.550598E-05
0.101,2.556729E-05
0.102,2.575122E-05
0.103,2.593515E-05
0.104,2.605777E-05
0.105,2.62417E-05
0.106,2.639497E-05
0.107,2.648694E-05
0.108,2.667087E-05
0.109,2.670152E-05
0.11,2.682414E-05
0.111,2.694676E-05
0.112,2.706938E-05
0.113,2.7192E-05
0.114,2.734527E-05
0.115,2.749855E-05
0.116,2.765182E-05
0.117,2.78051E-05
0.118,2.798902E-05
0.119,2.820361E-05
0.12,2.829557E-05
0.121,2.844885E-05
0.122,2.860212E-05
0.123,2.872474E-05
0.124,2.890867E-05
0.125,2.903129E-05
0.126,2.912325E-05
0.127,2.933783E-05
0.128,2.94298E-05
0.129,2.958307E-05
0.13,2.973635E-05
0.131,2.982831E-05
0.132,3.001224E-05
0.133,3.016552E-05
0.134,3.031879E-05
0.135,3.053337E-05
0.136,3.068665E-05
0.137,3.080927E-05
0.138,3.09932E-05
0.139,3.120778E-05
0.14,3.145302E-05
0.141,3.160629E-05
0.142,3.182088E-05
0.143,3.203546E-05
0.144,3.218873E-05
0.145,3.234201E-05
0.146,3.258725E-05
0.147,3.270986E-05
0.148,3.292445E-05
0.149,3.310838E-05
0.15,3.326165E-05
0.151,3.350689E-05
0.152,3.366017E-05
0.153,3.381344E-05
0.154,3.396671E-05
0.155,3.415065E-05
0.156,3.439588E-05
0.157,3.467178E-05
0.158,3.491702E-05
0.159,3.51929E-05
0.16,3.540749E-05
0.161,3.559142E-05
0.162,3.583666E-05
0.163,3.592862E-05
0.164,3.623517E-05
0.165,3.638844E-05
0.166,3.657238E-05
0.167,3.687892E-05
0.168,3.709351E-05
0.169,3.73694E-05
0.17,3.77066E-05
0.171,3.792119E-05
0.172,3.822774E-05
0.173,3.847297E-05
0.174,3.868755E-05
0.175,3.902476E-05
0.176,3.920869E-05
0.177,3.951524E-05
0.178,3.979113E-05
0.179,4.003637E-05
0.18,4.034292E-05
0.181,4.061881E-05
0.182,4.095601E-05
0.183,4.126256E-05
0.184,4.153846E-05
0.185,4.1845E-05
0.186,4.215155E-05
0.187,4.248875E-05
0.188,4.288727E-05
0.189,4.316316E-05
0.19,4.350036E-05
0.191,4.386822E-05
0.192,4.420543E-05
0.193,4.457328E-05
0.194,4.500245E-05
0.195,4.5309E-05
0.196,4.570751E-05
0.197,4.610602E-05
0.198,4.647388E-05
0.199,4.693371E-05
0.2,4.727091E-05
0.201,4.773073E-05
0.202,4.81599E-05
0.203,4.855841E-05
0.204,4.904889E-05
0.205,4.950871E-05
0.206,4.999919E-05
0.207,5.045901E-05
0.208,5.091884E-05
0.209,5.140931E-05
0.21,5.189979E-05
0.211,5.239026E-05
0.212,5.294205E-05
0.213,5.343253E-05
0.214,5.3923E-05
0.215,5.450545E-05
0.216,5.502658E-05
0.217,5.563968E-05
0.218,5.619146E-05
0.219,5.680456E-05
0.22,5.744831E-05
0.221,5.803075E-05
0.222,5.858254E-05
0.223,5.92876E-05
0.224,5.990069E-05
0.225,6.054445E-05
0.226,6.121886E-05
0.227,6.192391E-05
0.228,6.262898E-05
0.229,6.330338E-05
0.23,6.400844E-05
0.231,6.474416E-05
0.232,6.547987E-05
0.233,6.62769E-05
0.234,6.710459E-05
0.235,6.780964E-05
0.236,6.866798E-05
0.237,6.949566E-05
0.238,7.032333E-05
0.239,7.121233E-05
0.24,7.210132E-05
0.241,7.295965E-05
0.242,7.390995E-05
0.243,7.482959E-05
0.244,7.571858E-05
0.245,7.67302E-05
0.246,7.76805E-05
0.247,7.878407E-05
0.248,7.979568E-05
0.249,8.092991E-05
0.25,8.203348E-05
0.251,8.307574E-05
0.252,8.433259E-05
0.253,8.543616E-05
0.254,8.660105E-05
0.255,8.788855E-05
0.256,8.905343E-05
0.257,9.034094E-05
0.258,9.159779E-05
0.259,9.282398E-05
0.26,9.426475E-05
0.261,9.558291E-05
0.262,9.693173E-05
0.263,9.834184E-05
0.264,9.978263E-05
0.265,0.000101254
0.266,0.0001027868
0.267,0.0001042582
0.268,0.0001059442
0.269,0.0001075383
0.27,0.0001091936
0.271,0.000110941
0.272,0.000112627
0.273,0.0001143743
0.274,0.0001162749
0.275,0.0001181142
0.276,0.0001201068
0.277,0.0001220074
0.278,0.0001239999
0.279,0.0001260538
0.28,0.0001281077
0.281,0.0001302535
0.282,0.00013243
0.283,0.0001346065
0.284,0.0001369056
0.285,0.0001392354
0.286,0.0001415958
0.287,0.0001440482
0.288,0.0001465312
0.289,0.0001490756
0.29,0.0001517426
0.291,0.0001543789
0.292,0.0001572298
0.293,0.0001599274
0.294,0.0001628089
0.295,0.0001659357
0.296,0.0001688173
0.297,0.0001719441
0.298,0.0001752242
0.299,0.0001783509
0.3,0.0001818456
0.301,0.0001853402
0.302,0.0001887736
0.303,0.0001925441
0.304,0.0001962227
0.305,0.0002000546
0.306,0.0002040704
0.307,0.0002082394
0.308,0.0002125004
0.309,0.0002165775
0.31,0.0002209612
0.311,0.0002256207
0.312,0.0002301576
0.313,0.000235093
0.314,0.0002400591
0.315,0.0002450865
0.316,0.0002505737
0.317,0.000255877
0.318,0.0002614255
0.319,0.0002674032
0.32,0.0002732889
0.321,0.0002794812
0.322,0.0002860107
0.323,0.0002924482
0.324,0.0003031879
0.325,0.000309932
0.326,0.0003172891
0.327,0.0003252594
0.328,0.0003332296
0.329,0.0003415065
0.33,0.0003507029
0.331,0.0003598994
0.332,0.000370322
0.333,0.0003807446
0.334,0.0003920869
0.335,0.0004046554
0.336,0.000417837
0.337,0.0004322447
0.338,0.0004484918
0.339,0.000465965
0.34,0.0004858907
0.341,0.0005076557
0.342,0.000531873
0.343,0.0005606884
0.344,0.0005919564
0.345,0.0006281291
0.346,0.0006698197
0.347,0.000716415
0.348,0.0007703675
0.349,0.0008313706
0.35,0.0009003439
0.351,0.0009794334
0.352,0.001067413
0.353,0.001166121
0.354,0.001276172
0.355,0.001397565
0.356,0.001531527
0.357,0.001676524
0.358,0.001835929
0.359,0.002007903
0.36,0.002190299
0.361,0.002387103
0.362,0.002595556
0.363,0.002813818
0.364,0.003046182
0.365,0.003316969
0.366,0.003565273
0.367,0.003825839
0.368,0.004092536
0.369,0.00436843
0.37,0.004650454
0.371,0.004938609
0.372,0.005235961
0.373,0.005536378
0.374,0.005839861
0.375,0.00615254
0.376,0.006465219
0.377,0.006787095
0.378,0.007112036
0.379,0.007436977
0.38,0.007771115
0.381,0.008102187
0.382,0.008442456
0.383,0.00878579
0.384,0.009126058
0.385,0.009478589
0.386,0.009828053
0.387,0.01018365
0.388,0.01053925
0.389,0.01089791
0.39,0.01125963
0.391,0.01162443
0.392,0.01199228
0.393,0.01236627
0.394,0.01273413
0.395,0.01310812
0.396,0.01348517
0.397,0.01385916
0.398,0.01423928
0.399,0.0146194
0.4,0.01499646
0.401,0.01538271
0.402,0.01576589
0.403,0.01614908
0.404,0.01653533
0.405,0.01691851
0.406,0.01730477
0.407,0.01769102
0.408,0.01807727
0.409,0.01846965
0.41,0.0188651
0.411,0.01925441
0.412,0.01964066
0.413,0.02002691
0.414,0.02041316
0.415,0.02079942
0.416,0.02118873
0.417,0.02157192
0.418,0.0219643
0.419,0.02234442
0.42,0.02272454
0.421,0.02310772
0.422,0.02348478
0.423,0.0238649
0.424,0.02424808
0.425,0.02462821
0.426,0.02499913
0.427,0.02537312
0.428,0.02574404
0.429,0.02611496
0.43,0.02648589
0.431,0.02684761
0.432,0.0272124
0.433,0.0275772
0.434,0.02792973
0.435,0.02829146
0.436,0.02864705
0.437,0.02898119
0.438,0.02933372
0.439,0.02967705
0.44,0.03000506
0.441,0.03114647
0.442,0.03145302
0.443,0.03175957
0.444,0.03209677
0.445,0.03240332
0.446,0.03270987
0.447,0.03301642
0.448,0.03332296
0.449,0.03359886
0.45,0.03390541
0.451,0.0341813
0.452,0.03445719
0.453,0.03473309
0.454,0.03497833
0.455,0.03522356
0.456,0.0354688
0.457,0.03568339
0.458,0.03592863
0.459,0.03614321
0.46,0.03632713
0.461,0.03654172
0.462,0.03672565
0.463,0.03690958
0.464,0.03706285
0.465,0.03721613
0.466,0.03733874
0.467,0.03746137
0.468,0.03758398
0.469,0.03767595
0.47,0.03773726
0.471,0.03779857
0.472,0.03785988
0.473,0.03789053
0.474,0.03789053
0.475,0.03789053
0.476,0.03785988
0.477,0.03779857
0.478,0.03773726
0.479,0.0376453
0.48,0.03755333
0.481,0.03740006
0.482,0.03724678
0.483,0.03709351
0.484,0.03687892
0.485,0.03663369
0.486,0.0364191
0.487,0.03614321
0.488,0.03583666
0.489,0.03553011
0.49,0.03519291
0.491,0.0348557
0.492,0.03448785
0.493,0.03408933
0.494,0.03369082
0.495,0.03329231
0.496,0.03286314
0.497,0.03246463
0.498,0.03206612
0.499,0.0316676
0.5,0.03129975
0.501,0.03093189
0.502,0.03059468
0.503,0.03028814
0.504,0.02998159
0.505,0.02973635
0.506,0.02952177
0.507,0.02936849
0.508,0.02924587
0.509,0.02915391
0.51,0.0290926
0.511,0.0290926
0.512,0.02912325
0.513,0.02918456
0.514,0.02927653
0.515,0.02936849
0.516,0.02955242
0.517,0.02970569
0.518,0.02988962
0.519,0.03010421
0.52,0.03034945
0.521,0.03059468
0.522,0.03087058
0.523,0.03111582
0.524,0.03139171
0.525,0.03169826
0.526,0.03200481
0.527,0.03231135
0.528,0.03264856
0.529,0.03298576
0.53,0.03332296
0.531,0.03369082
0.532,0.03405868
0.533,0.03439588
0.534,0.03476374
0.535,0.0351316
0.536,0.03553011
0.537,0.03589797
0.538,0.03626583
0.539,0.03666434
0.54,0.03706285
0.541,0.03746137
0.542,0.03785988
0.543,0.03828905
0.544,0.03868756
0.545,0.03908607
0.546,0.03948459
0.547,0.03991375
0.548,0.04031226
0.549,0.04074143
0.55,0.04113995
0.551,0.04156911
0.552,0.04199828
0.553,0.04242745
0.554,0.04282596
0.555,0.04325513
0.556,0.0436843
0.557,0.04411346
0.558,0.04454263
0.559,0.0449718
0.56,0.04540097
0.561,0.04586079
0.562,0.04628995
0.563,0.04671912
0.564,0.04717895
0.565,0.04757746
0.566,0.04803728
0.567,0.04846645
0.568,0.04889562
0.569,0.04935544
0.57,0.0497846
0.571,0.05021377
0.572,0.05067359
0.573,0.05110276
0.574,0.05156258
0.575,0.05202241
0.576,0.05245158
0.577,0.0529114
0.578,0.05334057
0.579,0.05380039
0.58,0.05426021
0.581,0.05472003
0.582,0.05517985
0.583,0.05560903
0.584,0.05606885
0.585,0.05652867
0.586,0.05698849
0.587,0.05741766
0.588,0.05790814
0.589,0.0583373
0.59,0.05879712
0.591,0.05925695
0.592,0.05971677
0.593,0.06017659
0.594,0.06063641
0.595,0.06109623
0.596,0.06155606
0.597,0.06201588
0.598,0.06247571
0.599,0.06296618
0.6,0.06339534
0.601,0.06385517
0.602,0.06434565
0.603,0.06480547
0.604,0.06526529
0.605,0.06575577
0.606,0.06618494
0.607,0.06664476
0.608,0.06713524
0.609,0.06759506
0.61,0.06808554
0.611,0.06854536
0.612,0.06900518
0.613,0.06949566
0.614,0.06998613
0.615,0.07044595
0.616,0.07093643
0.617,0.07139625
0.618,0.07185608
0.619,0.0723159
0.62,0.07277572
0.621,0.07323555
0.622,0.07369537
0.623,0.07412454
0.624,0.07458436
0.625,0.07507484
0.626,0.07547335
0.627,0.07593317
0.628,0.07642365
0.629,0.07682216
0.63,0.07731264
0.631,0.07777246
0.632,0.07820163
0.633,0.07869211
0.634,0.07915193
0.635,0.07964241
0.636,0.08013289
0.637,0.08059271
0.638,0.08108319
0.639,0.08154301
0.64,0.08200283
0.641,0.08249331
0.642,0.08298378
0.643,0.08347426
0.644,0.08393408
0.645,0.08442456
0.646,0.08491503
0.647,0.08537485
0.648,0.08586534
0.649,0.08635581
0.65,0.08681564
0.651,0.08730611
0.652,0.08776593
0.653,0.08825641
0.654,0.08874689
0.655,0.08920672
0.656,0.08969719
0.657,0.09018766
0.658,0.09064749
0.659,0.09113797
0.66,0.09162845
0.661,0.09208827
0.662,0.09257875
0.663,0.09306922
0.664,0.09352904
0.665,0.09401952
0.666,0.09451
0.667,0.09496982
0.668,0.0954603
0.669,0.09595077
0.67,0.09644125
0.671,0.09693173
0.672,0.09739155
0.673,0.09785137
0.674,0.09837251
0.675,0.09883233
0.676,0.0993228
0.677,0.09978263
0.678,0.1002731
0.679,0.1007636
0.68,0.101254
0.681,0.1017445
0.682,0.1022043
0.683,0.1026948
0.684,0.1031853
0.685,0.1036758
0.686,0.1041356
0.687,0.1046261
0.688,0.1051166
0.689,0.1055764
0.69,0.1060975
0.691,0.1065573
0.692,0.1070172
0.693,0.1075076
0.694,0.1079981
0.695,0.1084579
0.696,0.1089791
0.697,0.1094389
0.698,0.1099294
0.699,0.1104198
0.7,0.1105425
0.6990001,0.110052
0.6980001,0.1095922
0.6970001,0.1091017
0.6960001,0.1086112
0.6950001,0.1081514
0.6940001,0.1076609
0.6930001,0.1071704
0.6920001,0.1067106
0.6910001,0.1062201
0.6900001,0.1057297
0.6890001,0.1052698
0.6880001,0.1047794
0.6870001,0.1042889
0.6860001,0.1038291
0.6850001,0.1033386
0.6840001,0.1028788
0.6830001,0.1024189
0.6820001,0.1019285
0.6810001,0.101438
0.6800001,0.1009782
0.6790001,0.100457
0.6780001,0.09999721
0.6770001,0.09953739
0.6760001,0.09904691
0.6750001,0.09858709
0.6740001,0.09809661
0.6730001,0.09760614
0.6720001,0.09714631
0.6710001,0.09665584
0.6700001,0.09619602
0.6690001,0.09573619
0.6680001,0.09524571
0.6670001,0.09478589
0.6660001,0.09432607
0.6650001,0.09380494
0.6640001,0.09334511
0.6630001,0.09288529
0.6620001,0.09239481
0.6610001,0.09193499
0.6600001,0.09144451
0.6590001,0.09095404
0.6580001,0.09049422
0.6570001,0.09003439
0.6560001,0.08954392
0.6550001,0.08911475
0.6540001,0.08862427
0.6530001,0.0881338
0.6520001,0.08767397
0.6510001,0.08721415
0.6500001,0.08672367
0.6490001,0.08626385
0.6480001,0.08577337
0.6470001,0.08531355
0.6460001,0.08485373
0.6450001,0.08436324
0.6440001,0.08390342
0.6430001,0.0834436
0.6420001,0.08295313
0.6410001,0.08249331
0.6400001,0.08203348
0.6390001,0.08154301
0.6380001,0.08108319
0.6370001,0.08062336
0.6360001,0.08016354
0.6350001,0.07970371
0.6340001,0.07924389
0.6330001,0.07875342
0.6320001,0.07829359
0.6310001,0.07783377
0.6300001,0.07734329
0.6290001,0.07688347
0.6280001,0.07642365
0.6270001,0.07593317
0.6260001,0.075504
0.6250001,0.07504418
0.6240001,0.07455371
0.6230001,0.07409389
0.6220001,0.07363406
0.6210001,0.07314359
0.6200001,0.07271441
0.6190001,0.07225459
0.6180001,0.07176412
0.6170001,0.07130429
0.6160001,0.07084447
0.6150001,0.07038464
0.6140001,0.06992482
0.6130001,0.06943435
0.6120001,0.06897452
0.6110001,0.0685147
0.6100001,0.06802423
0.6090001,0.06759506
0.6080001,0.06713524
0.6070001,0.06664476
0.6060001,0.0662156
0.6050001,0.06575577
0.6040001,0.06526529
0.6030001,0.06483613
0.6020001,0.0643763
0.6010001,0.06388583
0.6000001,0.06345665
0.5990001,0.06299683
0.5980001,0.06253701
0.5970001,0.06207719
0.5960001,0.06158672
0.5950001,0.06112689
0.5940001,0.06069772
0.5930001,0.0602379
0.5920001,0.05977808
0.5910001,0.05931826
0.5900001,0.05885844
0.5890001,0.05842927
0.5880001,0.05796945
0.5870001,0.05750962
0.5860001,0.0570498
0.5850001,0.05658998
0.5840001,0.05613015
0.5830001,0.05570099
0.5820001,0.05524116
0.5810001,0.05478134
0.5800001,0.05432152
0.5790001,0.0538617
0.5780001,0.05340188
0.5770001,0.0529727
0.5760001,0.05251288
0.5750001,0.05205306
0.5740001,0.05159324
0.5730001,0.05116407
0.5720001,0.05070425
0.5710001,0.05024443
0.5700001,0.04981526
0.5690001,0.0493861
0.5680001,0.04892627
0.5670001,0.04846645
0.5660001,0.04803728
0.5650001,0.04757746
0.5640001,0.04714829
0.5630001,0.04671912
0.5620001,0.04622864
0.5610001,0.04579948
0.5600001,0.04537031
0.5590001,0.04491049
0.5580001,0.04448132
0.5570001,0.0440215
0.5560001,0.04359233
0.5550001,0.04316316
0.5540001,0.04270334
0.5530001,0.04227417
0.5520001,0.04184501
0.5510001,0.04138518
0.5500001,0.04095602
0.5490001,0.04052685
0.5480001,0.04009768
0.5470001,0.03963786
0.5460001,0.03920869
0.5450001,0.03877952
0.5440001,0.03835035
0.5430001,0.03792119
0.5420001,0.03749202
0.5410001,0.0370322
0.5400001,0.03663369
0.5390001,0.03620452
0.5380001,0.03577535
0.5370001,0.03534618
0.5360001,0.03491702
0.5350001,0.03448785
0.5340001,0.03405868
0.5330001,0.03362951
0.5320001,0.03320035
0.5310001,0.03280183
0.5300001,0.03237266
0.5290001,0.0319435
0.5280001,0.03151433
0.5270001,0.03111582
0.5260001,0.03068665
0.5250001,0.03025748
0.5240001,0.02985897
0.5230001,0.0294298
0.5220001,0.02900063
0.5210001,0.02860212
0.5200001,0.02820361
0.5190001,0.02777444
0.5180001,0.02737593
0.5170001,0.02697741
0.5160001,0.02654825
0.5150001,0.02614973
0.5140001,0.02575122
0.5130001,0.02535271
0.5120001,0.02492354
0.5110001,0.02452503
0.5100001,0.02412652
0.5090001,0.023728
0.5080001,0.02332949
0.5070001,0.02293098
0.5060001,0.02253246
0.5050001,0.02213395
0.5040001,0.02176609
0.5030001,0.02136758
0.5020001,0.02096907
0.5010001,0.02057056
0.5000001,0.0202027
0.4990001,0.01980419
0.4980001,0.01943633
0.4970001,0.01906847
0.4960001,0.01870061
0.4950001,0.0183021
0.4940001,0.01793424
0.4930001,0.01756638
0.4920001,0.01719853
0.4910001,0.01683067
0.4900001,0.01646281
0.4890001,0.01609495
0.4880001,0.01575775
0.4870001,0.01538989
0.4860001,0.01502203
0.4850001,0.01465417
0.4840001,0.01431697
0.4830001,0.01394911
0.4820001,0.01361191
0.4810001,0.01327471
0.4800001,0.01241532
0.4790001,0.01208425
0.4780001,0.01175318
0.4770001,0.01141904
0.4760001,0.01109716
0.4750001,0.01076916
0.4740001,0.01045035
0.4730001,0.01012847
0.4720001,0.009815792
0.4710001,0.009506178
0.4700001,0.009196565
0.4690001,0.008893081
0.4680001,0.008589599
0.4670001,0.008289182
0.4660001,0.007994896
0.4650001,0.007703674
0.4640001,0.007418585
0.4630001,0.007130429
0.4620001,0.00685147
0.4610001,0.006572511
0.4600001,0.006299683
0.4590001,0.006032987
0.4580001,0.005769355
0.4570001,0.005511854
0.4560001,0.005254354
0.4550001,0.005002984
0.4540001,0.004760811
0.4530001,0.004518638
0.4520001,0.004276465
0.4510001,0.004049619
0.4500001,0.003819708
0.4490001,0.003595928
0.4480001,0.003375213
0.4470001,0.003160629
0.4460001,0.002955242
0.4450001,0.00275292
0.4440001,0.002547533
0.4430001,0.002360538
0.4420001,0.002167413
0.4410001,0.001983484
0.4400001,0.001808751
0.4390001,0.001634019
0.4380001,0.001465417
0.4370001,0.001302947
0.4360001,0.001140476
0.4350001,0.0009588947
0.4340001,0.0008083794
0.4330001,0.0006643018
0.4320001,0.0005263551
0.4310001,0.0003881018
0.4300001,0.0002602712
0.4290001,0.0001339733
0.4280001,9.208122E-06
0.4270001,-0.0001080877
0.4260001,-0.0002219398
0.4250001,-0.0003314695
0.4240001,-0.000433141
0.4230001,-0.0005352216
0.4220001,-0.0006333171
0.4210001,-0.0007246684
0.4200001,-0.0008160198
0.4190001,-0.0009006272
0.4180001,-0.000984928
0.4170001,-0.001064631
0.4160001,-0.001142494
0.4150001,-0.001220051
0.4140001,-0.001288717
0.4130001,-0.001358917
0.4120001,-0.001427584
0.4110001,-0.0014892
0.4100001,-0.001560013
0.4090001,-0.001626534
0.4080001,-0.001678953
0.4070001,-0.001737811
0.4060001,-0.00179023
0.4050001,-0.001842037
0.4040001,-0.001896603
0.4030001,-0.00194657
0.4020001,-0.001996537
0.4010001,-0.002045278
0.4000001,-0.002091261
0.3990001,-0.002140308
0.3980001,-0.002184451
0.3970001,-0.002231966
0.3960001,-0.002278255
0.3950001,-0.002318413
0.3940001,-0.002365008
0.3930001,-0.002407618
0.3920001,-0.00244747
0.3910001,-0.002494371
0.3900001,-0.002536062
0.3890001,-0.00257714
0.3880001,-0.002622815
0.3870001,-0.002661441
0.3860001,-0.002704664
0.3850001,-0.002749113
0.3840001,-0.002787738
0.3830001,-0.002832494
0.3820001,-0.002874798
0.3810001,-0.002917408
0.3800001,-0.002963697
0.3790001,-0.003005387
0.3780001,-0.003016318
0.3770001,-0.003059235
0.3760001,-0.003102152
0.3750001,-0.003148134
0.3740001,-0.003194116
0.3730001,-0.003243164
0.3720001,-0.003289146
0.3710001,-0.003338194
0.3700001,-0.003387242
0.3690001,-0.003436289
0.3680001,-0.003485337
0.3670001,-0.00353745
0.3660001,-0.003586498
0.3650001,-0.003641677
0.3640001,-0.003696855
0.3630001,-0.003748968
0.3620001,-0.003804147
0.3610001,-0.003859326
0.3600001,-0.003914505
0.3590001,-0.003975814
0.3580001,-0.004034058
0.3570001,-0.004095368
0.3560001,-0.004156678
0.3550001,-0.004217987
0.3540001,-0.004282362
0.3530001,-0.004343672
0.3520001,-0.004408047
0.3510001,-0.004475488
0.3500001,-0.004539863
0.3490001,-0.004607304
0.3480001,-0.00467781
0.3470001,-0.004748316
0.3460001,-0.004821887
0.3450001,-0.004898524
0.3440001,-0.004969031
0.3430001,-0.005048733
0.3420001,-0.005122304
0.3410001,-0.005198942
0.3400001,-0.00528171
0.3390001,-0.005361412
0.3380001,-0.005441115
0.3370001,-0.005526948
0.3360001,-0.005609716
0.3350001,-0.005698615
0.3340001,-0.005781383
0.3330001,-0.005870283
0.3320001,-0.005959181
0.3310001,-0.006045015
0.3300001,-0.00614311
0.3290001,-0.006232009
0.3280001,-0.006323974
0.3270001,-0.0064282
0.3260001,-0.00652323
0.3250001,-0.00661826
0.3240001,-0.006719421
0.3230001,-0.006817516
0.3220001,-0.006921743
0.3210001,-0.00702597
0.3200001,-0.00712713
0.3190001,-0.007237487
0.3180001,-0.007341714
0.3170001,-0.00744594
0.3160001,-0.007556298
0.3150001,-0.007660524
0.3140001,-0.007770882
0.3130001,-0.00788737
0.3120001,-0.007994662
0.3110001,-0.00811115
0.3100001,-0.008224573
0.3090001,-0.008337996
0.3080001,-0.008454484
0.3070001,-0.008574038
0.3060001,-0.008690527
0.3050001,-0.00881008
0.3040001,-0.008926569
0.3030001,-0.009046122
0.3020001,-0.009165676
0.3010001,-0.00928523
0.3000001,-0.009407849
0.2990001,-0.009527403
0.2980001,-0.009653088
0.2970001,-0.009775707
0.2960001,-0.009898326
0.2950001,-0.01002708
0.2940001,-0.0101497
0.2930001,-0.01028151
0.2920001,-0.01041026
0.2910001,-0.01053288
0.2900001,-0.0106647
0.2890001,-0.01079345
0.2880001,-0.01091913
0.2870001,-0.01105708
0.2860001,-0.01118583
0.2850001,-0.01131458
0.2840001,-0.01145559
0.2830001,-0.01158128
0.2820001,-0.01171616
0.2810001,-0.0118541
0.2800001,-0.01198592
0.2790001,-0.0121208
0.2780001,-0.01225568
0.2770001,-0.01238443
0.2760001,-0.01251931
0.2750001,-0.01265113
0.2740001,-0.01277682
0.2730001,-0.01290557
0.2720001,-0.01302512
0.2710001,-0.01314161
0.2700001,-0.01325503
0.2690001,-0.01336539
0.2680001,-0.01346348
0.2670001,-0.01355545
0.2660001,-0.01363822
0.2650001,-0.01370566
0.2640001,-0.0137639
0.2630001,-0.01380988
0.2620001,-0.01383134
0.2610001,-0.01383441
0.2600001,-0.01380682
0.2590001,-0.01374857
0.2580001,-0.01365661
0.2570001,-0.01352173
0.2560001,-0.01335006
0.2550001,-0.01313854
0.2540001,-0.01286878
0.2530001,-0.01258062
0.2520001,-0.01225568
0.2510001,-0.01190009
0.2500001,-0.01154756
0.2490001,-0.01118276
0.2480001,-0.01080878
0.2470001,-0.01045624
0.2460001,-0.01008839
0.2450001,-0.009735856
0.2440001,-0.009398652
0.2430001,-0.009064515
0.2420001,-0.00874877
0.2410001,-0.008445288
0.2400001,-0.008157132
0.2390001,-0.007893501
0.2380001,-0.007642131
0.2370001,-0.007406089
0.2360001,-0.00718844
0.2350001,-0.006979987
0.2340001,-0.006777665
0.2330001,-0.006605998
0.2320001,-0.0064282
0.2310001,-0.006262664
0.2300001,-0.00610939
0.2290001,-0.00595305
0.2280001,-0.005812038
0.2270001,-0.005677157
0.2260001,-0.005542276
0.2250001,-0.005422722
0.2240001,-0.005300103
0.2230001,-0.005183614
0.2220001,-0.005076322
0.2210001,-0.004965965
0.2200001,-0.004864804
0.2190001,-0.004766709
0.2180001,-0.004668613
0.2170001,-0.004573583
0.2160001,-0.004484684
0.2150001,-0.004395785
0.2140001,-0.004306886
0.2130001,-0.004224118
0.2120001,-0.004138284
0.2110001,-0.004058582
0.2100001,-0.003981945
0.2090001,-0.003908373
0.2080001,-0.003840933
0.2070001,-0.003773492
0.2060001,-0.003709117
0.2050001,-0.003647808
0.2040001,-0.003589563
0.2030001,-0.003531319
0.2020001,-0.00347614
0.2010001,-0.003424027
0.2000001,-0.003371914
0.1990001,-0.003322866
0.1980001,-0.003276884
0.1970001,-0.003227836
0.1960001,-0.003184919
0.1950001,-0.003138937
0.1940001,-0.003099086
0.1930001,-0.003056169
0.1920001,-0.003016318
0.1910001,-0.002976467
0.1900001,-0.002939681
0.1890001,-0.002902895
0.1880001,-0.00286611
0.1870001,-0.002832389
0.1860001,-0.002798669
0.1850001,-0.002764949
0.1840001,-0.002731228
0.1830001,-0.002700574
0.1820001,-0.002666853
0.1810001,-0.002639264
0.1800001,-0.002608609
0.1790001,-0.002577954
0.1780001,-0.002550365
0.1770001,-0.002522775
0.1760001,-0.002495186
0.1750001,-0.002467597
0.1740001,-0.002440007
0.1730001,-0.002415484
0.1720001,-0.002387894
0.1710001,-0.00236337
0.1700001,-0.002338846
0.1690001,-0.002317388
0.1680001,-0.002292864
0.1670001,-0.00226834
0.1660001,-0.002246882
0.1650001,-0.002225423
0.1640001,-0.002203965
0.1630001,-0.002179441
0.1620001,-0.002161048
0.1610001,-0.00213959
0.1600001,-0.002118132
0.1590001,-0.002099739
0.1580001,-0.00207828
0.1570001,-0.002059887
0.1560001,-0.002041495
0.1550001,-0.002020036
0.1540001,-0.002004709
0.1530001,-0.001986316
0.1520001,-0.001967923
0.1510001,-0.00194953
0.1500001,-0.001931137
0.1490001,-0.00191581
0.1480001,-0.001897417
0.1470001,-0.00188209
0.1460001,-0.001866762
0.1450001,-0.001848369
0.1440001,-0.001833042
0.1430001,-0.001817714
0.1420001,-0.001802387
0.1410001,-0.00178706
0.1400001,-0.001771732
0.1390001,-0.001756405
0.1380001,-0.001744143
0.1370001,-0.001728815
0.1360001,-0.001713488
0.1350001,-0.001701226
0.1340001,-0.001685899
0.1330001,-0.001670571
0.1320001,-0.001658309
0.1310001,-0.001646047
0.1300001,-0.001633785
0.1290001,-0.001618458
0.1280001,-0.0016437
0.1270001,-0.001631438
0.1260001,-0.00161887
0.1250001,-0.001606608
0.1240001,-0.001594346
0.1230001,-0.001582391
0.1220001,-0.001570742
0.1210001,-0.001559093
0.1200001,-0.001547138
0.1190001,-0.001536408
0.1180001,-0.001525066
0.1170001,-0.00151403
0.1160001,-0.001503301
0.1150001,-0.001492265
0.1140001,-0.001481536
0.1130001,-0.001471114
0.1120001,-0.001460384
0.1110001,-0.001450575
0.1100001,-0.001440152
0.1090001,-0.001430036
0.1080001,-0.001420227
0.1070001,-0.00141011
0.1060001,-0.001400301
0.1050001,-0.001390491
0.1040001,-0.001381295
0.1030001,-0.001372098
0.1020001,-0.001363209
0.1010001,-0.001353706
0.1000001,-0.001344816
0.0990001,-0.001335313
0.09800009,-0.001326729
0.09700009,-0.001317533
0.0960001,-0.00130895
0.0950001,-0.001300366
0.09400009,-0.001292089
0.0930001,-0.001283506
0.0920001,-0.001275229
0.0910001,-0.001266952
0.09000009,-0.001258676
0.0890001,-0.001250705
0.0880001,-0.001242429
0.08700009,-0.001234765
0.08600009,-0.001227101
0.0850001,-0.001219131
0.0840001,-0.001211467
0.08300009,-0.00120411
0.08200009,-0.001196753
0.0810001,-0.001189396
0.0800001,-0.001182038
0.07900009,-0.001174681
0.0780001,-0.001167631
0.0770001,-0.00116058
0.07600009,-0.00115353
0.07500009,-0.001146172
0.0740001,-0.001139122
0.0730001,-0.001132378
0.07200009,-0.001125634
0.07100009,-0.001119196
0.0700001,-0.001112452
0.0690001,-0.001105708
0.06800009,-0.001098964
0.0670001,-0.001092526
0.0660001,-0.001086395
0.06500009,-0.001079958
0.06400009,-0.001073827
0.0630001,-0.001067696
0.0620001,-0.001061565
0.06100009,-0.001055434
0.0600001,-0.001049303
0.0590001,-0.001043172
0.0580001,-0.001037348
0.0570001,-0.001031217
0.05600009,-0.001025392
0.0550001,-0.001019568
0.05400009,-0.001013744
0.0530001,-0.001007919
0.05200009,-0.001002708
0.0510001,-0.0009968834
0.05000009,-0.0009916719
0.0490001,-0.0009861541
0.04800009,-0.0009806362
0.0470001,-0.0009751184
0.0460001,-0.0009696006
0.04500009,-0.0009643892
0.0440001,-0.0009591779
0.04300009,-0.0009539665
0.0420001,-0.0009487552
0.04100009,-0.0009435439
0.0400001,-0.0009383326
0.03900009,-0.0009334278
0.0380001,-0.0009285231
0.03700009,-0.0009233117
0.0360001,-0.0009187135
0.0350001,-0.0009135022
0.03400009,-0.000908904
0.0330001,-0.0009039992
0.03200009,-0.000899401
0.03100009,-0.0008944962
0.0300001,-0.000889898
0.0290001,-0.0008852997
0.0280001,-0.0008807015
0.0270001,-0.0008757967
0.0260001,-0.0008711985
0.0250001,-0.0008669068
0.0240001,-0.0008623086
0.0230001,-0.0008577104
0.02200009,-0.0008534187
0.02100009,-0.000849127
0.02000009,-0.0008448354
0.0190001,-0.0008405437
0.0180001,-0.000836252
0.0170001,-0.0008322669
0.0160001,-0.0008279752
0.0150001,-0.0008239901
0.0140001,-0.0008196984
0.0130001,-0.0008154067
0.0120001,-0.0008114216
0.01100009,-0.0008074365
0.0100001,-0.0008034513
0.009000096,-0.0007994662
0.008000095,-0.0007954811
0.007000095,-0.000791496
0.006000096,-0.0007878174
0.005000095,-0.0007838323
0.004000095,-0.0007801537
0.003000095,-0.0007764751
0.002000095,-0.0007727966
0.001000095,-0.0007688114
9.536743E-08,-0.0007583887
0.0009999046,-0.000740609
0.001999905,-0.0007243619
0.002999905,-0.0007096475
0.003999905,-0.0006958529
0.004999904,-0.0006829779
0.005999905,-0.0006707159
0.006999905,-0.0006590671
0.007999904,-0.0006480314
0.008999905,-0.0006373022
0.009999905,-0.0006274926
0.0109999,-0.0006176831
0.0119999,-0.0006081801
0.0129999,-0.0005995968
0.0139999,-0.0005907068
0.0149999,-0.00058243
0.0159999,-0.0005744598
0.0169999,-0.000566183
0.0179999,-0.0005588258
0.0189999,-0.0005511622
0.0199999,-0.000543805
0.0209999,-0.0005370609
0.0219999,-0.0005300103
0.02299991,-0.0005235728
0.02399991,-0.0005168287
0.02499991,-0.0005106977
0.02599991,-0.0005045668
0.0269999,-0.0004984358
0.0279999,-0.0004926114
0.0289999,-0.000486787
0.0299999,-0.0004809626
0.0309999,-0.0004754447
0.0319999,-0.0004699268
0.0329999,-0.0004647155
0.0339999,-0.0004591976
0.0349999,-0.0004542929
0.03599991,-0.0004493881
0.0369999,-0.0004441768
0.03799991,-0.0004395786
0.0389999,-0.0004346738
0.03999991,-0.000429769
0.0409999,-0.0004251708
0.04199991,-0.0004205726
0.0429999,-0.0004162809
0.0439999,-0.0004116826
0.0449999,-0.000407391
0.0459999,-0.0004030993
0.04699991,-0.0003988076
0.0479999,-0.0003948225
0.04899991,-0.0003905308
0.0499999,-0.0003865457
0.05099991,-0.0003828671
0.0519999,-0.000378882
0.05299991,-0.0003748969
0.0539999,-0.0003712183
0.0549999,-0.0003672332
0.0559999,-0.0003635546
0.0569999,-0.000359876
0.05799991,-0.0003561974
0.0589999,-0.0003528254
0.05999991,-0.0003491468
0.0609999,-0.0003457748
0.06199991,-0.0003424028
0.0629999,-0.0003390307
0.06399991,-0.0003356587
0.06499991,-0.0003322866
0.0659999,-0.0003289146
0.0669999,-0.0003258491
0.06799991,-0.0003224771
0.0689999,-0.0003194116
0.0699999,-0.0003163462
0.07099991,-0.0003129741
0.07199991,-0.0003099086
0.0729999,-0.0003068431
0.0739999,-0.0003037777
0.07499991,-0.0003010187
0.07599991,-0.0002979533
0.0769999,-0.0002951943
0.0779999,-0.0002924354
0.07899991,-0.0002893699
0.0799999,-0.000286611
0.0809999,-0.0002841586
0.08199991,-0.0002813996
0.08299991,-0.0002786407
0.0839999,-0.0002758818
0.0849999,-0.0002734294
0.08599991,-0.0002706705
0.08699991,-0.0002679115
0.0879999,-0.0002651526
0.0889999,-0.0002627002
0.08999991,-0.0002602478
0.0909999,-0.0002577954
0.0919999,-0.000255343
0.09299991,-0.0002528907
0.09399991,-0.0002504383
0.0949999,-0.0002479859
0.0959999,-0.0002455335
0.09699991,-0.0002430811
0.09799991,-0.0002409353
0.0989999,-0.0002384829
0.0999999,-0.0002360305
0.1009999,-0.0002338847
0.1019999,-0.0002317388
0.1029999,-0.0002292864
0.1039999,-0.0002271406
0.1049999,-0.0002249948
0.1059999,-0.0002228489
0.1069999,-0.0002207031
0.1079999,-0.0002182507
0.1089999,-0.0002161049
0.1099999,-0.0002142656
0.1109999,-0.0002121197
0.1119999,-0.0002099739
0.1129999,-0.0002081346
0.1139999,-0.0002059888
0.1149999,-0.0002038429
0.1159999,-0.0002020036
0.1169999,-0.0001998578
0.1179999,-0.0001980185
0.1189999,-0.0001961792
0.1199999,-0.0001943399
0.1209999,-0.0001925007
0.1219999,-0.0001903548
0.1229999,-0.0001885155
0.1239999,-0.0001866762
0.1249999,-0.0001848369
0.1259999,-0.0001829976
0.1269999,-0.0001811584
0.1279999,-0.0001793191
0.1289999,-0.0001774798
0.1299999,-0.0001756405
0.1309999,-0.0001741077
0.1319999,-0.0001722685
0.1329999,-0.0001704292
0.1339999,-0.0001688964
0.1349999,-0.0001670571
0.1359999,-0.0001652178
0.1369999,-0.0001636851
0.1379999,-0.0001618458
0.1389999,-0.0001603131
0.1399999,-0.0001620709
0.1409999,-0.0001604155
0.1419999,-0.0001587908
0.1429999,-0.0001571048
0.1439999,-0.0001556334
0.1449999,-0.0001540393
0.1459999,-0.0001524759
0.1469999,-0.0001509125
0.1479999,-0.0001493798
0.1489999,-0.0001478471
0.1499999,-0.0001463756
0.1509999,-0.0001448122
0.1519999,-0.0001434021
0.1529999,-0.0001419613
0.1539999,-0.0001404899
0.1549999,-0.0001390491
0.1559999,-0.000137547
0.1569999,-0.000136045
0.1579999,-0.0001346348
0.1589999,-0.0001331327
0.1599999,-0.0001317839
0.1609999,-0.0001303738
0.1619999,-0.0001289637
0.1629999,-0.0001276455
0.1639999,-0.0001262354
0.1649999,-0.0001249479
0.1659999,-0.0001236604
0.1669999,-0.0001222809
0.1679999,-0.0001210241
0.1689999,-0.0001196753
0.1699999,-0.0001183265
0.1709999,-0.000117039
0.1719999,-0.0001157208
0.1729999,-0.0001143413
0.1739999,-0.0001130845
0.1749999,-0.000111797
0.1759999,-0.0001106321
0.1769999,-0.0001094059
0.1779999,-0.0001081491
0.1789999,-0.0001069535
0.1799999,-0.0001057273
0.1809999,-0.0001045318
0.1819999,-0.0001033976
0.1829999,-0.0001021714
0.1839999,-0.0001010065
0.1849999,-9.978029E-05
0.1859999,-9.867671E-05
0.1869999,-9.748118E-05
0.1879999,-9.622433E-05
0.1889999,-9.505945E-05
0.1899999,-9.395587E-05
0.1909999,-9.272968E-05
0.1919999,-9.162611E-05
0.1929999,-9.055319E-05
0.1939999,-8.944961E-05
0.1949999,-8.837669E-05
0.1959999,-8.724246E-05
0.1969999,-8.623085E-05
0.1979999,-8.509662E-05
0.1989999,-8.405436E-05
0.1999999,-8.298145E-05
0.2009999,-8.190853E-05
0.2019999,-8.086627E-05
0.2029999,-7.9824E-05
0.2039999,-7.865911E-05
0.2049999,-7.764751E-05
0.2059999,-7.657459E-05
0.2069999,-7.547101E-05
0.2079999,-7.44594E-05
0.2089999,-7.335583E-05
0.2099999,-7.231356E-05
0.2109999,-7.136327E-05
0.2119999,-7.0321E-05
0.2129999,-6.934005E-05
0.2139999,-6.838975E-05
0.2149999,-6.737814E-05
0.2159999,-6.633587E-05
0.2169999,-6.541623E-05
0.2179999,-6.443528E-05
0.2189999,-6.351563E-05
0.2199999,-6.247337E-05
0.2209999,-6.146176E-05
0.2219999,-6.04808E-05
0.2229999,-5.946919E-05
0.2239999,-5.845758E-05
0.2249999,-5.747663E-05
0.2259999,-5.652633E-05
0.2269999,-5.557603E-05
0.2279999,-5.450311E-05
0.2289999,-5.364477E-05
0.2299999,-5.269448E-05
0.2309999,-5.174418E-05
0.2319999,-5.082453E-05
0.2329999,-4.987423E-05
0.2339999,-4.892393E-05
0.2349999,-4.803494E-05
0.2359999,-4.708464E-05
0.2369999,-4.610369E-05
0.2379999,-4.518405E-05
0.2389999,-4.420309E-05
0.2399999,-4.316083E-05
0.2409999,-4.221053E-05
0.2419999,-4.122957E-05
0.2429999,-4.027928E-05
0.2439999,-3.929832E-05
0.2449999,-3.840933E-05
0.2459999,-3.745903E-05
0.2469999,-3.647808E-05
0.2479999,-3.558908E-05
0.2489999,-3.466944E-05
0.2499999,-3.359652E-05
0.2509999,-3.270753E-05
0.2519999,-3.169592E-05
0.2529999,-3.0623E-05
0.2539999,-2.958074E-05
0.2549999,-2.859978E-05
0.2559999,-2.761883E-05
0.2569999,-2.663788E-05
0.2579999,-2.565692E-05
0.2589999,-2.467597E-05
0.2599999,-2.360305E-05
0.2609999,-2.274471E-05
0.2619999,-2.167179E-05
0.2629999,-2.062953E-05
0.2639999,-1.958727E-05
0.2649999,-1.848369E-05
0.2659999,-1.734946E-05
0.2669999,-1.633786E-05
0.2679999,-1.520363E-05
0.2689999,-1.416136E-05
0.2699999,-1.308844E-05
0.2709999,-1.225875E-05
0.2719999,-1.121648E-05
0.2729999,-1.011598E-05
0.2739999,-8.93883E-06
0.2749999,-7.761685E-06
0.2759999,-6.45579E-06
0.2769999,-5.266382E-06
0.2779999,-4.058582E-06
0.2789999,-2.820127E-06
0.2799999,-1.642982E-06
0.2809999,-4.351818E-07
0.2819999,8.40059E-07
0.2829999,2.081579E-06
0.2839999,3.408933E-06
0.2849999,4.705632E-06
0.2859999,6.146409E-06
0.2869999,7.587186E-06
0.2879999,9.04329E-06
0.2889999,1.039823E-05
0.2899999,1.184514E-05
0.2909999,1.327366E-05
0.2919999,1.479413E-05
0.2929999,1.625024E-05
0.2939999,1.776765E-05
0.2949999,1.948739E-05
0.2959999,2.117034E-05
0.2969999,2.282263E-05
0.2979999,2.458529E-05
0.2989999,2.660956E-05
0.2999999,2.838754E-05
0.3009999,3.019617E-05
0.3019999,3.197415E-05
0.3029999,3.38441E-05
0.3039999,3.5806E-05
0.3049999,3.776791E-05
0.3059999,3.985244E-05
0.3069999,4.202893E-05
0.3079999,4.429739E-05
0.3089999,4.644323E-05
0.3099999,4.88343E-05
0.3109999,5.125604E-05
0.3119999,5.35858E-05
0.3129999,5.606884E-05
0.3139999,5.873581E-05
0.3149999,6.128017E-05
0.3159999,6.413106E-05
0.3169999,6.69513E-05
0.3179999,6.989417E-05
0.3189999,7.305162E-05
0.3199999,7.639299E-05
0.3209999,7.96424E-05
0.3219999,8.325968E-05
0.3229999,8.678498E-05
0.3239999,9.067814E-05
0.3249999,9.472457E-05
0.3259999,9.892429E-05
0.3269999,0.0001033692
0.3279999,0.0001080288
0.3289999,0.0001129948
0.3299999,0.0001183594
0.3309999,0.000123816
0.3319999,0.0001301615
0.3329999,0.0001366297
0.3339999,0.0001436803
0.3349999,0.0001516199
0.3359999,0.0001598967
0.3369999,0.0001693384
0.3379999,0.0001797304
0.3389999,0.0001909194
0.3399999,0.0002037332
0.3409999,0.000217865
0.3419999,0.0002336522
0.3429999,0.0002517999
0.3439999,0.0002720321
0.3449999,0.0002954524
0.3459999,0.0003252594
0.3469999,0.0003549946
0.3479999,0.0003896345
0.3489999,0.0004288727
0.3499999,0.0004739353
0.3509999,0.000525742
0.3519999,0.0005849058
0.3529999,0.0006538791
0.3539999,0.000732662
0.3549999,0.0008224807
0.3559999,0.0009288529
0.3569999,0.001050859
0.3579999,0.001193404
0.3589999,0.001360779
0.3599999,0.001552679
0.3609999,0.001772474
0.3619999,0.002017406
0.3629999,0.002283796
0.3639999,0.002569806
0.3649999,0.00286961
0.3659999,0.003180757
0.3669999,0.003531553
0.3679999,0.003856494
0.3689999,0.004193697
0.3699999,0.0045309
0.3709999,0.004874234
0.3719999,0.005217568
0.3729999,0.005557837
0.3739999,0.00589504
0.3749999,0.006232243
0.3759999,0.006560249
0.3769999,0.006891321
0.3779999,0.007210132
0.3789999,0.007522811
0.3799999,0.00783549
0.3809999,0.008132842
0.3819999,0.008430193
0.3829999,0.008718349
0.3839999,0.008997308
0.3849999,0.009279332
0.3859999,0.009549094
0.3869999,0.009815792
0.3879999,0.01008555
0.3889999,0.01034305
0.3899999,0.01060055
0.3909999,0.01086112
0.3919999,0.01110942
0.3929999,0.01136386
0.3939999,0.01161523
0.3949999,0.0118574
0.3959999,0.01211184
0.3969999,0.01235708
0.3979999,0.01260231
0.3989999,0.01284755
0.3999999,0.0130836
0.4009999,0.01332883
0.4019999,0.01356794
0.4029999,0.01380398
0.4039999,0.01404003
0.4049999,0.01427607
0.4059999,0.01450291
0.4069999,0.01473283
0.4079999,0.01496274
0.4089999,0.01519571
0.4099999,0.01542562
0.4109999,0.01565247
0.4119999,0.01587318
0.4129999,0.0160847
0.4139999,0.01630235
0.4149999,0.01651694
0.4159999,0.01672232
0.4169999,0.01693078
0.4179999,0.01713003
0.4189999,0.01732622
0.4199999,0.01752242
0.4209999,0.01770328
0.4219999,0.01788721
0.4229999,0.01806807
0.4239999,0.01823667
0.4249999,0.01840221
0.4259999,0.01856161
0.4269999,0.01870876
0.4279999,0.01885283
0.4289999,0.01899078
0.4299999,0.01911647
0.4309999,0.01923295
0.4319999,0.01934331
0.4329999,0.01944141
0.4339999,0.01953031
0.4349999,0.01961001
0.4359999,0.01967745
0.4369999,0.01972956
0.4379999,0.01977861
0.4389999,0.0198062
0.4399999,0.01982459
0.4409999,0.01982766
0.4419999,0.01982153
0.4429999,0.019797
0.4439999,0.01976941
0.4449999,0.0197081
0.4459999,0.01964373
0.4469999,0.01957322
0.4479999,0.01946286
0.4489999,0.01936477
0.4499999,0.01924215
0.4509999,0.01909194
0.4519999,0.01895399
0.4529999,0.01877313
0.4539999,0.0185892
0.4549999,0.01841141
0.4559999,0.01819682
0.4569999,0.01799143
0.4579999,0.01777378
0.4589999,0.01753774
0.4599999,0.01730783
0.4609999,0.01707485
0.4619999,0.01682962
0.4629999,0.01659051
0.4639999,0.01635447
0.4649999,0.01612455
0.4659999,0.01589464
0.4669999,0.01568313
0.4679999,0.01548387
0.4689999,0.01528768
0.4699999,0.01512214
0.4709999,0.01497806
0.4719999,0.01484318
0.4729999,0.01474509
0.4739999,0.01467458
0.4749999,0.0146194
0.4759999,0.01460407
0.4769999,0.01460101
0.4779999,0.01463166
0.4789999,0.01469297
0.4799999,0.01476655
0.4809999,0.01488303
0.4819999,0.01500565
0.4829999,0.01514973
0.4839999,0.01533366
0.4849999,0.01550839
0.4859999,0.01570765
0.4869999,0.01593143
0.4879999,0.01615521
0.4889999,0.01640045
0.4899999,0.01666101
0.4909999,0.01691851
0.4919999,0.01719747
0.4929999,0.01748256
0.4939999,0.01777378
0.4949999,0.01807727
0.4959999,0.01838075
0.4969999,0.01869649
0.4979999,0.0190153
0.4989999,0.01934331
0.4999999,0.01967132
0.5009999,0.02000852
0.5019999,0.02034879
0.5029999,0.02068293
0.5039999,0.02103239
0.5049999,0.02138492
0.5059999,0.02173439
0.5069999,0.02209612
0.5079999,0.02245478
0.5089999,0.02281344
0.5099999,0.02318436
0.5109999,0.02354915
0.5119999,0.02392314
0.5129999,0.02430326
0.5139999,0.02467725
0.5149999,0.02505124
0.5159999,0.02544056
0.5169999,0.02582068
0.5179999,0.0262008
0.5189999,0.02659931
0.5199999,0.02697943
0.5209999,0.02736874
0.5219999,0.02776726
0.5229999,0.02815351
0.5239999,0.02854896
0.5249999,0.02895053
0.5259999,0.02934292
0.5269999,0.02974449
0.5279999,0.03014914
0.5289999,0.0313304
0.5299999,0.03169826
0.5309999,0.03209677
0.5319999,0.03252594
0.5329999,0.03292445
0.5339999,0.03335362
0.5349999,0.03375213
0.5359999,0.0341813
0.5369999,0.03461047
0.5379999,0.03500898
0.5389999,0.03543815
0.5399999,0.03586731
0.5409999,0.03626583
0.5419999,0.036695
0.5429999,0.03712416
0.5439999,0.03752267
0.5449999,0.0379825
0.5459999,0.03841167
0.5469999,0.03884083
0.5479999,0.03927
0.5489999,0.03969917
0.5499999,0.04012834
0.5509999,0.0405575
0.5519999,0.04098667
0.5529999,0.04141584
0.5539999,0.04184501
0.5549999,0.04230483
0.5559999,0.04273399
0.5569999,0.04316316
0.5579999,0.04359233
0.5589999,0.04405215
0.5599999,0.04448132
0.5609999,0.04494114
0.5619999,0.04537031
0.5629999,0.04583013
0.5639999,0.0462593
0.5649999,0.04671912
0.5659999,0.04714829
0.5669999,0.04760811
0.5679999,0.04803728
0.5689999,0.04846645
0.5699999,0.04892627
0.5709999,0.0493861
0.5719999,0.04981526
0.5729999,0.05024443
0.5739999,0.05070425
0.5749999,0.05116407
0.5759999,0.05159324
0.5769999,0.05205306
0.5779999,0.05251288
0.5789999,0.0529727
0.5799999,0.05340188
0.5809999,0.0538617
0.5819999,0.05432152
0.5829999,0.05478134
0.5839999,0.05524116
0.5849999,0.05567033
0.5859999,0.05613015
0.5869999,0.05658998
0.5879999,0.0570498
0.5889999,0.05750962
0.5899999,0.05796945
0.5909999,0.05839861
0.5919999,0.05885844
0.5929999,0.05934891
0.5939999,0.05977808
0.5949999,0.0602379
0.5959999,0.06069772
0.5969999,0.06115754
0.5979999,0.06161737
0.5989999,0.06210784
0.5999999,0.06253701
0.6009999,0.06302749
0.6019999,0.06348731
0.6029999,0.06391648
0.6039999,0.06440695
0.6049999,0.06486678
0.6059999,0.0653266
0.6069999,0.06578642
0.6079999,0.06624625
0.6089999,0.06670607
0.6099999,0.0671659
0.6109999,0.06762572
0.6119999,0.06808554
0.6129999,0.06854536
0.6139999,0.06900518
0.6149999,0.06952631
0.6159999,0.06998613
0.6169999,0.0704153
0.6179999,0.07090578
0.6189999,0.0713656
0.6199999,0.07182543
0.6209999,0.0723159
0.6219999,0.07277572
0.6229999,0.07323555
0.6239999,0.07372602
0.6249999,0.07418585
0.6259999,0.07464567
0.6269999,0.07513615
0.6279999,0.07556532
0.6289999,0.07605579
0.6299999,0.07651561
0.6309999,0.07697544
0.6319999,0.07743526
0.6329999,0.07795639
0.6339999,0.07841621
0.6349999,0.07887604
0.6359999,0.07936651
0.6369999,0.07982634
0.6379999,0.08028616
0.6389999,0.08077663
0.6399999,0.08123646
0.6409999,0.08169628
0.6419999,0.08215611
0.6429999,0.08264658
0.6439999,0.0831064
0.6449999,0.08356623
0.6459999,0.0840567
0.6469999,0.08451653
0.6479999,0.085007
0.6489999,0.08549748
0.6499999,0.0859573
0.6509999,0.08641712
0.6519999,0.0869076
0.6529999,0.08736742
0.6539999,0.08785789
0.6549999,0.08831772
0.6559999,0.0888082
0.6569999,0.08926802
0.6579999,0.0897585
0.6589999,0.09021832
0.6599999,0.0907088
0.6609999,0.09119927
0.6619999,0.0916591
0.6629999,0.09214958
0.6639999,0.0926094
0.6649999,0.09306922
0.6659999,0.09359035
0.6669999,0.09405018
0.6679999,0.09454065
0.6689999,0.09500048
0.6699999,0.09549095
0.6709999,0.09595077
0.6719999,0.09647191
0.6729999,0.09693173
0.6739999,0.09739155
0.6749999,0.09788202
0.6759999,0.09837251
0.6769999,0.09883233
0.6779999,0.0993228
0.6789999,0.09978263
0.6799999,0.1002731
0.6809999,0.1007636
0.6819999,0.1012234
0.6829999,0.1017445
0.6839999,0.102235
0.6849999,0.1026948
0.6859999,0.1031853
0.6869999,0.1036758
0.6879999,0.104105
0.6889999,0.1046261
0.6899999,0.1051166
0.6909999,0.1055764
0.6919999,0.1060669
0.6929999,0.1065573
0.6939999,0.1069865
0.6949999,0.1075076
0.6959999,0.1079675
0.6969999,0.1084273
0.6979999,0.1089484
0.6989999,0.1094082
0.6999999,0.1095309
0.6990002,0.1091017
0.6980002,0.1085806
0.6970002,0.1081207
0.6960002,0.1076609
0.6950002,0.1071398
0.6940002,0.10668
0.6930002,0.1062201
0.6920002,0.1057297
0.6910002,0.1052698
0.6900002,0.1047794
0.6890002,0.1042889
0.6880002,0.1038291
0.6870002,0.1033386
0.6860002,0.1028788
0.6850002,0.1024189
0.6840002,0.1019285
0.6830002,0.1014686
0.6820002,0.1010088
0.6810002,0.1005183
0.6800002,0.1000279
0.6790002,0.09956805
0.6780002,0.09907757
0.6770002,0.09861775
0.6760002,0.09815792
0.6750002,0.09766745
0.6740002,0.09720763
0.6730002,0.0967478
0.6720002,0.09625732
0.6710002,0.0957975
0.6700002,0.09530702
0.6690002,0.09484719
0.6680002,0.09438737
0.6670002,0.0938969
0.6660002,0.09340642
0.6650002,0.0929466
0.6640002,0.09248678
0.6630002,0.09196565
0.6620002,0.09153648
0.6610002,0.09107666
0.6600002,0.09058618
0.6590002,0.09015701
0.6580002,0.08966654
0.6570002,0.08917606
0.6560002,0.08874689
0.6550002,0.08825641
0.6540002,0.08779659
0.6530002,0.08733677
0.6520002,0.08684629
0.6510002,0.08638646
0.6500002,0.08592664
0.6490002,0.08543617
0.6480002,0.08497635
0.6470002,0.08451653
0.6460002,0.08402605
0.6450002,0.08356623
0.6440002,0.0831064
0.6430002,0.08261593
0.6420002,0.08215611
0.6410002,0.08169628
0.6400002,0.08120581
0.6390002,0.08077663
0.6380002,0.08028616
0.6370002,0.07982634
0.6360002,0.07936651
0.6350002,0.07887604
0.6340002,0.07844687
0.6330002,0.07795639
0.6320002,0.07746591
0.6310002,0.07703675
0.6300002,0.07657693
0.6290002,0.07605579
0.6280002,0.07565728
0.6270002,0.07516681
0.6260002,0.07470698
0.6250002,0.07424716
0.6240002,0.07378733
0.6230002,0.07329686
0.6220002,0.07286769
0.6210002,0.07237721
0.6200002,0.07191739
0.6190002,0.07145756
0.6180002,0.07099774
0.6170002,0.07053792
0.6160002,0.0700781
0.6150002,0.06958763
0.6140002,0.0691278
0.6130002,0.06869864
0.6120002,0.06820816
0.6110002,0.06774833
0.6100002,0.06731917
0.6090002,0.06682869
0.6080002,0.06636887
0.6070002,0.06590905
0.6060002,0.06547987
0.6050002,0.06502005
0.6040002,0.06456023
0.6030002,0.06410041
0.6020002,0.06364059
0.6010002,0.06318077
0.6000002,0.06272095
0.5990002,0.06226112
0.5980002,0.0618013
0.5970002,0.06134148
0.5960002,0.06088165
0.5950002,0.06042183
0.5940002,0.05999266
0.5930002,0.05953284
0.5920002,0.05907302
0.5910002,0.05864385
0.5900002,0.05818403
0.5890002,0.05772421
0.5880002,0.05726438
0.5870002,0.05680456
0.5860002,0.05634474
0.5850002,0.05591557
0.5840002,0.05545575
0.5830002,0.05499592
0.5820002,0.05456676
0.5810002,0.05410693
0.5800002,0.05367777
0.5790002,0.05321795
0.5780002,0.05275812
0.5770002,0.0522983
0.5760002,0.05186913
0.5750002,0.05137866
0.5740002,0.05094949
0.5730002,0.05052032
0.5720002,0.0500605
0.5710002,0.04963133
0.5700002,0.04920216
0.5690002,0.04874234
0.5680002,0.04828252
0.5670002,0.04785335
0.5660002,0.04739353
0.5650002,0.04696436
0.5640002,0.04653519
0.5630002,0.04607537
0.5620002,0.0456462
0.5610002,0.04518638
0.5600002,0.04475721
0.5590002,0.04429739
0.5580002,0.04389888
0.5570002,0.04343906
0.5560002,0.04300989
0.5550002,0.04258072
0.5540002,0.0421209
0.5530002,0.04169173
0.5520002,0.04126256
0.5510002,0.04083339
0.5500002,0.04040423
0.5490002,0.03997506
0.5480002,0.03951524
0.5470002,0.03911673
0.5460002,0.0386569
0.5450002,0.03822774
0.5440002,0.03779857
0.5430002,0.0373694
0.5420002,0.03694023
0.5410002,0.03651107
0.5400002,0.0360819
0.5390002,0.03565273
0.5380002,0.03522356
0.5370002,0.0347944
0.5360002,0.03439588
0.5350002,0.03396672
0.5340002,0.0335682
0.5330002,0.03313904
0.5320002,0.03270987
0.5310002,0.0322807
0.5300002,0.03188219
0.5290002,0.03145302
0.5280002,0.03105451
0.5270002,0.03062534
0.5260002,0.03019617
0.5250002,0.02979766
0.5240002,0.02936849
0.5230002,0.02896998
0.5220002,0.02854081
0.5210002,0.0281423
0.5200002,0.02774378
0.5190002,0.02731462
0.5180002,0.02691611
0.5170002,0.02651759
0.5160002,0.02611908
0.5150002,0.02572057
0.5140002,0.02532205
0.5130002,0.02489289
0.5120002,0.02452503
0.5110002,0.02412652
0.5100002,0.02369735
0.5090002,0.02332949
0.5080002,0.02293098
0.5070002,0.02253246
0.5060002,0.02213395
0.5050002,0.02173544
0.5040002,0.02136758
0.5030002,0.02096907
0.5020002,0.02060121
0.5010002,0.0202027
0.5000002,0.01983484
0.4990002,0.01943633
0.4980002,0.01906847
0.4970002,0.01870061
0.4960002,0.01833276
0.4950002,0.0179649
0.4940002,0.01759704
0.4930002,0.01722918
0.4920002,0.01686132
0.4910002,0.01649346
0.4900002,0.01612561
0.4890002,0.0157884
0.4880002,0.01542055
0.4870002,0.01508334
0.4860002,0.01471548
0.4850002,0.01434763
0.4840002,0.01401042
0.4830002,0.01367322
0.4820002,0.01330536
0.4810002,0.01248583
0.4800002,0.01215475
0.4790002,0.01182062
0.4780002,0.01149568
0.4770002,0.0111738
0.4760002,0.01084579
0.4750002,0.01053005
0.4740002,0.01021124
0.4730002,0.009895494
0.4720002,0.009588946
0.4710002,0.009279332
0.4700002,0.008975849
0.4690002,0.008672367
0.4680002,0.008375015
0.4670002,0.008080728
0.4660002,0.007789508
0.4650002,0.007504418
0.4640002,0.007222394
0.4630002,0.006937304
0.4620002,0.006667541
0.4610002,0.006391648
0.4600002,0.006121885
0.4590002,0.005861319
0.4580002,0.005597688
0.4570002,0.005343253
0.4560002,0.005094949
0.4550002,0.004843579
0.4540002,0.004601406
0.4530002,0.004365364
0.4520002,0.004129322
0.4510002,0.003902476
0.4500002,0.003672565
0.4490002,0.003454915
0.4480002,0.003240332
0.4470002,0.003025748
0.4460002,0.002820361
0.4450002,0.002621104
0.4440002,0.002424913
0.4430002,0.002234854
0.4420002,0.002044794
0.4410002,0.00186393
0.4400002,0.001692263
0.4390002,0.001514465
0.4380002,0.001351995
0.4370002,0.001189524
0.4360002,0.0009962936
0.4350002,0.0008491504
0.4340002,0.0006995549
0.4330002,0.0005560903
0.4320002,0.0004193697
0.4310002,0.0002823426
0.4300002,0.0001542055
0.4290002,2.790757E-05
0.4280002,-9.962702E-05
0.4270002,-0.0002126513
0.4260002,-0.000326718
0.4250002,-0.0004346738
0.4240002,-0.0005373674
0.4230002,-0.0006415938
0.4220002,-0.0007381566
0.4210002,-0.0008313472
0.4200002,-0.0009239248
0.4190002,-0.001006999
0.4180002,-0.001094059
0.4170002,-0.001175294
0.4160002,-0.001251318
0.4150002,-0.001330101
0.4140002,-0.001400607
0.4130002,-0.001470194
0.4120002,-0.001541926
0.4110002,-0.001605075
0.4100002,-0.001675888
0.4090002,-0.001742715
0.4080002,-0.001797894
0.4070002,-0.001856751
0.4060002,-0.001910704
0.4050002,-0.001964963
0.4040002,-0.002019528
0.4030002,-0.002071028
0.4020002,-0.002124061
0.4010002,-0.002172496
0.4000002,-0.002219704
0.3990002,-0.002272124
0.3980002,-0.00231688
0.3970002,-0.002366541
0.3960002,-0.002415589
0.3950002,-0.002456666
0.3940002,-0.002503875
0.3930002,-0.002549244
0.3920002,-0.002590935
0.3910002,-0.002639062
0.3900002,-0.002683205
0.3890002,-0.002726735
0.3880002,-0.002773024
0.3870002,-0.002814715
0.3860002,-0.002861003
0.3850002,-0.002906373
0.3840002,-0.00294837
0.3830002,-0.002995578
0.3820002,-0.003004056
0.3810002,-0.003046973
0.3800002,-0.003092955
0.3790002,-0.003138937
0.3780002,-0.003187985
0.3770002,-0.003233967
0.3760002,-0.00327995
0.3750002,-0.003335128
0.3740002,-0.003378045
0.3730002,-0.003427093
0.3720002,-0.003479206
0.3710002,-0.003531319
0.3700002,-0.003580367
0.3690002,-0.00363248
0.3680002,-0.003687659
0.3670002,-0.003739772
0.3660002,-0.003794951
0.3650002,-0.003850129
0.3640002,-0.003905308
0.3630002,-0.003960487
0.3620002,-0.004021796
0.3610002,-0.004076975
0.3600002,-0.004138284
0.3590002,-0.00420266
0.3580002,-0.004260904
0.3570002,-0.004322214
0.3560002,-0.004389654
0.3550002,-0.004447898
0.3540002,-0.004512274
0.3530002,-0.004579714
0.3520002,-0.004647155
0.3510002,-0.004717661
0.3500002,-0.004785101
0.3490002,-0.004855608
0.3480002,-0.004926114
0.3470002,-0.00499662
0.3460002,-0.005073257
0.3450002,-0.005149893
0.3440002,-0.005223466
0.3430002,-0.005300103
0.3420002,-0.005376739
0.3410002,-0.005459507
0.3400002,-0.005539211
0.3390002,-0.005615847
0.3380002,-0.005704746
0.3370002,-0.005784449
0.3360002,-0.005867217
0.3350002,-0.005956116
0.3340002,-0.006041949
0.3330002,-0.006127783
0.3320002,-0.006216682
0.3310002,-0.00630558
0.3300002,-0.006397545
0.3290002,-0.00648951
0.3280002,-0.006581475
0.3270002,-0.006676504
0.3260002,-0.006768468
0.3250002,-0.006869629
0.3240002,-0.006964659
0.3230002,-0.007062755
0.3220002,-0.007166982
0.3210002,-0.007262012
0.3200002,-0.007363172
0.3190002,-0.007470464
0.3180002,-0.007565494
0.3170002,-0.00766972
0.3160002,-0.007777012
0.3150002,-0.007878173
0.3140002,-0.007985465
0.3130002,-0.008092757
0.3120002,-0.008196983
0.3110002,-0.008307341
0.3100002,-0.008414633
0.3090002,-0.008521925
0.3080002,-0.008632282
0.3070002,-0.008751836
0.3060002,-0.008862193
0.3050002,-0.008972551
0.3040002,-0.009082908
0.3030002,-0.009196331
0.3020002,-0.009306688
0.3010002,-0.009426242
0.3000002,-0.009542731
0.2990002,-0.009650022
0.2980002,-0.009772642
0.2970002,-0.009886065
0.2960002,-0.009999488
0.2950002,-0.01012517
0.2940002,-0.0102386
0.2930002,-0.01035508
0.2920002,-0.01048077
0.2910002,-0.01059113
0.2900002,-0.01071068
0.2890002,-0.0108333
0.2880002,-0.01094979
0.2870002,-0.01107547
0.2860002,-0.01119196
0.2850002,-0.01130845
0.2840002,-0.01143413
0.2830002,-0.01155062
0.2820002,-0.01166711
0.2810002,-0.0117928
0.2800002,-0.01190928
0.2790002,-0.01202271
0.2780002,-0.01214226
0.2770002,-0.01224955
0.2760002,-0.01235991
0.2750002,-0.0124672
0.2740002,-0.0125653
0.2730002,-0.01266033
0.2720002,-0.01274923
0.2710002,-0.01283506
0.2700002,-0.01290863
0.2690002,-0.01296687
0.2680002,-0.01301899
0.2670002,-0.01305271
0.2660002,-0.01306804
0.2650002,-0.01305577
0.2640002,-0.01303125
0.2630002,-0.01296994
0.2620002,-0.01286878
0.2610002,-0.0127339
0.2600002,-0.01254997
0.2590002,-0.01232312
0.2580002,-0.01206869
0.2570002,-0.01176214
0.2560002,-0.01143413
0.2550002,-0.0110908
0.2540002,-0.01072907
0.2530002,-0.01037654
0.2520002,-0.01003014
0.2510002,-0.009692939
0.2500002,-0.009371064
0.2490002,-0.009055318
0.2480002,-0.008754901
0.2470002,-0.008482073
0.2460002,-0.008215376
0.2450002,-0.007967073
0.2440002,-0.007734096
0.2430002,-0.007510316
0.2420002,-0.007298797
0.2410002,-0.007105672
0.2400002,-0.006912547
0.2390002,-0.006740879
0.2380002,-0.006578409
0.2370002,-0.006419003
0.2360002,-0.006268795
0.2350002,-0.006130849
0.2340002,-0.005999033
0.2330002,-0.005864152
0.2320002,-0.005753794
0.2310002,-0.005631175
0.2300002,-0.005514686
0.2290002,-0.005413526
0.2280002,-0.005300103
0.2270002,-0.005205072
0.2260002,-0.005110043
0.2250002,-0.005008881
0.2240002,-0.004923048
0.2230002,-0.004834149
0.2220002,-0.00474525
0.2210002,-0.004668613
0.2200002,-0.004585845
0.2190002,-0.004506143
0.2180002,-0.004435637
0.2170002,-0.004358999
0.2160002,-0.004288493
0.2150002,-0.004221053
0.2140002,-0.004153612
0.2130002,-0.004089237
0.2120002,-0.004024862
0.2110002,-0.003957421
0.2100002,-0.003899177
0.2090002,-0.003840933
0.2080002,-0.003779623
0.2070002,-0.003724444
0.2060002,-0.0036662
0.2050002,-0.003604891
0.2040002,-0.003549712
0.2030002,-0.003491468
0.2020002,-0.003433224
0.2010002,-0.00338111
0.2000002,-0.003325932
0.1990002,-0.003273819
0.1980002,-0.003224771
0.1970002,-0.003178789
0.1960002,-0.003129741
0.1950002,-0.003089889
0.1940002,-0.003046973
0.1930002,-0.003004056
0.1920002,-0.00296727
0.1910002,-0.002927419
0.1900002,-0.002890633
0.1890002,-0.002856913
0.1880002,-0.002820127
0.1870002,-0.002786407
0.1860002,-0.002752687
0.1850002,-0.002722032
0.1840002,-0.002688312
0.1830002,-0.002660722
0.1820002,-0.002630068
0.1810002,-0.002599412
0.1800002,-0.002571823
0.1790002,-0.002544234
0.1780002,-0.002516645
0.1770002,-0.002489055
0.1760002,-0.002461466
0.1750002,-0.002436942
0.1740002,-0.002412418
0.1730002,-0.002387894
0.1720002,-0.00236337
0.1710002,-0.002341912
0.1700002,-0.002317388
0.1690002,-0.002292864
0.1680002,-0.002271406
0.1670002,-0.002253013
0.1660002,-0.002231555
0.1650002,-0.002210096
0.1640002,-0.002188638
0.1630002,-0.002167179
0.1620002,-0.002148786
0.1610002,-0.002127328
0.1600002,-0.002108935
0.1590002,-0.002090542
0.1580002,-0.002072149
0.1570002,-0.002053756
0.1560002,-0.002035364
0.1550002,-0.002016971
0.1540002,-0.002001643
0.1530002,-0.00198325
0.1520002,-0.001967923
0.1510002,-0.00194953
0.1500002,-0.001934203
0.1490002,-0.001918875
0.1480002,-0.001903548
0.1470002,-0.001885155
0.1460002,-0.001872893
0.1450002,-0.001857566
0.1440002,-0.001842238
0.1430002,-0.001826911
0.1420002,-0.001811583
0.1410002,-0.001799321
0.1400002,-0.001783994
0.1390002,-0.001771732
0.1380002,-0.001756405
0.1370002,-0.001744143
0.1360002,-0.001731881
0.1350002,-0.001716554
0.1340002,-0.001704292
0.1330002,-0.00169203
0.1320002,-0.001679768
0.1310002,-0.00166444
0.1300002,-0.001652178
0.1290002,-0.001639916
0.1280002,-0.00163072
0.1270002,-0.001615393
0.1260002,-0.001641861
0.1250002,-0.001630519
0.1240002,-0.001619176
0.1230002,-0.001608141
0.1220002,-0.001597105
0.1210002,-0.001586376
0.1200002,-0.00157534
0.1190002,-0.001564917
0.1180002,-0.001554188
0.1170002,-0.001543766
0.1160002,-0.001533343
0.1150002,-0.001523227
0.1140002,-0.001513417
0.1130002,-0.001503301
0.1120002,-0.001493492
0.1110002,-0.001483989
0.1100002,-0.001473872
0.1090002,-0.001464676
0.1080002,-0.001455173
0.1070002,-0.001445977
0.1060002,-0.001437087
0.1050002,-0.001428197
0.1040002,-0.001418387
0.1030002,-0.001409804
0.1020002,-0.001401527
0.1010002,-0.001392637
0.1000002,-0.00138436
0.09900019,-0.001376084
0.09800019,-0.0013675
0.09700019,-0.001359223
0.09600019,-0.001351253
0.09500019,-0.001343283
0.09400019,-0.001335006
0.09300019,-0.001327342
0.09200019,-0.001319372
0.09100019,-0.001311402
0.09000019,-0.001303738
0.08900019,-0.001296688
0.08800019,-0.001289024
0.08700019,-0.001281667
0.08600019,-0.00127431
0.08500019,-0.001266952
0.08400019,-0.001259902
0.08300019,-0.001252545
0.08200019,-0.001245494
0.08100019,-0.00123875
0.08000019,-0.001231699
0.07900019,-0.001224649
0.07800019,-0.001217905
0.07700019,-0.001211161
0.07600019,-0.001204417
0.07500019,-0.001197673
0.07400019,-0.001191235
0.07300019,-0.001184797
0.07200019,-0.00117836
0.07100019,-0.001172229
0.07000019,-0.001165791
0.06900019,-0.001159967
0.06800019,-0.001153836
0.06700019,-0.001147398
0.06600019,-0.001141574
0.06500019,-0.001135443
0.06400019,-0.001129619
0.06300019,-0.001123794
0.06200019,-0.00111797
0.06100019,-0.001112145
0.06000019,-0.001106015
0.05900019,-0.001100497
0.05800019,-0.001094979
0.05700019,-0.001089154
0.05600019,-0.001083637
0.05500019,-0.001078425
0.05400019,-0.001072907
0.05300019,-0.001067389
0.05200019,-0.001062178
0.05100019,-0.00105666
0.05000019,-0.001051449
0.04900019,-0.001046238
0.04800019,-0.001041026
0.04700019,-0.001036122
0.04600019,-0.001030604
0.04500019,-0.001025699
0.04400019,-0.001020488
0.04300019,-0.001015583
0.04200019,-0.001010371
0.04100019,-0.001005773
0.04000019,-0.001000562
0.03900019,-0.0009956572
0.03800019,-0.0009907524
0.03700019,-0.0009861541
0.03600019,-0.0009812494
0.03500019,-0.0009763446
0.03400019,-0.0009717464
0.03300019,-0.0009671481
0.03200019,-0.0009625499
0.03100019,-0.0009579517
0.03000019,-0.0009533535
0.02900019,-0.0009487552
0.02800019,-0.000944157
0.02700019,-0.0009395588
0.02600019,-0.0009352671
0.02500019,-0.0009306689
0.02400019,-0.0009263772
0.02300019,-0.000921779
0.02200019,-0.0009174873
0.02100019,-0.0009131957
0.02000019,-0.000908904
0.01900019,-0.0009043057
0.01800019,-0.0009003207
0.01700019,-0.0008960289
0.01600019,-0.0008917373
0.01500019,-0.0008877521
0.01400019,-0.0008834605
0.01300019,-0.0008794753
0.01200019,-0.0008751836
0.01100019,-0.000870892
0.01000019,-0.0008669068
0.009000191,-0.0008632282
0.00800019,-0.0008589366
0.007000191,-0.0008549515
0.006000191,-0.0008509663
0.005000191,-0.0008469812
0.004000191,-0.0008433026
0.003000191,-0.0008393175
0.002000191,-0.0008356389
0.001000191,-0.0008316538
1.907349E-07,-0.0008206181
0.0009998092,-0.0008013055
0.001999809,-0.0007844454
0.002999809,-0.0007688114
0.003999809,-0.0007540971
0.004999809,-0.0007403024
0.005999809,-0.0007274274
0.006999809,-0.0007148589
0.007999809,-0.0007032101
0.00899981,-0.0006918678
0.009999809,-0.0006808321
0.01099981,-0.0006707159
0.01199981,-0.0006605998
0.01299981,-0.0006507903
0.01399981,-0.0006415938
0.01499981,-0.0006323974
0.01599981,-0.0006235075
0.01699981,-0.0006152307
0.01799981,-0.0006069539
0.01899981,-0.0005989837
0.01999981,-0.0005913199
0.02099981,-0.0005836562
0.02199981,-0.0005759926
0.02299981,-0.0005689419
0.02399981,-0.0005618913
0.02499981,-0.0005548407
0.02599981,-0.0005480966
0.02699981,-0.0005413526
0.02799981,-0.0005349151
0.02899981,-0.0005287841
0.02999981,-0.0005226531
0.03099981,-0.0005165222
0.03199981,-0.0005103912
0.03299981,-0.0005045668
0.03399981,-0.0004990489
0.03499981,-0.0004932245
0.03599981,-0.0004877066
0.03699981,-0.0004821887
0.03799981,-0.0004769774
0.03899981,-0.0004717661
0.03999981,-0.0004665548
0.04099981,-0.00046165
0.04199981,-0.0004564387
0.04299981,-0.0004515339
0.04399981,-0.0004466292
0.04499981,-0.0004420309
0.04599981,-0.0004374327
0.04699981,-0.0004328345
0.04799981,-0.0004282363
0.04899981,-0.0004239446
0.04999981,-0.0004193464
0.05099981,-0.0004150547
0.05199981,-0.000410763
0.05299981,-0.0004064713
0.05399981,-0.0004021796
0.05499981,-0.000397888
0.05599981,-0.0003939029
0.05699981,-0.0003899177
0.05799981,-0.0003859326
0.05899981,-0.0003819475
0.05999981,-0.0003779623
0.06099981,-0.0003742838
0.06199981,-0.0003706052
0.06299981,-0.0003669266
0.06399981,-0.0003632481
0.06499981,-0.0003595694
0.06599981,-0.0003558909
0.06699981,-0.0003525188
0.06799981,-0.0003488403
0.06899981,-0.0003454682
0.06999981,-0.0003420962
0.07099981,-0.0003387242
0.07199981,-0.0003353521
0.07299981,-0.0003319801
0.07399981,-0.0003286081
0.07499981,-0.0003255426
0.07599981,-0.0003221706
0.07699981,-0.0003191051
0.07799981,-0.0003157331
0.07899981,-0.0003126676
0.07999981,-0.0003096021
0.08099981,-0.0003065366
0.08199981,-0.0003037777
0.08299981,-0.0003007122
0.08399981,-0.0002976467
0.08499981,-0.0002948878
0.08599981,-0.0002918223
0.08699981,-0.0002890633
0.08799981,-0.0002863044
0.08899981,-0.0002835455
0.08999981,-0.0002807866
0.09099981,-0.0002780276
0.09199981,-0.0002752687
0.09299981,-0.0002722032
0.09399981,-0.0002697508
0.09499981,-0.0002669919
0.09599981,-0.0002645395
0.09699981,-0.0002617805
0.09799981,-0.0002593282
0.09899981,-0.0002565692
0.09999981,-0.0002541168
0.1009998,-0.0002516645
0.1019998,-0.0002492121
0.1029998,-0.0002467597
0.1039998,-0.0002440007
0.1049998,-0.0002415484
0.1059998,-0.0002394025
0.1069998,-0.0002369501
0.1079998,-0.0002344978
0.1089998,-0.0002323519
0.1099998,-0.0002302061
0.1109998,-0.0002277537
0.1119998,-0.0002256079
0.1129998,-0.0002231555
0.1139998,-0.0002210096
0.1149998,-0.0002188638
0.1159998,-0.0002167179
0.1169998,-0.0002145721
0.1179998,-0.0002124263
0.1189998,-0.0002099739
0.1199998,-0.0002081346
0.1209998,-0.0002059888
0.1219998,-0.0002038429
0.1229998,-0.0002020036
0.1239998,-0.0001998578
0.1249998,-0.000197712
0.1259998,-0.0001958727
0.1269998,-0.0001937268
0.1279998,-0.0001918875
0.1289998,-0.0001897417
0.1299998,-0.0001879024
0.1309998,-0.0001860631
0.1319998,-0.0001842238
0.1329998,-0.000182078
0.1339998,-0.0001802387
0.1349998,-0.0001783994
0.1359998,-0.0001765601
0.1369998,-0.0001747208
0.1379998,-0.0001731881
0.1389998,-0.0001713488
0.1399998,-0.0001695095
0.1409998,-0.0001676702
0.1419998,-0.0001658309
0.1429998,-0.0001639917
0.1439998,-0.0001624589
0.1449998,-0.0001606196
0.1459998,-0.0001590869
0.1469998,-0.0001606608
0.1479998,-0.0001588828
0.1489998,-0.0001572581
0.1499998,-0.000155664
0.1509998,-0.0001539474
0.1519998,-0.0001524146
0.1529998,-0.0001507899
0.1539998,-0.0001491959
0.1549998,-0.0001476938
0.1559998,-0.0001460997
0.1569998,-0.0001445363
0.1579998,-0.0001429423
0.1589998,-0.0001413482
0.1599998,-0.0001398155
0.1609998,-0.0001384054
0.1619998,-0.0001368726
0.1629998,-0.0001354319
0.1639998,-0.0001339298
0.1649998,-0.0001325503
0.1659998,-0.0001311095
0.1669998,-0.0001296381
0.1679998,-0.000128228
0.1689998,-0.0001266646
0.1699998,-0.0001252851
0.1709998,-0.0001239363
0.1719998,-0.0001225262
0.1729998,-0.000121208
0.1739998,-0.0001199205
0.1749998,-0.000118541
0.1759998,-0.0001171922
0.1769998,-0.0001158128
0.1779998,-0.0001144026
0.1789998,-0.0001130845
0.1799998,-0.000111797
0.1809998,-0.0001105095
0.1819998,-0.0001092526
0.1829998,-0.0001079345
0.1839998,-0.0001067696
0.1849998,-0.0001055434
0.1859998,-0.0001042559
0.1869998,-0.0001030604
0.1879998,-0.0001016502
0.1889998,-0.000100424
0.1899998,-9.919784E-05
0.1909998,-9.80023E-05
0.1919998,-9.680677E-05
0.1929998,-9.561123E-05
0.1939998,-9.441569E-05
0.1949998,-9.337343E-05
0.1959998,-9.214724E-05
0.1969998,-9.1013E-05
0.1979998,-8.978682E-05
0.1989998,-8.852997E-05
0.1999998,-8.739574E-05
0.2009998,-8.626151E-05
0.2019998,-8.509662E-05
0.2029998,-8.40237E-05
0.2039998,-8.292013E-05
0.2049998,-8.17246E-05
0.2059998,-8.071299E-05
0.2069998,-7.957876E-05
0.2079998,-7.85978E-05
0.2089998,-7.749423E-05
0.2099998,-7.642131E-05
0.2109998,-7.534839E-05
0.2119998,-7.424482E-05
0.2129998,-7.320255E-05
0.2139998,-7.209898E-05
0.2149998,-7.096475E-05
0.2159998,-6.989183E-05
0.2169998,-6.884957E-05
0.2179998,-6.78073E-05
0.2189998,-6.682635E-05
0.2199998,-6.572278E-05
0.2209998,-6.468051E-05
0.2219998,-6.373021E-05
0.2229998,-6.268795E-05
0.2239998,-6.161503E-05
0.2249998,-6.066473E-05
0.2259998,-5.971443E-05
0.2269998,-5.876413E-05
0.2279998,-5.762991E-05
0.2289998,-5.671026E-05
0.2299998,-5.5668E-05
0.2309998,-5.465639E-05
0.2319998,-5.364477E-05
0.2329998,-5.263316E-05
0.2339998,-5.156024E-05
0.2349998,-5.054864E-05
0.2359998,-4.953703E-05
0.2369998,-4.855608E-05
0.2379998,-4.754446E-05
0.2389998,-4.653286E-05
0.2399998,-4.55519E-05
0.2409998,-4.463226E-05
0.2419998,-4.362065E-05
0.2429998,-4.260904E-05
0.2439998,-4.162809E-05
0.2449998,-4.064713E-05
0.2459998,-3.969683E-05
0.2469998,-3.868522E-05
0.2479998,-3.770427E-05
0.2489998,-3.672331E-05
0.2499998,-3.568105E-05
0.2509998,-3.470009E-05
0.2519998,-3.362718E-05
0.2529998,-3.261556E-05
0.2539998,-3.157331E-05
0.2549998,-3.046973E-05
0.2559998,-2.942747E-05
0.2569998,-2.841586E-05
0.2579998,-2.737359E-05
0.2589998,-2.639264E-05
0.2599998,-2.525841E-05
0.2609998,-2.421614E-05
0.2619998,-2.320453E-05
0.2629998,-2.213162E-05
0.2639998,-2.10587E-05
0.2649998,-1.998578E-05
0.2659998,-1.891286E-05
0.2669998,-1.78706E-05
0.2679998,-1.673637E-05
0.2689998,-1.563279E-05
0.2699998,-1.446791E-05
0.2709998,-1.327237E-05
0.2719998,-1.235684E-05
0.2729998,-1.120116E-05
0.2739998,-9.971898E-06
0.2749998,-8.767163E-06
0.2759998,-7.473529E-06
0.2769998,-6.296384E-06
0.2779998,-5.073257E-06
0.2789998,-3.739772E-06
0.2799998,-2.501317E-06
0.2809998,-1.241404E-06
0.2819998,9.208121E-08
0.2829998,1.339733E-06
0.2839998,2.783575E-06
0.2849998,4.141584E-06
0.2859998,5.468938E-06
0.2869998,6.928107E-06
0.2879998,8.359688E-06
0.2889998,9.824988E-06
0.2899998,1.132707E-05
0.2909998,1.278624E-05
0.2919998,1.443547E-05
0.2929998,1.594676E-05
0.2939998,1.754387E-05
0.2949998,1.926361E-05
0.2959998,2.086073E-05
0.2969998,2.253448E-05
0.2979998,2.438603E-05
0.2989998,2.642563E-05
0.2999998,2.817295E-05
0.3009998,3.007355E-05
0.3019998,3.194349E-05
0.3029998,3.39054E-05
0.3039998,3.5806E-05
0.3049998,3.795184E-05
0.3059998,4.000571E-05
0.3069998,4.227417E-05
0.3079998,4.457328E-05
0.3089998,4.678043E-05
0.3099998,4.907954E-05
0.3109998,5.150127E-05
0.3119998,5.401497E-05
0.3129998,5.662063E-05
0.3139998,5.934891E-05
0.3149998,6.201588E-05
0.3159998,6.489743E-05
0.3169998,6.79016E-05
0.3179998,7.084447E-05
0.3189998,7.409388E-05
0.3199998,7.737394E-05
0.3209998,8.077663E-05
0.3219998,8.43939E-05
0.3229998,8.804183E-05
0.3239998,9.208826E-05
0.3249998,9.604274E-05
0.3259998,0.0001003957
0.3269998,0.0001050859
0.3279998,0.0001098374
0.3289998,0.0001148954
0.3299998,0.000120444
0.3309998,0.0001260845
0.3319998,0.0001324607
0.3329998,0.0001391434
0.3339998,0.0001464086
0.3349998,0.0001545628
0.3359998,0.0001630848
0.3369998,0.0001726491
0.3379998,0.0001832557
0.3389998,0.0001948432
0.3399998,0.0002078715
0.3409998,0.0002222793
0.3419998,0.0002384651
0.3429998,0.0002568886
0.3439998,0.0002775193
0.3449998,0.0003011848
0.3459998,0.0003313904
0.3469998,0.0003617386
0.3479998,0.0003972982
0.3489998,0.0004371495
0.3499998,0.0004834383
0.3509998,0.0005367777
0.3519998,0.0005977808
0.3529998,0.0006689
0.3539998,0.0007510549
0.3549998,0.0008463915
0.3559998,0.0009585881
0.3569998,0.001089484
0.3579998,0.001243678
0.3589998,0.001424541
0.3599998,0.001632381
0.3609998,0.001870569
0.3619998,0.002132975
0.3629998,0.002417145
0.3639998,0.002720014
0.3649998,0.003032694
0.3659998,0.003384409
0.3669998,0.003712416
0.3679998,0.004046554
0.3689998,0.004383757
0.3699998,0.00472096
0.3709998,0.005055097
0.3719998,0.005395366
0.3729998,0.005723373
0.3739998,0.006048314
0.3749998,0.006373255
0.3759998,0.006685934
0.3769998,0.006995548
0.3779998,0.007302096
0.3789998,0.007593317
0.3799998,0.007887604
0.3809998,0.008169628
0.3819998,0.008445522
0.3829998,0.008721415
0.3839998,0.008991177
0.3849998,0.009254809
0.3859998,0.009521506
0.3869998,0.009779006
0.3879998,0.01003344
0.3889998,0.01028788
0.3899998,0.01054231
0.3909998,0.01079368
0.3919998,0.01104505
0.3929998,0.01129029
0.3939998,0.01153553
0.3949998,0.01178383
0.3959998,0.01202907
0.3969998,0.01227124
0.3979998,0.01251648
0.3989998,0.01275865
0.3999998,0.01299163
0.4009998,0.0132338
0.4019998,0.01346985
0.4029998,0.01369976
0.4039998,0.01394193
0.4049998,0.01417184
0.4059998,0.01439562
0.4069998,0.01463166
0.4079998,0.01484931
0.4089998,0.01507923
0.4099998,0.0153122
0.4109998,0.01552679
0.4119998,0.01575056
0.4129998,0.01595902
0.4139998,0.01616747
0.4149998,0.01637899
0.4159998,0.01657825
0.4169998,0.0167775
0.4179998,0.01697676
0.4189998,0.01716375
0.4199998,0.01734768
0.4209998,0.01752855
0.4219998,0.01770634
0.4229998,0.01786575
0.4239998,0.01803435
0.4249998,0.01818762
0.4259998,0.01832864
0.4269998,0.01847578
0.4279998,0.01860146
0.4289998,0.01872715
0.4299998,0.01884364
0.4309998,0.01893867
0.4319998,0.0190337
0.4329998,0.0191134
0.4339998,0.01918084
0.4349998,0.01924215
0.4359998,0.01928813
0.4369998,0.01932185
0.4379998,0.01934944
0.4389998,0.01935557
0.4399998,0.01934638
0.4409998,0.01933718
0.4419998,0.01929733
0.4429998,0.01925135
0.4439998,0.01919617
0.4449998,0.0191134
0.4459998,0.01903676
0.4469998,0.0189356
0.4479998,0.01881911
0.4489998,0.01869649
0.4499998,0.01855548
0.4509998,0.01839301
0.4519998,0.01823054
0.4529998,0.01805581
0.4539998,0.01786268
0.4549998,0.01767262
0.4559998,0.0174703
0.4569998,0.01725265
0.4579998,0.0170442
0.4589998,0.01682348
0.4599998,0.01659664
0.4609998,0.01638512
0.4619998,0.01616441
0.4629998,0.01594676
0.4639998,0.01574137
0.4649998,0.01553905
0.4659998,0.01534286
0.4669998,0.01517119
0.4679998,0.01500872
0.4689998,0.01485544
0.4699998,0.01473896
0.4709998,0.01462247
0.4719998,0.01454276
0.4729998,0.01449065
0.4739998,0.01444467
0.4749998,0.01443854
0.4759998,0.01445693
0.4769998,0.01448146
0.4779998,0.01455503
0.4789998,0.0146378
0.4799998,0.01473589
0.4809998,0.0148769
0.4819998,0.01502098
0.4829998,0.01518652
0.4839998,0.01538271
0.4849998,0.0155697
0.4859998,0.01578429
0.4869998,0.01602033
0.4879998,0.01624411
0.4889998,0.01650161
0.4899998,0.01677444
0.4909998,0.01703194
0.4919998,0.01732316
0.4929998,0.01761438
0.4939998,0.01790253
0.4949998,0.01820602
0.4959998,0.0185187
0.4969998,0.01883138
0.4979998,0.01914712
0.4989998,0.01948126
0.4999998,0.01980926
0.5009998,0.02013727
0.5019998,0.02048367
0.5029998,0.02082087
0.5039998,0.02116114
0.5049998,0.02151981
0.5059998,0.0218662
0.5069998,0.02221873
0.5079998,0.02258659
0.5089998,0.02293912
0.5099998,0.02329778
0.5109998,0.02367484
0.5119998,0.0240427
0.5129998,0.02441362
0.5139998,0.02479374
0.5149998,0.0251616
0.5159998,0.02554172
0.5169998,0.0259249
0.5179998,0.02630196
0.5189998,0.02668821
0.5199998,0.02707446
0.5209998,0.02745458
0.5219998,0.02785003
0.5229998,0.02824241
0.5239998,0.02862866
0.5249998,0.02902717
0.5259998,0.02942262
0.5269998,0.029815
0.5279998,0.03021351
0.5289998,0.03139171
0.5299998,0.03175957
0.5309998,0.03215808
0.5319998,0.03258725
0.5329998,0.03298576
0.5339998,0.03338427
0.5349998,0.03381344
0.5359998,0.03421196
0.5369998,0.03464112
0.5379998,0.03503963
0.5389998,0.03543815
0.5399998,0.03589797
0.5409998,0.03629648
0.5419998,0.03672565
0.5429998,0.03715482
0.5439998,0.03755333
0.5449998,0.0379825
0.5459998,0.03841167
0.5469998,0.03884083
0.5479998,0.03927
0.5489998,0.03969917
0.5499998,0.04012834
0.5509998,0.0405575
0.5519998,0.04098667
0.5529998,0.04141584
0.5539998,0.04184501
0.5549998,0.04227417
0.5559998,0.04273399
0.5569998,0.04313251
0.5579998,0.04359233
0.5589998,0.0440215
0.5599998,0.04445067
0.5609998,0.04487984
0.5619998,0.04533966
0.5629998,0.04576882
0.5639998,0.04622864
0.5649998,0.04665781
0.5659998,0.04708698
0.5669998,0.0475468
0.5679998,0.04797597
0.5689998,0.04840514
0.5699998,0.04886496
0.5709998,0.04929413
0.5719998,0.04972329
0.5729998,0.05018312
0.5739998,0.05064294
0.5749998,0.05107211
0.5759998,0.05153193
0.5769998,0.05199176
0.5779998,0.05242092
0.5789998,0.05285009
0.5799998,0.05330991
0.5809998,0.05376973
0.5819998,0.05422956
0.5829998,0.05465872
0.5839998,0.05511854
0.5849998,0.05557837
0.5859998,0.05600753
0.5869998,0.05646735
0.5879998,0.05689653
0.5889998,0.05735635
0.5899998,0.05784683
0.5909998,0.05827599
0.5919998,0.05873581
0.5929998,0.05919564
0.5939998,0.0596248
0.5949998,0.06008463
0.5959998,0.06054445
0.5969998,0.06100427
0.5979998,0.0614641
0.5989998,0.06192392
0.5999998,0.0624144
0.6009998,0.06287422
0.6019998,0.06327273
0.6029998,0.06376321
0.6039998,0.06422303
0.6049998,0.0646522
0.6059998,0.06514268
0.6069998,0.0656025
0.6079998,0.06603166
0.6089998,0.06652214
0.6099998,0.06698196
0.6109998,0.06744178
0.6119998,0.0679016
0.6129998,0.06836143
0.6139998,0.06882125
0.6149998,0.06928107
0.6159998,0.06977155
0.6169998,0.07020072
0.6179998,0.0706912
0.6189998,0.07115102
0.6199998,0.07161084
0.6209998,0.07207067
0.6219998,0.07253049
0.6229998,0.07299031
0.6239998,0.07345013
0.6249998,0.0739406
0.6259998,0.07440043
0.6269998,0.07486025
0.6279998,0.07535073
0.6289998,0.07581055
0.6299998,0.07627037
0.6309998,0.0767302
0.6319998,0.07715937
0.6329998,0.0776805
0.6339998,0.07810967
0.6349998,0.07860014
0.6359998,0.07909062
0.6369998,0.07951979
0.6379998,0.08001027
0.6389998,0.08047009
0.6399998,0.08092991
0.6409998,0.08142038
0.6419998,0.0818802
0.6429998,0.08234003
0.6439998,0.08283051
0.6449998,0.08329033
0.6459998,0.08375015
0.6469998,0.08424063
0.6479998,0.0846698
0.6489998,0.08516028
0.6499998,0.08565076
0.6509998,0.08611058
0.6519998,0.08660105
0.6529998,0.08706088
0.6539998,0.0875207
0.6549998,0.08801118
0.6559998,0.088471
0.6569998,0.08893082
0.6579998,0.08942129
0.6589998,0.08988111
0.6599998,0.0903716
0.6609998,0.09086207
0.6619998,0.09129124
0.6629998,0.09178172
0.6639998,0.09230285
0.6649998,0.09273202
0.6659998,0.09322249
0.6669998,0.09371297
0.6679998,0.0941728
0.6689998,0.09466327
0.6699998,0.0951231
0.6709998,0.09561357
0.6719998,0.0960734
0.6729998,0.09656387
0.6739998,0.09702369
0.6749998,0.09751417
0.6759998,0.09797399
0.6769998,0.09843381
0.6779998,0.09895495
0.6789998,0.09938411
0.6799998,0.09987459
0.6809998,0.1003651
0.6819998,0.1008249
0.6829998,0.101346
0.6839998,0.1018365
0.6849998,0.1022657
0.6859998,0.1027868
0.6869998,0.1032466
0.6879998,0.1037064
0.6889998,0.1041969
0.6899998,0.1046567
0.6909998,0.1051166
0.6919998,0.1056377
0.6929998,0.1060975
0.6939998,0.106588
0.6949998,0.1070785
0.6959998,0.1075383
0.6969998,0.1080288
0.6979998,0.1085499
0.6989998,0.1089791
0.6999998,0.1091323
0.6990003,0.1086725
0.6980003,0.1081514
0.6970003,0.1076916
0.6960003,0.1072011
0.6950003,0.1067413
0.6940003,0.1062815
0.6930003,0.105791
0.6920003,0.1053005
0.6910003,0.1048713
0.6900003,0.1043808
0.6890003,0.1038904
0.6880003,0.1034305
0.6870003,0.1030014
0.6860003,0.1025109
0.6850003,0.1020511
0.6840003,0.1015606
0.6830003,0.1011008
0.6820003,0.1006103
0.6810003,0.1001198
0.6800003,0.09966001
0.6790003,0.09920018
0.6780003,0.09870971
0.6770003,0.09824988
0.6760003,0.09779006
0.6750003,0.09729959
0.6740003,0.09683976
0.6730003,0.09637994
0.6720003,0.09588946
0.6710003,0.09542964
0.6700003,0.09496982
0.6690003,0.09447934
0.6680003,0.09401952
0.6670003,0.0935597
0.6660003,0.09303857
0.6650003,0.09257875
0.6640003,0.09211892
0.6630003,0.09162845
0.6620003,0.09116862
0.6610003,0.0907088
0.6600003,0.09021832
0.6590003,0.0897585
0.6580003,0.08929868
0.6570003,0.08883885
0.6560003,0.08834838
0.6550003,0.08788855
0.6540003,0.08742873
0.6530003,0.08696891
0.6520003,0.08647843
0.6510003,0.08604927
0.6500003,0.08555879
0.6490003,0.08509897
0.6480003,0.08463915
0.6470003,0.08417932
0.6460003,0.08368885
0.6450003,0.08322902
0.6440003,0.08273854
0.6430003,0.08230938
0.6420003,0.08184955
0.6410003,0.08135908
0.6400003,0.08092991
0.6390003,0.08047009
0.6380003,0.07997961
0.6370003,0.07955044
0.6360003,0.07909062
0.6350003,0.07860014
0.6340003,0.07817098
0.6330003,0.0776805
0.6320003,0.07719002
0.6310003,0.07676085
0.6300003,0.07627037
0.6290003,0.07581055
0.6280003,0.07538139
0.6270003,0.0748909
0.6260003,0.07443108
0.6250003,0.0739406
0.6240003,0.07348078
0.6230003,0.07302096
0.6220003,0.0725918
0.6210003,0.07213198
0.6200003,0.07167216
0.6190003,0.07121233
0.6180003,0.07075251
0.6170003,0.07029268
0.6160003,0.06983286
0.6150003,0.06937304
0.6140003,0.06891321
0.6130003,0.06842274
0.6120003,0.06796291
0.6110003,0.06753375
0.6100003,0.06704327
0.6090003,0.06658345
0.6080003,0.06615429
0.6070003,0.06569446
0.6060003,0.06523464
0.6050003,0.06480547
0.6040003,0.06431499
0.6030003,0.06385517
0.6020003,0.063426
0.6010003,0.06296618
0.6000003,0.06250636
0.5990003,0.06204654
0.5980003,0.06158672
0.5970003,0.06112689
0.5960003,0.06069772
0.5950003,0.0602379
0.5940003,0.05977808
0.5930003,0.05931826
0.5920003,0.05885844
0.5910003,0.05839861
0.5900003,0.0580001
0.5890003,0.05750962
0.5880003,0.05708046
0.5870003,0.05662064
0.5860003,0.05616081
0.5850003,0.05573164
0.5840003,0.05527182
0.5830003,0.054812
0.5820003,0.05438283
0.5810003,0.05392301
0.5800003,0.05346319
0.5790003,0.05303402
0.5780003,0.05257419
0.5770003,0.05211437
0.5760003,0.0516852
0.5750003,0.05122538
0.5740003,0.05079622
0.5730003,0.05036705
0.5720003,0.04990723
0.5710003,0.04947806
0.5700003,0.04904889
0.5690003,0.04858907
0.5680003,0.0481599
0.5670003,0.04770008
0.5660003,0.04727091
0.5650003,0.04684174
0.5640003,0.04638192
0.5630003,0.04595275
0.5620003,0.04549293
0.5610003,0.04506376
0.5600003,0.0446346
0.5590003,0.04417477
0.5580003,0.0437456
0.5570003,0.04331644
0.5560003,0.04288727
0.5550003,0.04242745
0.5540003,0.04202893
0.5530003,0.04159977
0.5520003,0.0411706
0.5510003,0.04074143
0.5500003,0.04028161
0.5490003,0.03985244
0.5480003,0.03942328
0.5470003,0.03899411
0.5460003,0.03856494
0.5450003,0.03813577
0.5440003,0.03770661
0.5430003,0.03727744
0.5420003,0.03684827
0.5410003,0.0364191
0.5400003,0.03598994
0.5390003,0.03559142
0.5380003,0.03516225
0.5370003,0.03473309
0.5360003,0.03430392
0.5350003,0.03390541
0.5340003,0.03347624
0.5330003,0.03304707
0.5320003,0.03264856
0.5310003,0.03221939
0.5300003,0.03179022
0.5290003,0.03139171
0.5280003,0.0309932
0.5270003,0.03056403
0.5260003,0.03016552
0.5250003,0.02973635
0.5240003,0.02930718
0.5230003,0.02890867
0.5220003,0.02851016
0.5210003,0.02811164
0.5200003,0.02771313
0.5190003,0.02728396
0.5180003,0.02688545
0.5170003,0.02648694
0.5160003,0.02608843
0.5150003,0.02568991
0.5140003,0.0252914
0.5130003,0.02489289
0.5120003,0.02449437
0.5110003,0.02409586
0.5100003,0.02369735
0.5090003,0.02332949
0.5080003,0.02293098
0.5070003,0.02253246
0.5060003,0.02213395
0.5050003,0.02173544
0.5040003,0.02136758
0.5030003,0.02096907
0.5020003,0.02060121
0.5010003,0.02023335
0.5000003,0.01983484
0.4990003,0.01946698
0.4980003,0.01909912
0.4970003,0.01873127
0.4960003,0.01836341
0.4950003,0.01799555
0.4940003,0.01762769
0.4930003,0.01725983
0.4920003,0.01689198
0.4910003,0.01652412
0.4900003,0.01618692
0.4890003,0.01581906
0.4880003,0.0154512
0.4870003,0.015114
0.4860003,0.01474614
0.4850003,0.01440894
0.4840003,0.01407173
0.4830003,0.01370388
0.4820003,0.01336667
0.4810003,0.01254101
0.4800003,0.012213
0.4790003,0.01188193
0.4780003,0.01156005
0.4770003,0.01123511
0.4760003,0.01091017
0.4750003,0.01059749
0.4740003,0.01027561
0.4730003,0.00995987
0.4720003,0.009656386
0.4710003,0.009346773
0.4700003,0.009046356
0.4690003,0.008749004
0.4680003,0.008448587
0.4670003,0.008157366
0.4660003,0.007866145
0.4650003,0.007581055
0.4640003,0.007299031
0.4630003,0.007017006
0.4620003,0.006744178
0.4610003,0.006468285
0.4600003,0.006201588
0.4590003,0.005937956
0.4580003,0.00567739
0.4570003,0.005422956
0.4560003,0.005171585
0.4550003,0.004920216
0.4540003,0.004681109
0.4530003,0.004442001
0.4520003,0.004209024
0.4510003,0.003979113
0.4500003,0.003752267
0.4490003,0.003531553
0.4480003,0.003316969
0.4470003,0.003102385
0.4460003,0.002896998
0.4450003,0.002694676
0.4440003,0.002495419
0.4430003,0.00230536
0.4420003,0.0021153
0.4410003,0.001931371
0.4400003,0.001756638
0.4390003,0.00157884
0.4380003,0.001413304
0.4370003,0.001247768
0.4360003,0.001055457
0.4350003,0.0009049422
0.4340003,0.0007519746
0.4330003,0.0006069773
0.4320003,0.0004684174
0.4310003,0.0003274052
0.4300003,0.0001968157
0.4290003,6.837194E-05
0.4280003,-6.232009E-05
0.4270003,-0.0001771837
0.4260003,-0.0002939173
0.4250003,-0.0004058582
0.4240003,-0.0005085519
0.4230003,-0.0006164569
0.4220003,-0.0007179244
0.4210003,-0.0008129543
0.4200003,-0.0009073712
0.4190003,-0.000995044
0.4180003,-0.001083637
0.4170003,-0.001166711
0.4160003,-0.00124672
0.4150003,-0.001328262
0.4140003,-0.001400301
0.4130003,-0.001474486
0.4120003,-0.001546524
0.4110003,-0.001611206
0.4100003,-0.001685084
0.4090003,-0.00175559
0.4080003,-0.001811382
0.4070003,-0.001872692
0.4060003,-0.001930016
0.4050003,-0.001985195
0.4040003,-0.002042826
0.4030003,-0.002095859
0.4020003,-0.002148279
0.4010003,-0.002200698
0.4000003,-0.002250053
0.3990003,-0.002302166
0.3980003,-0.002349374
0.3970003,-0.002400568
0.3960003,-0.002449309
0.3950003,-0.002494065
0.3940003,-0.002544032
0.3930003,-0.002588788
0.3920003,-0.002633545
0.3910003,-0.002683205
0.3900003,-0.002726122
0.3890003,-0.002773024
0.3880003,-0.002820539
0.3870003,-0.002862229
0.3860003,-0.00291097
0.3850003,-0.00295634
0.3840003,-0.002999257
0.3830003,-0.003013253
0.3820003,-0.003056169
0.3810003,-0.003105217
0.3800003,-0.003151199
0.3790003,-0.003194116
0.3780003,-0.003249295
0.3770003,-0.003295277
0.3760003,-0.003344325
0.3750003,-0.003396438
0.3740003,-0.00344242
0.3730003,-0.003494533
0.3720003,-0.003549712
0.3710003,-0.00359876
0.3700003,-0.003653938
0.3690003,-0.003706052
0.3680003,-0.003758165
0.3670003,-0.003816409
0.3660003,-0.003868522
0.3650003,-0.003926767
0.3640003,-0.003985011
0.3630003,-0.004043255
0.3620003,-0.004101499
0.3610003,-0.004165874
0.3600003,-0.004224118
0.3590003,-0.004285428
0.3580003,-0.004349803
0.3570003,-0.004414178
0.3560003,-0.004472422
0.3550003,-0.004539863
0.3540003,-0.004610369
0.3530003,-0.004674744
0.3520003,-0.004742185
0.3510003,-0.004815756
0.3500003,-0.004883197
0.3490003,-0.004956769
0.3480003,-0.00503034
0.3470003,-0.005100846
0.3460003,-0.005177483
0.3450003,-0.00525412
0.3440003,-0.005327692
0.3430003,-0.00541046
0.3420003,-0.005487097
0.3410003,-0.0055668
0.3400003,-0.005649568
0.3390003,-0.005732335
0.3380003,-0.005815104
0.3370003,-0.005900937
0.3360003,-0.00598064
0.3350003,-0.006069539
0.3340003,-0.006155372
0.3330003,-0.006241206
0.3320003,-0.00633317
0.3310003,-0.006422069
0.3300003,-0.006517099
0.3290003,-0.006609064
0.3280003,-0.006697963
0.3270003,-0.006796058
0.3260003,-0.006891088
0.3250003,-0.006983052
0.3240003,-0.007084213
0.3230003,-0.007179243
0.3220003,-0.007277339
0.3210003,-0.0073785
0.3200003,-0.00747966
0.3190003,-0.007580821
0.3180003,-0.007678917
0.3170003,-0.007783143
0.3160003,-0.00788737
0.3150003,-0.007991596
0.3140003,-0.008098888
0.3130003,-0.008200049
0.3120003,-0.008307341
0.3110003,-0.008417699
0.3100003,-0.008518859
0.3090003,-0.008629217
0.3080003,-0.008736508
0.3070003,-0.008852997
0.3060003,-0.008963354
0.3050003,-0.00906758
0.3040003,-0.009177938
0.3030003,-0.009294426
0.3020003,-0.009401718
0.3010003,-0.009515141
0.3000003,-0.009631629
0.2990003,-0.009735856
0.2980003,-0.009852344
0.2970003,-0.009968832
0.2960003,-0.01007612
0.2950003,-0.01019568
0.2940003,-0.01031217
0.2930003,-0.01042252
0.2920003,-0.01054208
0.2910003,-0.0106555
0.2900003,-0.01076892
0.2890003,-0.01088235
0.2880003,-0.01099883
0.2870003,-0.01111839
0.2860003,-0.01122875
0.2850003,-0.01134523
0.2840003,-0.01146172
0.2830003,-0.01157208
0.2820003,-0.0116855
0.2810003,-0.01179586
0.2800003,-0.01190315
0.2790003,-0.01201351
0.2780003,-0.01211467
0.2770003,-0.0122189
0.2760003,-0.01231393
0.2750003,-0.01240589
0.2740003,-0.01249479
0.2730003,-0.01256836
0.2720003,-0.01263274
0.2710003,-0.01270631
0.2700003,-0.01274309
0.2690003,-0.01277682
0.2680003,-0.0128044
0.2670003,-0.01278601
0.2660003,-0.01275536
0.2650003,-0.01270324
0.2640003,-0.01259595
0.2630003,-0.0124672
0.2620003,-0.01229247
0.2610003,-0.01206256
0.2600003,-0.01179893
0.2590003,-0.01150157
0.2580003,-0.01116131
0.2570003,-0.01081797
0.2560003,-0.01046851
0.2550003,-0.01010371
0.2540003,-0.009769576
0.2530003,-0.009432373
0.2520003,-0.009104366
0.2510003,-0.008807015
0.2500003,-0.008521925
0.2490003,-0.008258293
0.2480003,-0.008009989
0.2470003,-0.007777012
0.2460003,-0.007553232
0.2450003,-0.007360106
0.2440003,-0.007160851
0.2430003,-0.006979987
0.2420003,-0.006814451
0.2410003,-0.006648915
0.2400003,-0.006501772
0.2390003,-0.006351563
0.2380003,-0.006213617
0.2370003,-0.006084866
0.2360003,-0.005959181
0.2350003,-0.005833496
0.2340003,-0.005720073
0.2330003,-0.005612782
0.2320003,-0.005502424
0.2310003,-0.005404329
0.2300003,-0.005300103
0.2290003,-0.005205072
0.2280003,-0.005119239
0.2270003,-0.005027275
0.2260003,-0.004941441
0.2250003,-0.004861739
0.2240003,-0.004775905
0.2230003,-0.004699268
0.2220003,-0.004625696
0.2210003,-0.00454906
0.2200003,-0.004478553
0.2190003,-0.004411113
0.2180003,-0.004340607
0.2170003,-0.004276231
0.2160003,-0.004214922
0.2150003,-0.004147481
0.2140003,-0.004092303
0.2130003,-0.004027927
0.2120003,-0.003969683
0.2110003,-0.003911439
0.2100003,-0.00385626
0.2090003,-0.003801082
0.2080003,-0.003748968
0.2070003,-0.003696855
0.2060003,-0.003644742
0.2050003,-0.003595694
0.2040003,-0.003546647
0.2030003,-0.003497599
0.2020003,-0.003448551
0.2010003,-0.003402569
0.2000003,-0.003350456
0.1990003,-0.003304473
0.1980003,-0.003255426
0.1970003,-0.003203312
0.1960003,-0.00315733
0.1950003,-0.003108283
0.1940003,-0.0030623
0.1930003,-0.003022449
0.1920003,-0.002979532
0.1910003,-0.002939681
0.1900003,-0.00289983
0.1890003,-0.002859978
0.1880003,-0.002826258
0.1870003,-0.002789472
0.1860003,-0.002755752
0.1850003,-0.002722032
0.1840003,-0.002691377
0.1830003,-0.002657657
0.1820003,-0.002630068
0.1810003,-0.002599412
0.1800003,-0.002571823
0.1790003,-0.002541168
0.1780003,-0.002513579
0.1770003,-0.002489055
0.1760003,-0.002461466
0.1750003,-0.002436942
0.1740003,-0.002409352
0.1730003,-0.002384829
0.1720003,-0.002360305
0.1710003,-0.002338846
0.1700003,-0.002314323
0.1690003,-0.002292864
0.1680003,-0.00226834
0.1670003,-0.002249948
0.1660003,-0.002228489
0.1650003,-0.002207031
0.1640003,-0.002185572
0.1630003,-0.002164114
0.1620003,-0.002145721
0.1610003,-0.002127328
0.1600003,-0.00210587
0.1590003,-0.002090542
0.1580003,-0.002072149
0.1570003,-0.002053756
0.1560003,-0.002035364
0.1550003,-0.002016971
0.1540003,-0.001998578
0.1530003,-0.00198325
0.1520003,-0.001967923
0.1510003,-0.00194953
0.1500003,-0.001934203
0.1490003,-0.001918875
0.1480003,-0.001903548
0.1470003,-0.00188822
0.1460003,-0.001872893
0.1450003,-0.001857566
0.1440003,-0.001842238
0.1430003,-0.001829976
0.1420003,-0.001814649
0.1410003,-0.001799321
0.1400003,-0.00178706
0.1390003,-0.001771732
0.1380003,-0.00175947
0.1370003,-0.001747208
0.1360003,-0.001731881
0.1350003,-0.001719619
0.1340003,-0.001707357
0.1330003,-0.001695095
0.1320003,-0.001682833
0.1310003,-0.001670571
0.1300003,-0.001658309
0.1290003,-0.001646047
0.1280003,-0.001633785
0.1270003,-0.001621523
0.1260003,-0.001646766
0.1250003,-0.001635423
0.1240003,-0.001624388
0.1230003,-0.001613352
0.1220003,-0.001602316
0.1210003,-0.001591894
0.1200003,-0.001581164
0.1190003,-0.001570742
0.1180003,-0.001560626
0.1170003,-0.001550509
0.1160003,-0.001540393
0.1150003,-0.001530584
0.1140003,-0.001520774
0.1130003,-0.001510965
0.1120003,-0.001501462
0.1110003,-0.001491959
0.1100003,-0.001482456
0.1090003,-0.001473259
0.1080003,-0.001464063
0.1070003,-0.001454866
0.1060003,-0.001446283
0.1050003,-0.001437393
0.1040003,-0.001428503
0.1030003,-0.001420227
0.1020003,-0.001411643
0.1010003,-0.00140306
0.1000003,-0.00139509
0.09900028,-0.001386506
0.09800029,-0.001378536
0.09700029,-0.001370566
0.09600028,-0.001362595
0.09500029,-0.001354625
0.09400029,-0.001346962
0.09300029,-0.001338685
0.09200028,-0.001331021
0.09100029,-0.001323664
0.09000029,-0.001316
0.08900028,-0.00130895
0.08800028,-0.001301592
0.08700029,-0.001294235
0.08600029,-0.001287185
0.08500028,-0.001280134
0.08400029,-0.001273083
0.08300029,-0.001266339
0.08200029,-0.001259289
0.08100028,-0.001252238
0.08000029,-0.001245801
0.07900029,-0.001239363
0.07800028,-0.001232619
0.07700028,-0.001226181
0.07600029,-0.001219744
0.07500029,-0.001213
0.07400028,-0.001207175
0.07300029,-0.001200738
0.07200029,-0.001193994
0.07100029,-0.00118817
0.07000028,-0.001181732
0.06900029,-0.001175601
0.06800029,-0.001169777
0.06700028,-0.001163646
0.06600028,-0.001157821
0.06500029,-0.001151997
0.06400029,-0.001145866
0.06300028,-0.001140348
0.06200029,-0.001134524
0.06100029,-0.001129006
0.06000029,-0.001123488
0.05900029,-0.00111797
0.05800029,-0.001112452
0.05700029,-0.001106934
0.05600028,-0.00110111
0.05500029,-0.001096205
0.05400028,-0.001090687
0.05300029,-0.001085169
0.05200029,-0.001079958
0.05100029,-0.001074747
0.05000029,-0.001069229
0.04900029,-0.001064324
0.04800029,-0.001059113
0.04700029,-0.001053901
0.04600029,-0.001048997
0.04500028,-0.001044092
0.04400029,-0.001038881
0.04300028,-0.001033976
0.04200029,-0.001029071
0.04100028,-0.00102386
0.04000029,-0.001018955
0.03900029,-0.001014357
0.03800029,-0.001009452
0.03700029,-0.001004854
0.03600029,-0.0009999488
0.03500029,-0.0009953505
0.03400028,-0.0009904457
0.03300029,-0.0009858476
0.03200028,-0.0009812494
0.03100029,-0.0009766511
0.03000029,-0.0009720529
0.02900029,-0.0009674546
0.02800029,-0.0009628565
0.02700029,-0.0009582583
0.02600029,-0.00095366
0.02500029,-0.0009490618
0.02400029,-0.0009444635
0.02300029,-0.0009401719
0.02200029,-0.0009358802
0.02100029,-0.0009312819
0.02000029,-0.0009272969
0.01900029,-0.0009226986
0.01800029,-0.0009184069
0.01700029,-0.0009141153
0.01600029,-0.0009098236
0.01500029,-0.0009052254
0.01400029,-0.0009012403
0.01300029,-0.0008969486
0.01200029,-0.0008926569
0.01100029,-0.0008886718
0.01000029,-0.0008846867
0.009000286,-0.0008807015
0.008000286,-0.0008764099
0.007000286,-0.0008724247
0.006000286,-0.000868133
0.005000286,-0.0008641479
0.004000286,-0.0008601628
0.003000286,-0.0008561776
0.002000286,-0.000852499
0.001000286,-0.000848514
2.861023E-07,-0.0008374782
0.0009997139,-0.0008178591
0.001999714,-0.0008003859
0.002999714,-0.0007844454
0.003999714,-0.0007694245
0.004999714,-0.0007556298
0.005999714,-0.0007424483
0.006999714,-0.0007295733
0.007999714,-0.0007173113
0.008999714,-0.000705969
0.009999714,-0.0006949333
0.01099971,-0.000684204
0.01199971,-0.000674088
0.01299971,-0.0006639719
0.01399971,-0.0006544688
0.01499971,-0.0006452725
0.01599971,-0.000636076
0.01699971,-0.0006274926
0.01799971,-0.0006192158
0.01899971,-0.0006109391
0.01999971,-0.0006029688
0.02099971,-0.0005953051
0.02199971,-0.0005876414
0.02299971,-0.0005799776
0.02399971,-0.000572927
0.02499971,-0.0005658764
0.02599971,-0.0005588258
0.02699971,-0.0005520818
0.02799971,-0.0005453377
0.02899971,-0.0005389001
0.02999971,-0.0005324627
0.03099971,-0.0005263317
0.03199971,-0.0005202008
0.03299971,-0.0005140697
0.03399972,-0.0005082454
0.03499971,-0.0005027275
0.03599972,-0.0004969031
0.03699971,-0.0004913852
0.03799972,-0.0004858673
0.03899971,-0.0004803495
0.03999971,-0.0004751382
0.04099971,-0.0004699268
0.04199971,-0.0004647155
0.04299971,-0.0004595042
0.04399971,-0.0004545994
0.04499971,-0.0004496947
0.04599971,-0.0004447899
0.04699972,-0.0004401917
0.04799971,-0.0004355934
0.04899972,-0.0004309952
0.04999971,-0.000426397
0.05099971,-0.0004217988
0.05199971,-0.0004175071
0.05299971,-0.0004129088
0.05399971,-0.0004086172
0.05499971,-0.0004043255
0.05599971,-0.0004003404
0.05699971,-0.0003960487
0.05799972,-0.0003920636
0.05899971,-0.0003880784
0.05999972,-0.0003840933
0.06099971,-0.0003801082
0.06199971,-0.0003761231
0.06299971,-0.0003724445
0.06399971,-0.0003687659
0.06499971,-0.0003647808
0.06599972,-0.0003611022
0.06699971,-0.0003574236
0.06799971,-0.000353745
0.06899972,-0.000350373
0.06999972,-0.000347001
0.07099971,-0.0003433224
0.07199971,-0.0003399504
0.07299972,-0.0003362718
0.07399971,-0.0003328998
0.07499971,-0.0003298343
0.07599971,-0.0003264622
0.07699972,-0.0003230902
0.07799971,-0.0003200247
0.07899971,-0.0003166527
0.07999972,-0.0003135872
0.08099972,-0.0003105217
0.08199971,-0.0003074562
0.08299971,-0.0003043908
0.08399972,-0.0003013253
0.08499971,-0.0002982598
0.08599971,-0.0002955009
0.08699971,-0.0002924354
0.08799972,-0.0002896764
0.08899971,-0.0002863044
0.08999971,-0.000283852
0.09099972,-0.0002810931
0.09199972,-0.0002780276
0.09299971,-0.0002755752
0.09399971,-0.0002725097
0.09499972,-0.0002697508
0.09599971,-0.0002672984
0.09699971,-0.0002645395
0.09799971,-0.0002617805
0.09899972,-0.0002593282
0.09999971,-0.0002565692
0.1009997,-0.0002541168
0.1019997,-0.0002513579
0.1029997,-0.0002489055
0.1039997,-0.0002464531
0.1049997,-0.0002436942
0.1059997,-0.0002415484
0.1069997,-0.000239096
0.1079997,-0.0002366436
0.1089997,-0.0002341912
0.1099997,-0.0002320454
0.1109997,-0.000229593
0.1119997,-0.0002274471
0.1129997,-0.0002249948
0.1139997,-0.0002228489
0.1149997,-0.0002203965
0.1159997,-0.0002179441
0.1169997,-0.0002157983
0.1179997,-0.0002136525
0.1189997,-0.0002115066
0.1199997,-0.0002093608
0.1209997,-0.0002075215
0.1219997,-0.0002050691
0.1229997,-0.0002032298
0.1239997,-0.000201084
0.1249997,-0.0001992447
0.1259997,-0.0001970989
0.1269997,-0.000194953
0.1279997,-0.0001928072
0.1289997,-0.0001906613
0.1299997,-0.0001891286
0.1309997,-0.0001869828
0.1319997,-0.0001848369
0.1329997,-0.0001829976
0.1339997,-0.0001811584
0.1349997,-0.0001793191
0.1359997,-0.0001774798
0.1369997,-0.0001756405
0.1379997,-0.0001738012
0.1389997,-0.0001719619
0.1399997,-0.0001701226
0.1409997,-0.0001682833
0.1419997,-0.000166444
0.1429997,-0.0001646047
0.1439997,-0.0001627655
0.1449997,-0.0001609262
0.1459997,-0.0001593934
0.1469997,-0.0001609367
0.1479997,-0.00015922
0.1489997,-0.0001575953
0.1499997,-0.0001559706
0.1509997,-0.0001543765
0.1519997,-0.0001527212
0.1529997,-0.0001510352
0.1539997,-0.0001493798
0.1549997,-0.0001477245
0.1559997,-0.0001460997
0.1569997,-0.0001445363
0.1579997,-0.0001430343
0.1589997,-0.0001414402
0.1599997,-0.0001399688
0.1609997,-0.0001384973
0.1619997,-0.0001369953
0.1629997,-0.0001354932
0.1639997,-0.0001340217
0.1649997,-0.0001324583
0.1659997,-0.0001309869
0.1669997,-0.0001294848
0.1679997,-0.0001281054
0.1689997,-0.0001266339
0.1699997,-0.0001251931
0.1709997,-0.0001238137
0.1719997,-0.0001224036
0.1729997,-0.0001210547
0.1739997,-0.0001197059
0.1749997,-0.0001183265
0.1759997,-0.0001170083
0.1769997,-0.0001156595
0.1779997,-0.0001142494
0.1789997,-0.0001129006
0.1799997,-0.0001114904
0.1809997,-0.0001101723
0.1819997,-0.0001089154
0.1829997,-0.0001075973
0.1839997,-0.0001063711
0.1849997,-0.0001051142
0.1859997,-0.0001037961
0.1869997,-0.0001025699
0.1879997,-0.0001012824
0.1889997,-0.0001000868
0.1899997,-9.892196E-05
0.1909997,-9.766511E-05
0.1919997,-9.646956E-05
0.1929997,-9.527403E-05
0.1939997,-9.407849E-05
0.1949997,-9.291361E-05
0.1959997,-9.171807E-05
0.1969997,-9.058384E-05
0.1979997,-8.93883E-05
0.1989997,-8.816211E-05
0.1999997,-8.702788E-05
0.2009997,-8.595496E-05
0.2019997,-8.475943E-05
0.2029997,-8.365585E-05
0.2039997,-8.249097E-05
0.2049997,-8.132608E-05
0.2059997,-8.025316E-05
0.2069997,-7.908828E-05
0.2079997,-7.801536E-05
0.2089997,-7.691179E-05
0.2099997,-7.580821E-05
0.2109997,-7.467398E-05
0.2119997,-7.360106E-05
0.2129997,-7.249749E-05
0.2139997,-7.148589E-05
0.2149997,-7.041297E-05
0.2159997,-6.940136E-05
0.2169997,-6.829778E-05
0.2179997,-6.722486E-05
0.2189997,-6.627457E-05
0.2199997,-6.514033E-05
0.2209997,-6.409807E-05
0.2219997,-6.311711E-05
0.2229997,-6.207485E-05
0.2239997,-6.106325E-05
0.2249997,-6.005164E-05
0.2259997,-5.904003E-05
0.2269997,-5.802842E-05
0.2279997,-5.70168E-05
0.2289997,-5.597454E-05
0.2299997,-5.505489E-05
0.2309997,-5.401264E-05
0.2319997,-5.303168E-05
0.2329997,-5.202007E-05
0.2339997,-5.103911E-05
0.2349997,-5.008882E-05
0.2359997,-4.90159E-05
0.2369997,-4.800429E-05
0.2379997,-4.708464E-05
0.2389997,-4.607304E-05
0.2399997,-4.509208E-05
0.2409997,-4.408047E-05
0.2419997,-4.309952E-05
0.2429997,-4.217987E-05
0.2439997,-4.116826E-05
0.2449997,-4.018731E-05
0.2459997,-3.920636E-05
0.2469997,-3.819475E-05
0.2479997,-3.721379E-05
0.2489997,-3.620218E-05
0.2499997,-3.519057E-05
0.2509997,-3.417896E-05
0.2519997,-3.316735E-05
0.2529997,-3.212509E-05
0.2539997,-3.117479E-05
0.2549997,-3.010187E-05
0.2559997,-2.905961E-05
0.2569997,-2.8048E-05
0.2579997,-2.700573E-05
0.2589997,-2.593282E-05
0.2599997,-2.489055E-05
0.2609997,-2.384829E-05
0.2619997,-2.280602E-05
0.2629997,-2.167179E-05
0.2639997,-2.066019E-05
0.2649997,-1.958727E-05
0.2659997,-1.848369E-05
0.2669997,-1.734946E-05
0.2679997,-1.624589E-05
0.2689997,-1.517297E-05
0.2699997,-1.400809E-05
0.2709997,-1.281255E-05
0.2719997,-1.186637E-05
0.2729997,-1.080264E-05
0.2739997,-9.567254E-06
0.2749997,-8.426895E-06
0.2759997,-7.206832E-06
0.2769997,-5.943854E-06
0.2779997,-4.754447E-06
0.2789997,-3.466944E-06
0.2799997,-2.17331E-06
0.2809997,-9.685757E-07
0.2819997,4.323498E-07
0.2829997,1.67387E-06
0.2839997,3.080927E-06
0.2849997,4.463459E-06
0.2859997,5.824534E-06
0.2869997,7.249983E-06
0.2879997,8.647843E-06
0.2889997,1.018978E-05
0.2899997,1.171639E-05
0.2909997,1.312651E-05
0.2919997,1.476348E-05
0.2929997,1.629929E-05
0.2939997,1.789947E-05
0.2949997,1.962533E-05
0.2959997,2.121939E-05
0.2969997,2.291767E-05
0.2979997,2.472323E-05
0.2989997,2.679348E-05
0.2999997,2.860212E-05
0.3009997,3.050272E-05
0.3019997,3.240332E-05
0.3029997,3.433457E-05
0.3039997,3.629648E-05
0.3049997,3.838101E-05
0.3059997,4.049619E-05
0.3069997,4.270334E-05
0.3079997,4.49718E-05
0.3089997,4.717894E-05
0.3099997,4.950871E-05
0.3109997,5.19611E-05
0.3119997,5.438283E-05
0.3129997,5.692718E-05
0.3139997,5.968611E-05
0.3149997,6.229177E-05
0.3159997,6.523464E-05
0.3169997,6.820816E-05
0.3179997,7.108971E-05
0.3189997,7.443108E-05
0.3199997,7.77418E-05
0.3209997,8.114449E-05
0.3219997,8.485372E-05
0.3229997,8.850165E-05
0.3239997,9.257874E-05
0.3249997,9.671714E-05
0.3259997,0.0001011008
0.3269997,0.0001057296
0.3279997,0.0001105118
0.3289997,0.0001156618
0.3299997,0.0001211797
0.3309997,0.0001267895
0.3319997,0.0001332577
0.3329997,0.0001398485
0.3339997,0.0001471443
0.3349997,0.0001550533
0.3359997,0.0001635447
0.3369997,0.000173017
0.3379997,0.0001834396
0.3389997,0.0001948432
0.3399997,0.0002077796
0.3409997,0.0002219115
0.3419997,0.000237852
0.3429997,0.000255969
0.3439997,0.0002761399
0.3449997,0.0002993762
0.3459997,0.000328938
0.3469997,0.0003586731
0.3479997,0.0003936196
0.3489997,0.0004328578
0.3499997,0.000478227
0.3509997,0.0005309533
0.3519997,0.0005910367
0.3529997,0.0006618494
0.3539997,0.0007440043
0.3549997,0.0008390343
0.3559997,0.0009524572
0.3569997,0.001084273
0.3579997,0.001240306
0.3589997,0.001423928
0.3599997,0.00163514
0.3609997,0.001876087
0.3619997,0.002143704
0.3629997,0.002432779
0.3639997,0.00273994
0.3649997,0.003058751
0.3659997,0.003411999
0.3669997,0.003743071
0.3679997,0.004080274
0.3689997,0.004414412
0.3699997,0.004751615
0.3709997,0.005085752
0.3719997,0.005416824
0.3729997,0.005741765
0.3739997,0.006063641
0.3749997,0.006379386
0.3759997,0.006685934
0.3769997,0.006992483
0.3779997,0.007286769
0.3789997,0.00757799
0.3799997,0.007866145
0.3809997,0.008142038
0.3819997,0.008414866
0.3829997,0.008687695
0.3839997,0.008951326
0.3849997,0.009214957
0.3859997,0.009475523
0.3869997,0.009733024
0.3879997,0.009990525
0.3889997,0.01024189
0.3899997,0.01049326
0.3909997,0.0107477
0.3919997,0.01099294
0.3929997,0.01124124
0.3939997,0.01148954
0.3949997,0.01173172
0.3959997,0.01198002
0.3969997,0.01222526
0.3979997,0.0124613
0.3989997,0.01270348
0.3999997,0.01294258
0.4009997,0.01317556
0.4019997,0.0134116
0.4029997,0.01365071
0.4039997,0.01388062
0.4049997,0.0141136
0.4059997,0.01434657
0.4069997,0.01457036
0.4079997,0.01479413
0.4089997,0.01502711
0.4099997,0.01525089
0.4109997,0.01546854
0.4119997,0.01569232
0.4129997,0.01589464
0.4139997,0.01610923
0.4149997,0.01631768
0.4159997,0.01651081
0.4169997,0.01671926
0.4179997,0.01690625
0.4189997,0.01709018
0.4199997,0.01728331
0.4209997,0.01745497
0.4219997,0.01762358
0.4229997,0.01779218
0.4239997,0.01794852
0.4249997,0.01809873
0.4259997,0.0182428
0.4269997,0.01837155
0.4279997,0.01850337
0.4289997,0.01862292
0.4299997,0.01872408
0.4309997,0.01882218
0.4319997,0.01891108
0.4329997,0.01898158
0.4339997,0.01904902
0.4349997,0.0191042
0.4359997,0.01913792
0.4369997,0.01916551
0.4379997,0.01918084
0.4389997,0.01918084
0.4399997,0.01916858
0.4409997,0.01915018
0.4419997,0.01911034
0.4429997,0.01905822
0.4439997,0.01899385
0.4449997,0.01891108
0.4459997,0.01881911
0.4469997,0.01871182
0.4479997,0.0185984
0.4489997,0.01846658
0.4499997,0.01831638
0.4509997,0.01816923
0.4519997,0.01800369
0.4529997,0.0178259
0.4539997,0.01764503
0.4549997,0.0174611
0.4559997,0.01724652
0.4569997,0.0170534
0.4579997,0.01684801
0.4589997,0.01662729
0.4599997,0.01642804
0.4609997,0.01621652
0.4619997,0.016005
0.4629997,0.01580881
0.4639997,0.01561262
0.4649997,0.01542869
0.4659997,0.01525396
0.4669997,0.01509455
0.4679997,0.01495047
0.4689997,0.01482172
0.4699997,0.0147083
0.4709997,0.01462553
0.4719997,0.01455196
0.4729997,0.01449985
0.4739997,0.01448759
0.4749997,0.01448452
0.4759997,0.01450904
0.4769997,0.01456116
0.4779997,0.01462553
0.4789997,0.0147175
0.4799997,0.01483705
0.4809997,0.014975
0.4819997,0.01512521
0.4829997,0.01529381
0.4839997,0.01547467
0.4849997,0.01568313
0.4859997,0.01589771
0.4869997,0.01612455
0.4879997,0.01637592
0.4889997,0.01662423
0.4899997,0.01688479
0.4909997,0.01716375
0.4919997,0.01743658
0.4929997,0.01772474
0.4939997,0.01801902
0.4949997,0.01831944
0.4959997,0.01862599
0.4969997,0.01894173
0.4979997,0.01925441
0.4989997,0.01958548
0.4999997,0.01991962
0.5009997,0.02023843
0.5019997,0.0205879
0.5029997,0.02091897
0.5039997,0.02125311
0.5049997,0.02161177
0.5059997,0.0219551
0.5069997,0.02230763
0.5079997,0.02267243
0.5089997,0.02302189
0.5099997,0.02339282
0.5109997,0.02375454
0.5119997,0.02411933
0.5129997,0.02449945
0.5139997,0.02487038
0.5149997,0.02522904
0.5159997,0.02562142
0.5169997,0.02598928
0.5179997,0.02636327
0.5189997,0.02676485
0.5199997,0.02712964
0.5209997,0.02751895
0.5219997,0.02792053
0.5229997,0.02829452
0.5239997,0.02869303
0.5249997,0.02908235
0.5259997,0.02946554
0.5269997,0.02986711
0.5279997,0.03102385
0.5289997,0.03139171
0.5299997,0.03179022
0.5309997,0.03218874
0.5319997,0.0326179
0.5329997,0.03301642
0.5339997,0.03341493
0.5349997,0.03381344
0.5359997,0.03424261
0.5369997,0.03464112
0.5379997,0.03503963
0.5389997,0.0354688
0.5399997,0.03586731
0.5409997,0.03629648
0.5419997,0.03672565
0.5429997,0.03715482
0.5439997,0.03755333
0.5449997,0.0379825
0.5459997,0.03841167
0.5469997,0.03884083
0.5479997,0.03927
0.5489997,0.03966851
0.5499997,0.04012834
0.5509997,0.0405575
0.5519997,0.04095602
0.5529997,0.04138518
0.5539997,0.04181435
0.5549997,0.04224352
0.5559997,0.04267269
0.5569997,0.04310185
0.5579997,0.04353102
0.5589997,0.04399084
0.5599997,0.04442001
0.5609997,0.04484918
0.5619997,0.04527835
0.5629997,0.04570751
0.5639997,0.04616734
0.5649997,0.0465965
0.5659997,0.04702567
0.5669997,0.04748549
0.5679997,0.04791466
0.5689997,0.04834383
0.5699997,0.04880365
0.5709997,0.04923282
0.5719997,0.04969264
0.5729997,0.05012181
0.5739997,0.05055097
0.5749997,0.05098015
0.5759997,0.05143997
0.5769997,0.05186913
0.5779997,0.05232896
0.5789997,0.05275812
0.5799997,0.05321795
0.5809997,0.05367777
0.5819997,0.05410693
0.5829997,0.05456676
0.5839997,0.05502658
0.5849997,0.05545575
0.5859997,0.05588492
0.5869997,0.05634474
0.5879997,0.05680456
0.5889997,0.05723373
0.5899997,0.05772421
0.5909997,0.05815337
0.5919997,0.05858254
0.5929997,0.05904236
0.5939997,0.05950218
0.5949997,0.059962
0.5959997,0.06042183
0.5969997,0.06088165
0.5979997,0.06134148
0.5989997,0.0618013
0.5999997,0.06226112
0.6009997,0.06272095
0.6019997,0.06315011
0.6029997,0.06360994
0.6039997,0.06406976
0.6049997,0.06449892
0.6059997,0.06495874
0.6069997,0.06544922
0.6079997,0.06587839
0.6089997,0.06633821
0.6099997,0.06682869
0.6109997,0.06725786
0.6119997,0.06771768
0.6129997,0.06817751
0.6139997,0.06863733
0.6149997,0.06909715
0.6159997,0.06955697
0.6169997,0.07001679
0.6179997,0.07047661
0.6189997,0.07096709
0.6199997,0.07142691
0.6209997,0.07185608
0.6219997,0.07234656
0.6229997,0.07280638
0.6239997,0.0732662
0.6249997,0.07372602
0.6259997,0.07418585
0.6269997,0.07464567
0.6279997,0.07510549
0.6289997,0.07556532
0.6299997,0.07605579
0.6309997,0.07648496
0.6319997,0.07697544
0.6329997,0.07743526
0.6339997,0.07789508
0.6349997,0.0783549
0.6359997,0.07884538
0.6369997,0.0793052
0.6379997,0.07976502
0.6389997,0.0802555
0.6399997,0.08068467
0.6409997,0.08117515
0.6419997,0.08163497
0.6429997,0.0820948
0.6439997,0.08258527
0.6449997,0.08304509
0.6459997,0.08350492
0.6469997,0.08396474
0.6479997,0.08442456
0.6489997,0.08491503
0.6499997,0.08537485
0.6509997,0.08583468
0.6519997,0.08632516
0.6529997,0.08678498
0.6539997,0.08727546
0.6549997,0.08776593
0.6559997,0.08819511
0.6569997,0.08868558
0.6579997,0.08914541
0.6589997,0.08963588
0.6599997,0.0900957
0.6609997,0.09058618
0.6619997,0.091046
0.6629997,0.09150583
0.6639997,0.0919963
0.6649997,0.09245612
0.6659997,0.0929466
0.6669997,0.09343708
0.6679997,0.09386625
0.6689997,0.09438737
0.6699997,0.09484719
0.6709997,0.09530702
0.6719997,0.0957975
0.6729997,0.09622667
0.6739997,0.09668649
0.6749997,0.09714631
0.6759997,0.09757548
0.6769997,0.09815792
0.6779997,0.0986484
0.6789997,0.09913888
0.6799997,0.09956805
0.6809997,0.1000585
0.6819997,0.1004877
0.6829997,0.1009782
0.6839997,0.101438
0.6849997,0.1019285
0.6859997,0.1024802
0.6869997,0.1029707
0.6879997,0.1033692
0.6889997,0.1038904
0.6899997,0.1043808
0.6909997,0.1048407
0.6919997,0.1053005
0.6929997,0.105791
0.6939997,0.1062201
0.6949997,0.1067413
0.6959997,0.1072011
0.6969997,0.1076916
0.6979997,0.108182
0.6989997,0.1086419
0.6999997,0.1087951
0.6990004,0.1083353
0.6980004,0.1078142
0.6970004,0.1073544
0.6960004,0.1068945
0.6950004,0.1063734
0.6940004,0.1059442
0.6930004,0.1054844
0.6920004,0.1049633
0.6910004,0.1045035
0.6900004,0.1040743
0.6890004,0.1035532
0.6880004,0.103124
0.6870004,0.1026642
0.6860004,0.102143
0.6850004,0.1017139
0.6840004,0.1012234
0.6830004,0.1007329
0.6820004,0.1002731
0.6810004,0.09978263
0.6800004,0.0993228
0.6790004,0.09886298
0.6780004,0.09837251
0.6770004,0.09794334
0.6760004,0.09745286
0.6750004,0.09699304
0.6740004,0.09653322
0.6730004,0.0960734
0.6720004,0.09555226
0.6710004,0.0951231
0.6700004,0.09463262
0.6690004,0.0941728
0.6680004,0.09374363
0.6670004,0.09325315
0.6660004,0.09276267
0.6650004,0.0923335
0.6640004,0.09184303
0.6630004,0.09135254
0.6620004,0.09089272
0.6610004,0.0904329
0.6600004,0.08994243
0.6590004,0.08948261
0.6580004,0.08902278
0.6570004,0.08856296
0.6560004,0.08810314
0.6550004,0.08761266
0.6540004,0.08715284
0.6530004,0.08669301
0.6520004,0.08623319
0.6510004,0.08577337
0.6500004,0.08528289
0.6490004,0.08482307
0.6480004,0.08436324
0.6470004,0.08387277
0.6460004,0.0834436
0.6450004,0.08298378
0.6440004,0.08249331
0.6430004,0.08206414
0.6420004,0.08157366
0.6410004,0.08111384
0.6400004,0.08068467
0.6390004,0.08022485
0.6380004,0.07970371
0.6370004,0.0793052
0.6360004,0.07881473
0.6350004,0.07832425
0.6340004,0.07789508
0.6330004,0.0774046
0.6320004,0.07694478
0.6310004,0.07651561
0.6300004,0.07602514
0.6290004,0.07556532
0.6280004,0.07513615
0.6270004,0.07464567
0.6260004,0.07421651
0.6250004,0.07375668
0.6240004,0.0732662
0.6230004,0.07280638
0.6220004,0.07237721
0.6210004,0.07188674
0.6200004,0.07142691
0.6190004,0.07096709
0.6180004,0.07050727
0.6170004,0.0700781
0.6160004,0.06958763
0.6150004,0.0691278
0.6140004,0.06869864
0.6130004,0.06820816
0.6120004,0.06774833
0.6110004,0.06731917
0.6100004,0.06685934
0.6090004,0.06636887
0.6080004,0.06597035
0.6070004,0.06547987
0.6060004,0.06502005
0.6050004,0.06459089
0.6040004,0.06410041
0.6030004,0.06367125
0.6020004,0.06324207
0.6010004,0.0627516
0.6000004,0.06232243
0.5990004,0.06186261
0.5980004,0.06140279
0.5970004,0.06097361
0.5960004,0.06051379
0.5950004,0.06005397
0.5940004,0.05959415
0.5930004,0.05913433
0.5920004,0.05870516
0.5910004,0.05824534
0.5900004,0.05781617
0.5890004,0.05735635
0.5880004,0.05689653
0.5870004,0.05646735
0.5860004,0.05600753
0.5850004,0.05554771
0.5840004,0.05511854
0.5830004,0.05465872
0.5820004,0.05422956
0.5810004,0.05376973
0.5800004,0.05330991
0.5790004,0.05288074
0.5780004,0.05242092
0.5770004,0.0519611
0.5760004,0.05153193
0.5750004,0.05110276
0.5740004,0.05067359
0.5730004,0.05021377
0.5720004,0.0497846
0.5710004,0.04932478
0.5700004,0.04889562
0.5690004,0.04846645
0.5680004,0.04803728
0.5670004,0.04760811
0.5660004,0.04714829
0.5650004,0.04671912
0.5640004,0.0462593
0.5630004,0.04583013
0.5620004,0.04537031
0.5610004,0.04494114
0.5600004,0.04451197
0.5590004,0.04408281
0.5580004,0.04365364
0.5570004,0.04322447
0.5560004,0.04276465
0.5550004,0.04233548
0.5540004,0.04193697
0.5530004,0.04147715
0.5520004,0.04104798
0.5510004,0.04061881
0.5500004,0.04018965
0.5490004,0.03976048
0.5480004,0.03933131
0.5470004,0.03890214
0.5460004,0.03847298
0.5450004,0.03804381
0.5440004,0.03761464
0.5430004,0.03718547
0.5420004,0.0367563
0.5410004,0.03632713
0.5400004,0.03592863
0.5390004,0.03549946
0.5380004,0.03507029
0.5370004,0.03467178
0.5360004,0.03424261
0.5350004,0.03381344
0.5340004,0.03341493
0.5330004,0.03298576
0.5320004,0.03255659
0.5310004,0.03215808
0.5300004,0.03172891
0.5290004,0.0313304
0.5280004,0.03093189
0.5270004,0.03050272
0.5260004,0.03010421
0.5250004,0.02967504
0.5240004,0.02927653
0.5230004,0.02887801
0.5220004,0.02844885
0.5210004,0.02805033
0.5200004,0.02765182
0.5190004,0.02725331
0.5180004,0.0268548
0.5170004,0.02645628
0.5160004,0.02602712
0.5150004,0.02565926
0.5140004,0.02526074
0.5130004,0.02486223
0.5120004,0.02446372
0.5110004,0.02406521
0.5100004,0.02366669
0.5090004,0.02329884
0.5080004,0.02290032
0.5070004,0.02250181
0.5060004,0.0221033
0.5050004,0.02173544
0.5040004,0.02133693
0.5030004,0.02096907
0.5020004,0.02060121
0.5010004,0.0202027
0.5000004,0.01983484
0.4990004,0.01946698
0.4980004,0.01909912
0.4970004,0.01873127
0.4960004,0.01836341
0.4950004,0.01799555
0.4940004,0.01762769
0.4930004,0.01725983
0.4920004,0.01689198
0.4910004,0.01655477
0.4900004,0.01615626
0.4890004,0.01581906
0.4880004,0.01548185
0.4870004,0.015114
0.4860004,0.01477679
0.4850004,0.01440894
0.4840004,0.01407173
0.4830004,0.01373453
0.4820004,0.01339733
0.4810004,0.01256246
0.4800004,0.01223752
0.4790004,0.01190645
0.4780004,0.01158151
0.4770004,0.0112627
0.4760004,0.01094082
0.4750004,0.01062201
0.4740004,0.01030933
0.4730004,0.009996655
0.4720004,0.009687042
0.4710004,0.009383559
0.4700004,0.009083142
0.4690004,0.008779659
0.4680004,0.008485372
0.4670004,0.008197217
0.4660004,0.007905996
0.4650004,0.007620906
0.4640004,0.007341947
0.4630004,0.007059923
0.4620004,0.006787095
0.4610004,0.006514267
0.4600004,0.006244505
0.4590004,0.005987004
0.4580004,0.005723373
0.4570004,0.005465872
0.4560004,0.005220633
0.4550004,0.004969264
0.4540004,0.004727091
0.4530004,0.004491049
0.4520004,0.004255007
0.4510004,0.004028161
0.4500004,0.003801315
0.4490004,0.003577535
0.4480004,0.003362951
0.4470004,0.003148367
0.4460004,0.00294298
0.4450004,0.002740658
0.4440004,0.002541402
0.4430004,0.002351342
0.4420004,0.002158216
0.4410004,0.001971222
0.4400004,0.001796489
0.4390004,0.001618691
0.4380004,0.001453156
0.4370004,0.001284554
0.4360004,0.001091936
0.4350004,0.0009398887
0.4340004,0.0007909063
0.4330004,0.0006428434
0.4320004,0.0004996854
0.4310004,0.000360819
0.4300004,0.0002265508
0.4290004,9.504164E-05
0.4280004,-3.217589E-05
0.4270004,-0.000153089
0.4260004,-0.0002708649
0.4250004,-0.0003856261
0.4240004,-0.0004916918
0.4230004,-0.0006011295
0.4220004,-0.0007022904
0.4210004,-0.0007988531
0.4200004,-0.0008963355
0.4190004,-0.0009837018
0.4180004,-0.00107444
0.4170004,-0.001160274
0.4160004,-0.001240589
0.4150004,-0.001322744
0.4140004,-0.001399075
0.4130004,-0.001473259
0.4120004,-0.001546524
0.4110004,-0.001613659
0.4100004,-0.001689069
0.4090004,-0.001759882
0.4080004,-0.001817207
0.4070004,-0.001881582
0.4060004,-0.00193768
0.4050004,-0.001995618
0.4040004,-0.002053862
0.4030004,-0.002106588
0.4020004,-0.002163299
0.4010004,-0.002216945
0.4000004,-0.002265993
0.3990004,-0.002320252
0.3980004,-0.00236838
0.3970004,-0.002418348
0.3960004,-0.002469541
0.3950004,-0.002514604
0.3940004,-0.002563958
0.3930004,-0.002612699
0.3920004,-0.002658681
0.3910004,-0.002706809
0.3900004,-0.002753098
0.3890004,-0.002800307
0.3880004,-0.002846289
0.3870004,-0.002890125
0.3860004,-0.002941319
0.3850004,-0.002985462
0.3840004,-0.003030218
0.3830004,-0.003046973
0.3820004,-0.003089889
0.3810004,-0.003135872
0.3800004,-0.003187985
0.3790004,-0.003230902
0.3780004,-0.003283015
0.3770004,-0.003335128
0.3760004,-0.00338111
0.3750004,-0.003433224
0.3740004,-0.003482271
0.3730004,-0.003534385
0.3720004,-0.003589563
0.3710004,-0.003641677
0.3700004,-0.003696855
0.3690004,-0.003748968
0.3680004,-0.003801082
0.3670004,-0.003862391
0.3660004,-0.003914505
0.3650004,-0.003972749
0.3640004,-0.004034058
0.3630004,-0.004089237
0.3620004,-0.004150547
0.3610004,-0.004214922
0.3600004,-0.004270101
0.3590004,-0.004337541
0.3580004,-0.004401916
0.3570004,-0.004466291
0.3560004,-0.004530666
0.3550004,-0.004595041
0.3540004,-0.004662482
0.3530004,-0.004732988
0.3520004,-0.004803495
0.3510004,-0.004874
0.3500004,-0.004947572
0.3490004,-0.005018078
0.3480004,-0.00509165
0.3470004,-0.005162156
0.3460004,-0.005241858
0.3450004,-0.005318495
0.3440004,-0.005395133
0.3430004,-0.005474835
0.3420004,-0.005554538
0.3410004,-0.00563424
0.3400004,-0.005717008
0.3390004,-0.005799776
0.3380004,-0.005882544
0.3370004,-0.005968377
0.3360004,-0.006054211
0.3350004,-0.00614311
0.3340004,-0.006225878
0.3330004,-0.006317842
0.3320004,-0.006409807
0.3310004,-0.006495641
0.3300004,-0.006590671
0.3290004,-0.006682635
0.3280004,-0.006774599
0.3270004,-0.006872695
0.3260004,-0.006964659
0.3250004,-0.00705969
0.3240004,-0.007160851
0.3230004,-0.007252815
0.3220004,-0.007357041
0.3210004,-0.007455137
0.3200004,-0.007553232
0.3190004,-0.007657459
0.3180004,-0.007755554
0.3170004,-0.007856715
0.3160004,-0.007964007
0.3150004,-0.008062102
0.3140004,-0.008169394
0.3130004,-0.008276686
0.3120004,-0.008374781
0.3110004,-0.008488204
0.3100004,-0.008592431
0.3090004,-0.008699723
0.3080004,-0.008807015
0.3070004,-0.008923503
0.3060004,-0.009030795
0.3050004,-0.009138087
0.3040004,-0.009245379
0.3030004,-0.009355736
0.3020004,-0.009466094
0.3010004,-0.009579516
0.3000004,-0.009689873
0.2990004,-0.009797165
0.2980004,-0.009910588
0.2970004,-0.01002095
0.2960004,-0.0101313
0.2950004,-0.01024779
0.2940004,-0.01035815
0.2930004,-0.01046851
0.2920004,-0.010585
0.2910004,-0.01069229
0.2900004,-0.01080571
0.2890004,-0.01091913
0.2880004,-0.01102949
0.2870004,-0.01114904
0.2860004,-0.0112594
0.2850004,-0.01136669
0.2840004,-0.01148012
0.2830004,-0.01158741
0.2820004,-0.01169163
0.2810004,-0.01179893
0.2800004,-0.01190009
0.2790004,-0.01200125
0.2780004,-0.01209628
0.2770004,-0.01218824
0.2760004,-0.01227408
0.2750004,-0.01235378
0.2740004,-0.01242735
0.2730004,-0.01248253
0.2720004,-0.01254077
0.2710004,-0.01257756
0.2700004,-0.01259595
0.2690004,-0.01261128
0.2680004,-0.01258982
0.2670004,-0.01253771
0.2660004,-0.0124672
0.2650004,-0.01234765
0.2640004,-0.01218824
0.2630004,-0.01199512
0.2620004,-0.01174681
0.2610004,-0.01146172
0.2600004,-0.01114598
0.2590004,-0.01080264
0.2580004,-0.01044092
0.2570004,-0.01009145
0.2560004,-0.009745052
0.2550004,-0.009398652
0.2540004,-0.009085974
0.2530004,-0.008770229
0.2520004,-0.008488204
0.2510004,-0.008221507
0.2500004,-0.007964007
0.2490004,-0.007737161
0.2480004,-0.007525643
0.2470004,-0.007320256
0.2460004,-0.007136327
0.2450004,-0.006967725
0.2440004,-0.006789927
0.2430004,-0.006642784
0.2420004,-0.006498706
0.2410004,-0.006348498
0.2400004,-0.006225878
0.2390004,-0.006094063
0.2380004,-0.005968377
0.2370004,-0.005858021
0.2360004,-0.005741532
0.2350004,-0.00563424
0.2340004,-0.005533079
0.2330004,-0.005428853
0.2320004,-0.005333823
0.2310004,-0.005247989
0.2300004,-0.005149893
0.2290004,-0.005067126
0.2280004,-0.004984358
0.2270004,-0.004898524
0.2260004,-0.004828018
0.2250004,-0.004748316
0.2240004,-0.004671679
0.2230004,-0.004607304
0.2220004,-0.004533732
0.2210004,-0.004463226
0.2200004,-0.004401916
0.2190004,-0.004334475
0.2180004,-0.004273166
0.2170004,-0.004214922
0.2160004,-0.004150547
0.2150004,-0.004092303
0.2140004,-0.004037124
0.2130004,-0.00397888
0.2120004,-0.003923701
0.2110004,-0.003874653
0.2100004,-0.003819474
0.2090004,-0.003770427
0.2080004,-0.003721379
0.2070004,-0.003669266
0.2060004,-0.003623284
0.2050004,-0.003574236
0.2040004,-0.003528254
0.2030004,-0.003482271
0.2020004,-0.003436289
0.2010004,-0.003393373
0.2000004,-0.00334739
0.1990004,-0.003304473
0.1980004,-0.003258491
0.1970004,-0.003215575
0.1960004,-0.003169592
0.1950004,-0.00312361
0.1940004,-0.003080693
0.1930004,-0.003031645
0.1920004,-0.002991794
0.1910004,-0.002948877
0.1900004,-0.002909026
0.1890004,-0.00287224
0.1880004,-0.002835455
0.1870004,-0.002795603
0.1860004,-0.002764949
0.1850004,-0.002728163
0.1840004,-0.002694442
0.1830004,-0.002663787
0.1820004,-0.002633133
0.1810004,-0.002602478
0.1800004,-0.002574889
0.1790004,-0.002544234
0.1780004,-0.00251971
0.1770004,-0.00249212
0.1760004,-0.002464531
0.1750004,-0.002436942
0.1740004,-0.002412418
0.1730004,-0.002387894
0.1720004,-0.00236337
0.1710004,-0.002341912
0.1700004,-0.002317388
0.1690004,-0.00229593
0.1680004,-0.002271406
0.1670004,-0.002249948
0.1660004,-0.002231555
0.1650004,-0.002210096
0.1640004,-0.002188638
0.1630004,-0.002170245
0.1620004,-0.002148786
0.1610004,-0.002130394
0.1600004,-0.002112001
0.1590004,-0.002090542
0.1580004,-0.002075215
0.1570004,-0.002056822
0.1560004,-0.002038429
0.1550004,-0.002020036
0.1540004,-0.002004709
0.1530004,-0.001986316
0.1520004,-0.001970988
0.1510004,-0.001955661
0.1500004,-0.001937268
0.1490004,-0.001921941
0.1480004,-0.001906613
0.1470004,-0.001891286
0.1460004,-0.001875959
0.1450004,-0.001860631
0.1440004,-0.001848369
0.1430004,-0.001833042
0.1420004,-0.001817714
0.1410004,-0.001805453
0.1400004,-0.001790125
0.1390004,-0.001777863
0.1380004,-0.001765601
0.1370004,-0.001750274
0.1360004,-0.001738012
0.1350004,-0.00172575
0.1340004,-0.001713488
0.1330004,-0.001698161
0.1320004,-0.001688964
0.1310004,-0.001673637
0.1300004,-0.001661375
0.1290004,-0.001652178
0.1280004,-0.001639916
0.1270004,-0.001627655
0.1260004,-0.001615393
0.1250004,-0.001640941
0.1240004,-0.001630519
0.1230004,-0.001619483
0.1220004,-0.001608754
0.1210004,-0.001598331
0.1200004,-0.001587908
0.1190004,-0.001577486
0.1180004,-0.00156737
0.1170004,-0.001557254
0.1160004,-0.001547444
0.1150004,-0.001537328
0.1140004,-0.001527825
0.1130004,-0.001518015
0.1120004,-0.001508512
0.1110004,-0.001499622
0.1100004,-0.001489813
0.1090004,-0.001480923
0.1080004,-0.00147234
0.1070004,-0.001463143
0.1060004,-0.00145456
0.1050004,-0.001445977
0.1040004,-0.001437087
0.1030004,-0.00142881
0.1020004,-0.001420533
0.1010004,-0.001412256
0.1000004,-0.001403979
0.09900038,-0.001395703
0.09800038,-0.001387732
0.09700038,-0.001380069
0.09600038,-0.001372098
0.09500038,-0.001364741
0.09400038,-0.001356771
0.09300038,-0.001348801
0.09200038,-0.00134175
0.09100038,-0.001334087
0.09000038,-0.001326729
0.08900038,-0.001319679
0.08800038,-0.001312015
0.08700038,-0.001305271
0.08600038,-0.00129822
0.08500038,-0.00129117
0.08400038,-0.001284119
0.08300038,-0.001277375
0.08200038,-0.001270631
0.08100038,-0.001263887
0.08000038,-0.001257143
0.07900038,-0.001250705
0.07800038,-0.001243961
0.07700038,-0.00123783
0.07600038,-0.001231393
0.07500038,-0.001224955
0.07400038,-0.001218824
0.07300038,-0.001212387
0.07200038,-0.001206256
0.07100038,-0.001200125
0.07000038,-0.001193994
0.06900038,-0.001187863
0.06800038,-0.001182038
0.06700038,-0.001176214
0.06600038,-0.001170696
0.06500039,-0.001164565
0.06400038,-0.001158741
0.06300038,-0.001153223
0.06200038,-0.001147092
0.06100038,-0.001141881
0.06000038,-0.001136363
0.05900038,-0.001130538
0.05800038,-0.001125021
0.05700038,-0.001119809
0.05600038,-0.001113985
0.05500038,-0.00110908
0.05400038,-0.001103256
0.05300038,-0.001097738
0.05200038,-0.001092833
0.05100038,-0.001087315
0.05000038,-0.001082104
0.04900038,-0.001076892
0.04800038,-0.001071681
0.04700038,-0.00106647
0.04600038,-0.001061258
0.04500038,-0.001056354
0.04400038,-0.001051449
0.04300038,-0.001046544
0.04200038,-0.001041333
0.04100038,-0.001036122
0.04000038,-0.001031523
0.03900038,-0.001026312
0.03800038,-0.001021407
0.03700038,-0.001016809
0.03600038,-0.001011904
0.03500038,-0.001006999
0.03400038,-0.001002095
0.03300038,-0.0009971899
0.03200038,-0.0009925916
0.03100038,-0.0009876869
0.03000038,-0.0009830886
0.02900038,-0.0009784905
0.02800038,-0.0009735856
0.02700038,-0.0009689874
0.02600038,-0.0009643892
0.02500038,-0.000959791
0.02400038,-0.0009551927
0.02300038,-0.0009505945
0.02200038,-0.0009459963
0.02100038,-0.0009417046
0.02000038,-0.0009367999
0.01900038,-0.0009325081
0.01800038,-0.0009282165
0.01700038,-0.0009236183
0.01600038,-0.0009193266
0.01500038,-0.0009150349
0.01400038,-0.0009104367
0.01300038,-0.0009064515
0.01200038,-0.0009021599
0.01100038,-0.0008978682
0.01000038,-0.0008938831
0.009000381,-0.000889898
0.008000381,-0.0008852997
0.007000382,-0.0008813146
0.006000381,-0.0008773295
0.005000381,-0.0008730378
0.004000382,-0.0008690527
0.003000381,-0.0008650676
0.002000381,-0.0008610824
0.001000381,-0.0008574039
3.814697E-07,-0.0008460616
0.0009996186,-0.0008264424
0.001999618,-0.0008089693
0.002999618,-0.0007927222
0.003999618,-0.0007773947
0.004999619,-0.0007632935
0.005999619,-0.000750112
0.006999618,-0.0007372369
0.007999619,-0.000724975
0.008999619,-0.0007133262
0.009999619,-0.0007022904
0.01099962,-0.0006912547
0.01199962,-0.0006808321
0.01299962,-0.0006707159
0.01399962,-0.000661213
0.01499962,-0.00065171
0.01599962,-0.00064282
0.01699962,-0.0006336236
0.01799962,-0.0006250403
0.01899962,-0.00061707
0.01999962,-0.0006087932
0.02099962,-0.000600823
0.02199962,-0.0005931592
0.02299962,-0.0005858021
0.02399962,-0.0005784449
0.02499962,-0.0005713943
0.02599962,-0.0005643437
0.02699962,-0.0005572931
0.02799962,-0.000550549
0.02899962,-0.0005441115
0.02999962,-0.000537674
0.03099962,-0.0005312365
0.03199962,-0.0005251055
0.03299962,-0.0005189746
0.03399962,-0.0005131501
0.03499962,-0.0005073257
0.03599962,-0.0005015013
0.03699962,-0.0004959835
0.03799962,-0.0004904656
0.03899962,-0.0004849477
0.03999962,-0.0004794298
0.04099962,-0.0004742185
0.04199962,-0.0004690072
0.04299962,-0.0004637959
0.04399962,-0.0004588911
0.04499962,-0.0004536798
0.04599962,-0.0004490816
0.04699962,-0.0004441768
0.04799962,-0.0004395786
0.04899962,-0.0004346738
0.04999962,-0.0004303821
0.05099962,-0.0004257839
0.05199962,-0.0004211857
0.05299962,-0.000416894
0.05399962,-0.0004122957
0.05499962,-0.0004080041
0.05599962,-0.0004037124
0.05699962,-0.0003994207
0.05799962,-0.0003951291
0.05899962,-0.0003911439
0.05999962,-0.0003871588
0.06099962,-0.0003831737
0.06199962,-0.0003791885
0.06299962,-0.0003752034
0.06399962,-0.0003715248
0.06499962,-0.0003678463
0.06599962,-0.0003638611
0.06699962,-0.0003601825
0.06799962,-0.000356504
0.06899962,-0.0003528254
0.06999962,-0.0003494534
0.07099961,-0.0003457748
0.07199962,-0.0003424028
0.07299962,-0.0003387242
0.07399962,-0.0003353521
0.07499962,-0.0003319801
0.07599962,-0.0003286081
0.07699962,-0.000325236
0.07799962,-0.000321864
0.07899962,-0.0003187985
0.07999962,-0.0003154265
0.08099962,-0.000312361
0.08199961,-0.0003092955
0.08299962,-0.00030623
0.08399962,-0.0003031646
0.08499962,-0.0003000991
0.08599962,-0.0002970336
0.08699962,-0.0002939681
0.08799962,-0.0002909026
0.08899962,-0.0002881437
0.08999962,-0.0002850782
0.09099962,-0.0002823193
0.09199962,-0.0002795603
0.09299962,-0.0002768014
0.09399962,-0.0002740425
0.09499962,-0.0002712836
0.09599962,-0.0002685246
0.09699962,-0.0002657657
0.09799962,-0.0002633133
0.09899962,-0.0002605543
0.09999962,-0.0002577954
0.1009996,-0.000255343
0.1019996,-0.0002525841
0.1029996,-0.0002501317
0.1039996,-0.0002476793
0.1049996,-0.0002449204
0.1059996,-0.000242468
0.1069996,-0.0002400156
0.1079996,-0.0002375632
0.1089996,-0.0002354174
0.1099996,-0.000232965
0.1109996,-0.0002305126
0.1119996,-0.0002280602
0.1129996,-0.0002259144
0.1139996,-0.000223462
0.1149996,-0.0002213162
0.1159996,-0.0002188638
0.1169996,-0.0002167179
0.1179996,-0.0002145721
0.1189996,-0.0002124263
0.1199996,-0.0002099739
0.1209996,-0.0002078281
0.1219996,-0.0002056822
0.1229996,-0.0002035364
0.1239996,-0.0002013905
0.1249996,-0.0001995512
0.1259996,-0.0001974054
0.1269996,-0.0001952596
0.1279996,-0.0001934203
0.1289996,-0.0001912744
0.1299996,-0.0001894352
0.1309996,-0.0001875959
0.1319996,-0.00018545
0.1329996,-0.0001836107
0.1339996,-0.0001817715
0.1349996,-0.0001796256
0.1359996,-0.0001777863
0.1369996,-0.000175947
0.1379996,-0.0001741077
0.1389996,-0.0001722685
0.1399996,-0.0001704292
0.1409996,-0.0001685899
0.1419996,-0.0001667506
0.1429996,-0.0001649113
0.1439996,-0.000163072
0.1449996,-0.0001615393
0.1459996,-0.0001597
0.1469996,-0.0001612432
0.1479996,-0.0001594959
0.1489996,-0.0001578405
0.1499996,-0.0001561239
0.1509996,-0.0001544378
0.1519996,-0.0001528744
0.1529996,-0.0001511578
0.1539996,-0.0001495024
0.1549996,-0.000147939
0.1559996,-0.000146253
0.1569996,-0.0001446896
0.1579996,-0.0001431569
0.1589996,-0.0001416241
0.1599996,-0.0001400607
0.1609996,-0.0001385587
0.1619996,-0.0001370259
0.1629996,-0.0001354932
0.1639996,-0.0001340217
0.1649996,-0.000132489
0.1659996,-0.0001309869
0.1669996,-0.0001294848
0.1679996,-0.0001281054
0.1689996,-0.0001266646
0.1699996,-0.0001251625
0.1709996,-0.000123783
0.1719996,-0.0001223116
0.1729996,-0.0001208708
0.1739996,-0.0001194607
0.1749996,-0.0001181119
0.1759996,-0.0001167018
0.1769996,-0.000115353
0.1779996,-0.0001139735
0.1789996,-0.0001127166
0.1799996,-0.0001113372
0.1809996,-0.0001100803
0.1819996,-0.0001087622
0.1829996,-0.0001074133
0.1839996,-0.0001061565
0.1849996,-0.0001049303
0.1859996,-0.0001036121
0.1869996,-0.0001024166
0.1879996,-0.0001011291
0.1889996,-9.990291E-05
0.1899996,-9.867671E-05
0.1909996,-9.741987E-05
0.1919996,-9.622433E-05
0.1929996,-9.505945E-05
0.1939996,-9.386391E-05
0.1949996,-9.263772E-05
0.1959996,-9.147283E-05
0.1969996,-9.03386E-05
0.1979996,-8.908175E-05
0.1989996,-8.788622E-05
0.1999996,-8.669068E-05
0.2009996,-8.55258E-05
0.2019996,-8.426895E-05
0.2029996,-8.322668E-05
0.2039996,-8.20618E-05
0.2049996,-8.095823E-05
0.2059996,-7.9824E-05
0.2069996,-7.872043E-05
0.2079996,-7.761685E-05
0.2089996,-7.651328E-05
0.2099996,-7.540971E-05
0.2109996,-7.436744E-05
0.2119996,-7.326387E-05
0.2129996,-7.216029E-05
0.2139996,-7.117933E-05
0.2149996,-7.010641E-05
0.2159996,-6.900284E-05
0.2169996,-6.799123E-05
0.2179996,-6.691832E-05
0.2189996,-6.593736E-05
0.2199996,-6.483379E-05
0.2209996,-6.382218E-05
0.2219996,-6.287188E-05
0.2229996,-6.17683E-05
0.2239996,-6.075669E-05
0.2249996,-5.974509E-05
0.2259996,-5.873348E-05
0.2269996,-5.766056E-05
0.2279996,-5.652633E-05
0.2289996,-5.554538E-05
0.2299996,-5.462573E-05
0.2309996,-5.358347E-05
0.2319996,-5.257186E-05
0.2329996,-5.159091E-05
0.2339996,-5.05793E-05
0.2349996,-4.965965E-05
0.2359996,-4.864804E-05
0.2369996,-4.766709E-05
0.2379996,-4.665548E-05
0.2389996,-4.558256E-05
0.2399996,-4.457095E-05
0.2409996,-4.358999E-05
0.2419996,-4.257839E-05
0.2429996,-4.156677E-05
0.2439996,-4.055517E-05
0.2449996,-3.960487E-05
0.2459996,-3.865457E-05
0.2469996,-3.76123E-05
0.2479996,-3.675397E-05
0.2489996,-3.568105E-05
0.2499996,-3.460813E-05
0.2509996,-3.362718E-05
0.2519996,-3.25236E-05
0.2529996,-3.148134E-05
0.2539996,-3.056169E-05
0.2549996,-2.948877E-05
0.2559996,-2.847716E-05
0.2569996,-2.746556E-05
0.2579996,-2.645395E-05
0.2589996,-2.541168E-05
0.2599996,-2.436942E-05
0.2609996,-2.32965E-05
0.2619996,-2.222358E-05
0.2629996,-2.108935E-05
0.2639996,-1.998578E-05
0.2649996,-1.891286E-05
0.2659996,-1.777863E-05
0.2669996,-1.673637E-05
0.2679996,-1.551017E-05
0.2689996,-1.443726E-05
0.2699996,-1.339499E-05
0.2709996,-1.246414E-05
0.2719996,-1.136976E-05
0.2729996,-1.025699E-05
0.2739996,-9.101301E-06
0.2749996,-7.921089E-06
0.2759996,-6.65198E-06
0.2769996,-5.441115E-06
0.2779996,-4.248642E-06
0.2789996,-2.924354E-06
0.2799996,-1.636851E-06
0.2809996,-3.86134E-07
0.2819996,9.473508E-07
0.2829996,2.231788E-06
0.2839996,3.687892E-06
0.2849996,5.085752E-06
0.2859996,6.425368E-06
0.2869996,7.909061E-06
0.2879996,9.337577E-06
0.2889996,1.078755E-05
0.2899996,1.233255E-05
0.2909996,1.379479E-05
0.2919996,1.54011E-05
0.2929996,1.695837E-05
0.2939996,1.858307E-05
0.2949996,2.020778E-05
0.2959996,2.184475E-05
0.2969996,2.355835E-05
0.2979996,2.565926E-05
0.2989996,2.734527E-05
0.2999996,2.924587E-05
0.3009996,3.102385E-05
0.3019996,3.29551E-05
0.3029996,3.500898E-05
0.3039996,3.684827E-05
0.3049996,3.902476E-05
0.3059996,4.113995E-05
0.3069996,4.331644E-05
0.3079996,4.558489E-05
0.3089996,4.782269E-05
0.3099996,5.012181E-05
0.3109996,5.266616E-05
0.3119996,5.511854E-05
0.3129996,5.763223E-05
0.3139996,6.042183E-05
0.3149996,6.30888E-05
0.3159996,6.597035E-05
0.3169996,6.894387E-05
0.3179996,7.194804E-05
0.3189996,7.51668E-05
0.3199996,7.841621E-05
0.3209996,8.184955E-05
0.3219996,8.552813E-05
0.3229996,8.91454E-05
0.3239996,9.322249E-05
0.3249996,9.736089E-05
0.3259996,0.0001015912
0.3269996,0.0001061895
0.3279996,0.000110941
0.3289996,0.0001160297
0.3299996,0.0001215475
0.3309996,0.0001271574
0.3319996,0.0001335336
0.3329996,0.0001400937
0.3339996,0.000147175
0.3349996,0.000154992
0.3359996,0.0001634833
0.3369996,0.0001726798
0.3379996,0.0001828265
0.3389996,0.0001939849
0.3399996,0.0002066453
0.3409996,0.0002203787
0.3419996,0.0002358287
0.3429996,0.0002535166
0.3439996,0.0002729517
0.3449996,0.000295483
0.3459996,0.0003243398
0.3469996,0.0003528487
0.3479996,0.0003862625
0.3489996,0.0004242745
0.3499996,0.0004681109
0.3509996,0.0005186913
0.3519996,0.0005772421
0.3529996,0.0006459089
0.3539996,0.0007253049
0.3549996,0.0008184955
0.3559996,0.000929466
0.3569996,0.001058216
0.3579996,0.00121149
0.3589996,0.001392354
0.3599996,0.001600194
0.3609996,0.001839301
0.3619996,0.002105385
0.3629996,0.002392621
0.3639996,0.002700395
0.3649996,0.003019206
0.3659996,0.003372148
0.3669996,0.003706285
0.3679996,0.004040423
0.3689996,0.004377626
0.3699996,0.004711763
0.3709996,0.005042835
0.3719996,0.005376973
0.3729996,0.005695784
0.3739996,0.006014594
0.3749996,0.006330338
0.3759996,0.006633821
0.3769996,0.006937304
0.3779996,0.00723159
0.3789996,0.007519746
0.3799996,0.007804835
0.3809996,0.008080728
0.3819996,0.008353557
0.3829996,0.008623319
0.3839996,0.00888695
0.3849996,0.009147516
0.3859996,0.009408083
0.3869996,0.009665583
0.3879996,0.009923084
0.3889996,0.01017445
0.3899996,0.01042582
0.3909996,0.01068026
0.3919996,0.01092243
0.3929996,0.01117687
0.3939996,0.0114221
0.3949996,0.01166121
0.3959996,0.01191258
0.3969996,0.01214862
0.3979996,0.01239386
0.3989996,0.0126391
0.3999996,0.01287208
0.4009996,0.01311425
0.4019996,0.01335029
0.4029996,0.01358327
0.4039996,0.01381931
0.4049996,0.01404922
0.4059996,0.01427607
0.4069996,0.01450904
0.4079996,0.01472669
0.4089996,0.0149566
0.4099996,0.01519265
0.4109996,0.01540417
0.4119996,0.01562182
0.4129996,0.01583027
0.4139996,0.01603566
0.4149996,0.01624411
0.4159996,0.01644336
0.4169996,0.01663955
0.4179996,0.01683268
0.4189996,0.01701968
0.4199996,0.0172036
0.4209996,0.01737834
0.4219996,0.01755
0.4229996,0.01771247
0.4239996,0.01786268
0.4249996,0.01801596
0.4259996,0.0181539
0.4269996,0.01828265
0.4279996,0.01841141
0.4289996,0.01852176
0.4299996,0.01862905
0.4309996,0.01872408
0.4319996,0.01880072
0.4329996,0.01888042
0.4339996,0.01893867
0.4349996,0.01897852
0.4359996,0.0190245
0.4369996,0.01904596
0.4379996,0.01905209
0.4389996,0.01905822
0.4399996,0.01903983
0.4409996,0.01900917
0.4419996,0.01897239
0.4429996,0.01892334
0.4439996,0.01884977
0.4449996,0.01877313
0.4459996,0.0186781
0.4469996,0.01856774
0.4479996,0.01845125
0.4489996,0.01831944
0.4499996,0.01817843
0.4509996,0.01803128
0.4519996,0.01786881
0.4529996,0.01770021
0.4539996,0.01752242
0.4549996,0.01733542
0.4559996,0.01714229
0.4569996,0.01695223
0.4579996,0.01674685
0.4589996,0.01654452
0.4599996,0.01634833
0.4609996,0.01614601
0.4619996,0.01594676
0.4629996,0.01576283
0.4639996,0.0155697
0.4649996,0.01539803
0.4659996,0.01523863
0.4669996,0.01508229
0.4679996,0.01495047
0.4689996,0.01483092
0.4699996,0.01472669
0.4709996,0.01465006
0.4719996,0.01458875
0.4729996,0.0145489
0.4739996,0.0145397
0.4749996,0.01454583
0.4759996,0.01457649
0.4769996,0.0146286
0.4779996,0.0146991
0.4789996,0.01479107
0.4799996,0.01491369
0.4809996,0.01505163
0.4819996,0.01520184
0.4829996,0.01537351
0.4839996,0.01556357
0.4849996,0.0157567
0.4859996,0.01597741
0.4869996,0.01620426
0.4879996,0.01644336
0.4889996,0.01670393
0.4899996,0.0169553
0.4909996,0.01723119
0.4919996,0.01750709
0.4929996,0.01778911
0.4939996,0.01808646
0.4949996,0.01838075
0.4959996,0.0186873
0.4969996,0.01900304
0.4979996,0.01931266
0.4989996,0.01964679
0.4999996,0.01997174
0.5009996,0.02029361
0.5019996,0.02064001
0.5029996,0.02098028
0.5039996,0.02130216
0.5049996,0.02166388
0.5059996,0.02201028
0.5069996,0.02235055
0.5079996,0.02272454
0.5089996,0.02306787
0.5099996,0.0234296
0.5109996,0.02380972
0.5119996,0.02416532
0.5129996,0.0245393
0.5139996,0.02490716
0.5149996,0.02526889
0.5159996,0.02565514
0.5169996,0.026023
0.5179996,0.02639392
0.5189996,0.02678937
0.5199996,0.02715109
0.5209996,0.02754041
0.5219996,0.02793279
0.5229996,0.02830678
0.5239996,0.0286961
0.5249996,0.02909768
0.5259996,0.02947473
0.5269996,0.02987324
0.5279996,0.03102385
0.5289996,0.03139171
0.5299996,0.03179022
0.5309996,0.03218874
0.5319996,0.03258725
0.5329996,0.03301642
0.5339996,0.03341493
0.5349996,0.03381344
0.5359996,0.03424261
0.5369996,0.03464112
0.5379996,0.03503963
0.5389996,0.0354688
0.5399996,0.03586731
0.5409996,0.03626583
0.5419996,0.036695
0.5429996,0.03712416
0.5439996,0.03752267
0.5449996,0.03795184
0.5459996,0.03838101
0.5469996,0.03881018
0.5479996,0.03923934
0.5489996,0.03963786
0.5499996,0.04006703
0.5509996,0.04052685
0.5519996,0.04092536
0.5529996,0.04135453
0.5539996,0.0417837
0.5549996,0.04221286
0.5559996,0.04264203
0.5569996,0.0430712
0.5579996,0.04346971
0.5589996,0.04392953
0.5599996,0.0443587
0.5609996,0.04478787
0.5619996,0.04521704
0.5629996,0.0456462
0.5639996,0.04607537
0.5649996,0.04653519
0.5659996,0.04696436
0.5669996,0.04739353
0.5679996,0.04785335
0.5689996,0.04825186
0.5699996,0.04871169
0.5709996,0.04914085
0.5719996,0.04960068
0.5729996,0.05002984
0.5739996,0.05045901
0.5749996,0.05088818
0.5759996,0.051348
0.5769996,0.05180782
0.5779996,0.05223699
0.5789996,0.05266616
0.5799996,0.05312598
0.5809996,0.05355515
0.5819996,0.05401497
0.5829996,0.0544748
0.5839996,0.05490396
0.5849996,0.05536379
0.5859996,0.05579295
0.5869996,0.05622212
0.5879996,0.0567126
0.5889996,0.05714176
0.5899996,0.05760158
0.5909996,0.05803075
0.5919996,0.05849057
0.5929996,0.05891975
0.5939996,0.05937957
0.5949996,0.05983939
0.5959996,0.06026856
0.5969996,0.06072838
0.5979996,0.0611882
0.5989996,0.06164802
0.5999996,0.06210784
0.6009996,0.06256767
0.6019996,0.06299683
0.6029996,0.06345665
0.6039996,0.06391648
0.6049996,0.06434565
0.6059996,0.06483613
0.6069996,0.06526529
0.6079996,0.06572511
0.6089996,0.06618494
0.6099996,0.06664476
0.6109996,0.06710459
0.6119996,0.06756441
0.6129996,0.06799357
0.6139996,0.06845339
0.6149996,0.06894387
0.6159996,0.06937304
0.6169996,0.06986352
0.6179996,0.07032334
0.6189996,0.07078316
0.6199996,0.07124298
0.6209996,0.07170281
0.6219996,0.07213198
0.6229996,0.07262245
0.6239996,0.07308228
0.6249996,0.0735421
0.6259996,0.07403257
0.6269996,0.07446174
0.6279996,0.07492156
0.6289996,0.07541204
0.6299996,0.07584121
0.6309996,0.07633169
0.6319996,0.07679151
0.6329996,0.07725133
0.6339996,0.07774181
0.6349996,0.07820163
0.6359996,0.07866146
0.6369996,0.07912128
0.6379996,0.07961175
0.6389996,0.08004092
0.6399996,0.08050074
0.6409996,0.08099122
0.6419996,0.08142038
0.6429996,0.0818802
0.6439996,0.08237069
0.6449996,0.08283051
0.6459996,0.08329033
0.6469996,0.08375015
0.6479996,0.08424063
0.6489996,0.08470046
0.6499996,0.08516028
0.6509996,0.0856201
0.6519996,0.08611058
0.6529996,0.08653974
0.6539996,0.08703022
0.6549996,0.08755135
0.6559996,0.08798052
0.6569996,0.088471
0.6579996,0.08899213
0.6589996,0.08939064
0.6599996,0.08988111
0.6609996,0.09034094
0.6619996,0.09080076
0.6629996,0.09129124
0.6639996,0.09175106
0.6649996,0.09221088
0.6659996,0.09270137
0.6669996,0.09319184
0.6679996,0.09365166
0.6689996,0.09414214
0.6699996,0.09460196
0.6709996,0.09506179
0.6719996,0.09555226
0.6729996,0.09604274
0.6739996,0.09650256
0.6749996,0.09699304
0.6759996,0.0974222
0.6769996,0.09788202
0.6779996,0.09840316
0.6789996,0.09886298
0.6799996,0.09929215
0.6809996,0.09981328
0.6819996,0.1002731
0.6829996,0.1007023
0.6839996,0.1012234
0.6849996,0.1017139
0.6859996,0.1021737
0.6869996,0.1026642
0.6879996,0.103124
0.6889996,0.1035838
0.6899996,0.1040743
0.6909996,0.1045341
0.6919996,0.1050246
0.6929996,0.1055151
0.6939996,0.1059749
0.6949996,0.1064654
0.6959996,0.1069558
0.6969996,0.107385
0.6979996,0.1079062
0.6989996,0.108366
0.6999996,0.1084886
0.6990005,0.1080288
0.6980005,0.1075383
0.6970005,0.1070785
0.6960005,0.1066186
0.6950005,0.1061282
0.6940005,0.1056683
0.6930005,0.1051779
0.6920004,0.1046874
0.6910005,0.1042582
0.6900005,0.1037678
0.6890005,0.1032773
0.6880005,0.1028481
0.6870005,0.1023576
0.6860005,0.1018978
0.6850005,0.101438
0.6840005,0.1009475
0.6830005,0.100457
0.6820005,0.1000279
0.6810005,0.09953739
0.6800005,0.09907757
0.6790005,0.09861775
0.6780005,0.09812727
0.6770005,0.0976981
0.6760005,0.09720763
0.6750005,0.09671714
0.6740005,0.09628798
0.6730005,0.0957975
0.6720005,0.09533768
0.6710005,0.09490851
0.6700005,0.09441803
0.6690005,0.09395821
0.6680005,0.09349839
0.6670005,0.09300791
0.6660005,0.09254809
0.6650005,0.09205761
0.6640005,0.09162845
0.6630005,0.09113797
0.6620005,0.0907088
0.6610005,0.09021832
0.6600005,0.0897585
0.6590005,0.08929868
0.6580005,0.0888082
0.6570005,0.08834838
0.6560005,0.08785789
0.6550004,0.08739807
0.6540005,0.08693825
0.6530005,0.08644778
0.6520005,0.08601861
0.6510005,0.08555879
0.6500005,0.08509897
0.6490005,0.08463915
0.6480005,0.08414867
0.6470005,0.08368885
0.6460005,0.08322902
0.6450005,0.0827692
0.6440005,0.08230938
0.6430005,0.08184955
0.6420005,0.08138973
0.6410004,0.08092991
0.6400005,0.08050074
0.6390005,0.08001027
0.6380005,0.07955044
0.6370005,0.07909062
0.6360005,0.07860014
0.6350005,0.07817098
0.6340005,0.0776805
0.6330005,0.07725133
0.6320005,0.07676085
0.6310005,0.07630103
0.6300005,0.07587186
0.6290005,0.07541204
0.6280005,0.07492156
0.6270005,0.07449239
0.6260005,0.07403257
0.6250005,0.0735421
0.6240005,0.07311293
0.6230005,0.07262245
0.6220005,0.07216263
0.6210005,0.07173347
0.6200005,0.07124298
0.6190005,0.07081382
0.6180004,0.07038464
0.6170005,0.06989417
0.6160005,0.06943435
0.6150005,0.06897452
0.6140005,0.06848405
0.6130005,0.06805488
0.6120005,0.06759506
0.6110005,0.06713524
0.6100005,0.06670607
0.6090005,0.0662156
0.6080005,0.06578642
0.6070005,0.0653266
0.6060005,0.06486678
0.6050005,0.06440695
0.6040004,0.06397779
0.6030005,0.06351797
0.6020005,0.0630888
0.6010005,0.06262898
0.6000005,0.06216915
0.5990005,0.06173999
0.5980005,0.06124951
0.5970005,0.06082034
0.5960005,0.06036052
0.5950005,0.0599007
0.5940005,0.05944088
0.5930005,0.05901171
0.5920005,0.05855189
0.5910005,0.05812272
0.5900005,0.05766289
0.5890005,0.05720307
0.5880005,0.05677391
0.5870005,0.05631408
0.5860005,0.05585426
0.5850005,0.0554251
0.5840005,0.05496527
0.5830005,0.0545361
0.5820005,0.05410693
0.5810004,0.05364711
0.5800005,0.05318729
0.5790005,0.05275812
0.5780005,0.0522983
0.5770005,0.05186913
0.5760005,0.05140931
0.5750005,0.05098015
0.5740005,0.05055097
0.5730005,0.05009115
0.5720005,0.04966199
0.5710005,0.04923282
0.5700005,0.04880365
0.5690005,0.04834383
0.5680005,0.04791466
0.5670004,0.04745484
0.5660005,0.04702567
0.5650005,0.0465965
0.5640005,0.04613668
0.5630005,0.04570751
0.5620005,0.04527835
0.5610005,0.04484918
0.5600005,0.04442001
0.5590005,0.04396019
0.5580005,0.04353102
0.5570005,0.04310185
0.5560005,0.04267269
0.5550005,0.04224352
0.5540005,0.04181435
0.5530005,0.04138518
0.5520005,0.04095602
0.5510005,0.04052685
0.5500005,0.04009768
0.5490005,0.03966851
0.5480005,0.03923934
0.5470005,0.03881018
0.5460005,0.03838101
0.5450005,0.03795184
0.5440005,0.03752267
0.5430005,0.03709351
0.5420005,0.036695
0.5410005,0.03623517
0.5400005,0.03583666
0.5390005,0.03540749
0.5380005,0.03497833
0.5370005,0.03457981
0.5360005,0.0341813
0.5350005,0.03375213
0.5340005,0.03332296
0.5330005,0.03292445
0.5320005,0.03252594
0.5310005,0.03209677
0.5300004,0.0316676
0.5290005,0.03126909
0.5280005,0.03087058
0.5270005,0.03044141
0.5260005,0.0300429
0.5250005,0.02961373
0.5240005,0.02921522
0.5230005,0.0288167
0.5220005,0.02841819
0.5210005,0.02801968
0.5200005,0.02762116
0.5190005,0.027192
0.5180005,0.02679349
0.5170005,0.02639497
0.5160004,0.02599646
0.5150005,0.02559795
0.5140005,0.02523009
0.5130005,0.02480092
0.5120005,0.02443307
0.5110005,0.02403455
0.5100005,0.02363604
0.5090005,0.02323752
0.5080005,0.02286967
0.5070005,0.02247116
0.5060005,0.0221033
0.5050005,0.02170478
0.5040005,0.02130627
0.5030005,0.02093842
0.5020005,0.02057056
0.5010005,0.0202027
0.5000005,0.01980419
0.4990005,0.01943633
0.4980005,0.01906847
0.4970005,0.01870061
0.4960005,0.01833276
0.4950005,0.0179649
0.4940005,0.01759704
0.4930005,0.01722918
0.4920005,0.01689198
0.4910005,0.01652412
0.4900005,0.01615626
0.4890005,0.01581906
0.4880005,0.01548185
0.4870005,0.015114
0.4860005,0.01477679
0.4850005,0.01440894
0.4840005,0.01407173
0.4830005,0.01373453
0.4820005,0.01339733
0.4810005,0.01306012
0.4800005,0.01224365
0.4790005,0.01190952
0.4780005,0.01159071
0.4770005,0.01127189
0.4760005,0.01095002
0.4750005,0.01063734
0.4740005,0.0103216
0.4730005,0.01000892
0.4720005,0.0097085
0.4710005,0.009398886
0.4700005,0.009101534
0.4690005,0.008807248
0.4680005,0.008506831
0.4670005,0.00821561
0.4660005,0.00793052
0.4650005,0.007642365
0.4640005,0.007363406
0.4630005,0.007084447
0.4620005,0.006808553
0.4610005,0.006538791
0.4600005,0.006269028
0.4590005,0.006008463
0.4580005,0.005750962
0.4570005,0.005496527
0.4560005,0.005245158
0.4550005,0.004996853
0.4540005,0.00475468
0.4530005,0.004518638
0.4520005,0.004282596
0.4510005,0.004052685
0.4500005,0.003828905
0.4490005,0.00360819
0.4480005,0.00339054
0.4470005,0.003175956
0.4460005,0.002970569
0.4450005,0.002768247
0.4440005,0.002568991
0.4430005,0.002378931
0.4420005,0.00218274
0.4410005,0.002001877
0.4400005,0.001824079
0.4390005,0.001646281
0.4380005,0.001477679
0.4370005,0.001309078
0.4360005,0.001149673
0.4350005,0.0009637995
0.4340005,0.0008096057
0.4330005,0.0006633821
0.4320005,0.0005208372
0.4310005,0.0003785988
0.4300005,0.000246783
0.4290005,0.0001137411
0.4280005,-1.31699E-05
0.4270005,-0.0001346655
0.4260005,-0.0002563038
0.4250005,-0.0003687659
0.4240005,-0.0004757512
0.4230005,-0.0005867218
0.4220005,-0.0006891088
0.4210005,-0.0007872043
0.4200005,-0.0008859128
0.4190005,-0.0009757315
0.4180005,-0.001067083
0.4170005,-0.00115353
0.4160005,-0.001236298
0.4150005,-0.001319679
0.4140005,-0.001395703
0.4130005,-0.001471727
0.4120005,-0.001545911
0.4110005,-0.001613659
0.4100005,-0.001690909
0.4090005,-0.001762948
0.4080005,-0.001823031
0.4070005,-0.001886793
0.4060005,-0.001944117
0.4050005,-0.002002668
0.4040005,-0.002062138
0.4030005,-0.002116397
0.4020005,-0.002173109
0.4010005,-0.002227061
0.4000005,-0.002278868
0.3990005,-0.002332514
0.3980005,-0.002380949
0.3970005,-0.002432755
0.3960005,-0.002484562
0.3950005,-0.002530851
0.3940005,-0.002582045
0.3930005,-0.002629559
0.3920005,-0.002674622
0.3910005,-0.002726122
0.3900005,-0.002772411
0.3890005,-0.0028187
0.3880005,-0.00286836
0.3870005,-0.00291189
0.3860005,-0.002960938
0.3850005,-0.003009373
0.3840005,-0.003019383
0.3830005,-0.003068431
0.3820005,-0.003114413
0.3810005,-0.003160396
0.3800005,-0.003212509
0.3790005,-0.003258491
0.3780005,-0.003307539
0.3770005,-0.003359652
0.3760005,-0.0034087
0.3750005,-0.003457748
0.3740005,-0.003509861
0.3730005,-0.003561974
0.3720005,-0.003617153
0.3710005,-0.003672331
0.3700005,-0.003724444
0.3690005,-0.003779623
0.3680005,-0.003834802
0.3670005,-0.003893046
0.3660005,-0.003948225
0.3650005,-0.004006469
0.3640005,-0.004067779
0.3630005,-0.004126023
0.3620005,-0.004187332
0.3610005,-0.004245576
0.3600005,-0.004309952
0.3590005,-0.004374327
0.3580005,-0.004438702
0.3570005,-0.004506143
0.3560005,-0.004570518
0.3550005,-0.004634893
0.3540005,-0.004705399
0.3530005,-0.00477284
0.3520005,-0.004843346
0.3510005,-0.004919983
0.3500005,-0.004987423
0.3490005,-0.005060995
0.3480005,-0.005140697
0.3470005,-0.005211203
0.3460005,-0.005287841
0.3450005,-0.005367543
0.3440005,-0.00544418
0.3430005,-0.005520817
0.3420005,-0.00560665
0.3410005,-0.005686353
0.3400005,-0.005769121
0.3390005,-0.005851889
0.3380005,-0.005937723
0.3370005,-0.006023556
0.3360005,-0.006106324
0.3350005,-0.006198289
0.3340005,-0.006284122
0.3330005,-0.006373021
0.3320005,-0.006464986
0.3310005,-0.006553885
0.3300005,-0.006648915
0.3290005,-0.006740879
0.3280005,-0.006829778
0.3270005,-0.006930939
0.3260005,-0.007022904
0.3250005,-0.007117934
0.3240005,-0.007216029
0.3230005,-0.007314125
0.3220005,-0.00741222
0.3210005,-0.007510316
0.3200005,-0.007614542
0.3190005,-0.007715703
0.3180005,-0.007810732
0.3170005,-0.007918024
0.3160005,-0.008019186
0.3150005,-0.008120347
0.3140005,-0.008227638
0.3130005,-0.008328799
0.3120005,-0.008433026
0.3110005,-0.008543383
0.3100005,-0.008644544
0.3090005,-0.008751836
0.3080005,-0.008862193
0.3070005,-0.008969485
0.3060005,-0.009079843
0.3050005,-0.0091902
0.3040005,-0.009297492
0.3030005,-0.009404784
0.3020005,-0.009512075
0.3010005,-0.009625498
0.3000005,-0.009735856
0.2990005,-0.009840082
0.2980005,-0.009953505
0.2970005,-0.01006693
0.2960005,-0.01016809
0.2950005,-0.01028764
0.2940005,-0.010398
0.2930005,-0.01050836
0.2920005,-0.01062178
0.2910005,-0.01072907
0.2900005,-0.01083636
0.2890005,-0.01094979
0.2880005,-0.01105708
0.2870005,-0.01116744
0.2860005,-0.01127473
0.2850005,-0.01138509
0.2840005,-0.01148931
0.2830005,-0.0115966
0.2820005,-0.01169777
0.2810005,-0.0117928
0.2800005,-0.01189702
0.2790005,-0.01198899
0.2780005,-0.01207482
0.2770005,-0.01216372
0.2760005,-0.01223729
0.2750005,-0.01230167
0.2740005,-0.01236604
0.2730005,-0.01240896
0.2720005,-0.01244268
0.2710005,-0.0124672
0.2700005,-0.01246107
0.2690005,-0.01243655
0.2680005,-0.01239056
0.2670005,-0.01229553
0.2660005,-0.01217905
0.2650005,-0.01201657
0.2640005,-0.01179893
0.2630005,-0.01155369
0.2620005,-0.01126247
0.2610005,-0.01092833
0.2600005,-0.01059113
0.2590005,-0.0102294
0.2580005,-0.009876868
0.2570005,-0.009533534
0.2560005,-0.009187134
0.2550005,-0.008883652
0.2540005,-0.008583235
0.2530005,-0.008292013
0.2520005,-0.008046775
0.2510005,-0.007801536
0.2500005,-0.007580821
0.2490005,-0.007384631
0.2480005,-0.007182309
0.2470005,-0.007010642
0.2460005,-0.006845106
0.2450005,-0.00667957
0.2440005,-0.006541623
0.2430005,-0.006400611
0.2420005,-0.006262664
0.2410005,-0.00614311
0.2400005,-0.006020491
0.2390005,-0.005900937
0.2380005,-0.005793645
0.2370005,-0.005683288
0.2360005,-0.005582127
0.2350005,-0.005480966
0.2340005,-0.00538287
0.2330005,-0.005297037
0.2320005,-0.005205072
0.2310005,-0.005116174
0.2300005,-0.005039536
0.2290005,-0.004956769
0.2280005,-0.004874
0.2270005,-0.004803495
0.2260005,-0.004726857
0.2250005,-0.00465022
0.2240005,-0.00458891
0.2230005,-0.004518405
0.2220005,-0.004450964
0.2210005,-0.004395785
0.2200005,-0.004328344
0.2190005,-0.004267035
0.2180005,-0.004208791
0.2170005,-0.004150547
0.2160005,-0.004098434
0.2150005,-0.004040189
0.2140005,-0.003985011
0.2130005,-0.003935963
0.2120005,-0.003880784
0.2110005,-0.003828671
0.2100005,-0.003782689
0.2090005,-0.003733641
0.2080005,-0.003684593
0.2070005,-0.003641677
0.2060005,-0.003589563
0.2050005,-0.003549712
0.2040005,-0.00350373
0.2030005,-0.003457748
0.2020005,-0.003414831
0.2010005,-0.003371914
0.2000005,-0.003325932
0.1990005,-0.003286081
0.1980005,-0.003240098
0.1970005,-0.003197182
0.1960005,-0.003154265
0.1950005,-0.003111348
0.1940005,-0.003065366
0.1930005,-0.003025514
0.1920005,-0.002979532
0.1910005,-0.002942747
0.1900005,-0.002902895
0.1890005,-0.002863044
0.1880005,-0.002829324
0.1870005,-0.002795603
0.1860005,-0.002758818
0.1850005,-0.002728163
0.1840005,-0.002694442
0.1830005,-0.002663787
0.1820005,-0.002633133
0.1810005,-0.002605543
0.1800005,-0.002574889
0.1790005,-0.002547299
0.1780005,-0.00251971
0.1770005,-0.00249212
0.1760005,-0.002467597
0.1750005,-0.002440007
0.1740005,-0.002415484
0.1730005,-0.00239096
0.1720005,-0.002366436
0.1710005,-0.002344977
0.1700005,-0.002320454
0.1690005,-0.002298995
0.1680005,-0.002277537
0.1670005,-0.002256078
0.1660005,-0.00223462
0.1650005,-0.002216227
0.1640005,-0.002194769
0.1630005,-0.00217331
0.1620005,-0.002154917
0.1610005,-0.002136525
0.1600005,-0.002118132
0.1590005,-0.002099739
0.1580005,-0.00207828
0.1570005,-0.002062953
0.1560005,-0.00204456
0.1550005,-0.002026167
0.1540005,-0.00201084
0.1530005,-0.001992447
0.1520005,-0.00197712
0.1510005,-0.001961792
0.1500005,-0.001943399
0.1490005,-0.001928072
0.1480005,-0.001912744
0.1470005,-0.001897417
0.1460005,-0.00188209
0.1450005,-0.001869828
0.1440005,-0.0018545
0.1430005,-0.001839173
0.1420005,-0.001826911
0.1410005,-0.001811583
0.1400005,-0.001799321
0.1390005,-0.001783994
0.1380005,-0.001771732
0.1370005,-0.00175947
0.1360005,-0.001744143
0.1350005,-0.001731881
0.1340005,-0.001719619
0.1330005,-0.001707357
0.1320005,-0.001695095
0.1310005,-0.001682833
0.1300005,-0.001670571
0.1290005,-0.001658309
0.1280005,-0.001649113
0.1270005,-0.001636851
0.1260005,-0.001624589
0.1250005,-0.001648912
0.1240005,-0.001637876
0.1230005,-0.001627147
0.1220005,-0.001617031
0.1210005,-0.001606301
0.1200005,-0.001595879
0.1190005,-0.001585763
0.1180005,-0.00157534
0.1170005,-0.00156553
0.1160005,-0.001556027
0.1150005,-0.001545605
0.1140005,-0.001536715
0.1130005,-0.001526905
0.1120005,-0.001517096
0.1110005,-0.001508206
0.1100005,-0.001498703
0.1090005,-0.001490119
0.1080005,-0.00148123
0.1070005,-0.00147234
0.1060005,-0.001463756
0.1050005,-0.00145548
0.1040005,-0.00144659
0.1030005,-0.001438313
0.1020005,-0.001430343
0.1010005,-0.001421759
0.1000005,-0.001413789
0.09900048,-0.001405819
0.09800047,-0.001397849
0.09700048,-0.001389878
0.09600048,-0.001382215
0.09500048,-0.001374244
0.09400047,-0.001366887
0.09300048,-0.001358917
0.09200048,-0.00135156
0.09100047,-0.001343896
0.09000048,-0.001336539
0.08900048,-0.001329182
0.08800048,-0.001322438
0.08700047,-0.001315387
0.08600048,-0.00130803
0.08500048,-0.001301592
0.08400048,-0.001294235
0.08300047,-0.001287491
0.08200048,-0.001281054
0.08100048,-0.00127431
0.08000048,-0.001267566
0.07900048,-0.001261128
0.07800048,-0.001254077
0.07700048,-0.001247946
0.07600047,-0.001241815
0.07500048,-0.001235378
0.07400048,-0.001229247
0.07300048,-0.00122281
0.07200047,-0.001216372
0.07100048,-0.001210548
0.07000048,-0.001204417
0.06900048,-0.001198286
0.06800048,-0.001192461
0.06700048,-0.00118633
0.06600048,-0.001180506
0.06500047,-0.001174681
0.06400048,-0.00116855
0.06300048,-0.001163033
0.06200048,-0.001157208
0.06100048,-0.001151384
0.06000048,-0.001145559
0.05900048,-0.001140041
0.05800048,-0.001134217
0.05700048,-0.001129006
0.05600048,-0.001123181
0.05500048,-0.001117663
0.05400048,-0.001112452
0.05300048,-0.001106628
0.05200048,-0.001101416
0.05100048,-0.001096205
0.05000048,-0.001090381
0.04900048,-0.001085476
0.04800048,-0.001079958
0.04700048,-0.00107444
0.04600048,-0.001069229
0.04500048,-0.001064017
0.04400048,-0.001058806
0.04300048,-0.001053595
0.04200048,-0.00104869
0.04100048,-0.001043172
0.04000048,-0.001038267
0.03900048,-0.001033056
0.03800048,-0.001027845
0.03700048,-0.001023247
0.03600048,-0.001018035
0.03500048,-0.001012824
0.03400048,-0.001008226
0.03300048,-0.001003321
0.03200048,-0.0009984161
0.03100048,-0.0009938178
0.03000048,-0.0009886065
0.02900048,-0.0009840083
0.02800048,-0.00097941
0.02700048,-0.0009745053
0.02600048,-0.0009699071
0.02500048,-0.0009653088
0.02400048,-0.0009604041
0.02300048,-0.0009558058
0.02200048,-0.0009515142
0.02100048,-0.0009466094
0.02000048,-0.0009423177
0.01900048,-0.0009377195
0.01800048,-0.0009334278
0.01700048,-0.0009291361
0.01600048,-0.0009245379
0.01500048,-0.0009205528
0.01400048,-0.0009162611
0.01300048,-0.0009119695
0.01200048,-0.0009079843
0.01100048,-0.0009036926
0.01000048,-0.0008997075
0.009000476,-0.0008957224
0.008000477,-0.0008914307
0.007000477,-0.0008874455
0.006000477,-0.000883767
0.005000477,-0.0008794753
0.004000477,-0.0008757967
0.003000477,-0.0008718116
0.002000477,-0.0008675199
0.001000477,-0.0008635348
