EXPID. 0519
[电化学]: CV : 0 >> 0.7 >> 0 >> 0(V) @ 0.01(V/s) X 10(Seg)
起始电位 (V),0
上限电位 (V),0.7
下限电位 (V),0
终止电位 (V),0
扫速 (V/s),0.01
电解液 信息:
KOH,1
0.001,1.009782E-05
0.002,1.048713E-05
0.003,1.07385E-05
0.004,1.108797E-05
0.005,1.129642E-05
0.006,1.146809E-05
0.007,1.15999E-05
0.008,1.172252E-05
0.009,1.181142E-05
0.01,1.194937E-05
0.011,1.20444E-05
0.012,1.227431E-05
0.013,1.247663E-05
0.014,1.26299E-05
0.015,1.276478E-05
0.016,1.284449E-05
0.017,1.299163E-05
0.018,1.303148E-05
0.019,1.313877E-05
0.02,1.325526E-05
0.021,1.340854E-05
0.022,1.363538E-05
0.023,1.385916E-05
0.024,1.389288E-05
0.025,1.401857E-05
0.026,1.40952E-05
0.027,1.416571E-05
0.028,1.426381E-05
0.029,1.435884E-05
0.03,1.443241E-05
0.031,1.465006E-05
0.032,1.486158E-05
0.033,1.4975E-05
0.034,1.512521E-05
0.035,1.515586E-05
0.036,1.533059E-05
0.037,1.544095E-05
0.038,1.548693E-05
0.039,1.559423E-05
0.04,1.568926E-05
0.041,1.582107E-05
0.042,1.605711E-05
0.043,1.616441E-05
0.044,1.632994E-05
0.045,1.645563E-05
0.046,1.649854E-05
0.047,1.661197E-05
0.048,1.66978E-05
0.049,1.676831E-05
0.05,1.69553E-05
0.051,1.71239E-05
0.052,1.732929E-05
0.053,1.744271E-05
0.054,1.751628E-05
0.055,1.762664E-05
0.056,1.770021E-05
0.057,1.7737E-05
0.058,1.789334E-05
0.059,1.802209E-05
0.06,1.816923E-05
0.061,1.842367E-05
0.062,1.847578E-05
0.063,1.862905E-05
0.064,1.8767E-05
0.065,1.884977E-05
0.066,1.897545E-05
0.067,1.897852E-05
0.068,1.910114E-05
0.069,1.919004E-05
0.07,1.939236E-05
0.071,1.959468E-05
0.072,1.976328E-05
0.073,1.983992E-05
0.074,1.998706E-05
0.075,2.001159E-05
0.076,2.02231E-05
0.077,2.031507E-05
0.078,2.038558E-05
0.079,2.046221E-05
0.08,2.055724E-05
0.081,2.071665E-05
0.082,2.087299E-05
0.083,2.107224E-05
0.084,2.130829E-05
0.085,2.141865E-05
0.086,2.152594E-05
0.087,2.168534E-05
0.088,2.170986E-05
0.089,2.182942E-05
0.09,2.198576E-05
0.091,2.202561E-05
0.092,2.215742E-05
0.093,2.231376E-05
0.094,2.244251E-05
0.095,2.268469E-05
0.096,2.288394E-05
0.097,2.302496E-05
0.098,2.315677E-05
0.099,2.32518E-05
0.1,2.340814E-05
0.101,2.359207E-05
0.102,2.371162E-05
0.103,2.37852E-05
0.104,2.388329E-05
0.105,2.406109E-05
0.106,2.425115E-05
0.107,2.489288E-05
0.108,2.507682E-05
0.109,2.526074E-05
0.11,2.535271E-05
0.111,2.556729E-05
0.112,2.565926E-05
0.113,2.578188E-05
0.114,2.59658E-05
0.115,2.608842E-05
0.116,2.627235E-05
0.117,2.642563E-05
0.118,2.660956E-05
0.119,2.682414E-05
0.12,2.706938E-05
0.121,2.731462E-05
0.122,2.746789E-05
0.123,2.765182E-05
0.124,2.78664E-05
0.125,2.801968E-05
0.126,2.823426E-05
0.127,2.844885E-05
0.128,2.857147E-05
0.129,2.878605E-05
0.13,2.896998E-05
0.131,2.912325E-05
0.132,2.936849E-05
0.133,2.958307E-05
0.134,2.9767E-05
0.135,3.001224E-05
0.136,3.028813E-05
0.137,3.053337E-05
0.138,3.083992E-05
0.139,3.10545E-05
0.14,3.13304E-05
0.141,3.154498E-05
0.142,3.175957E-05
0.143,3.206612E-05
0.144,3.22807E-05
0.145,3.252594E-05
0.146,3.274052E-05
0.147,3.298576E-05
0.148,3.332296E-05
0.149,3.35682E-05
0.15,3.381344E-05
0.151,3.427326E-05
0.152,3.454915E-05
0.153,3.482505E-05
0.154,3.516225E-05
0.155,3.540749E-05
0.156,3.574469E-05
0.157,3.602059E-05
0.158,3.629648E-05
0.159,3.666434E-05
0.16,3.687892E-05
0.161,3.724678E-05
0.162,3.761464E-05
0.163,3.792119E-05
0.164,3.838101E-05
0.165,3.874887E-05
0.166,3.917803E-05
0.167,3.966851E-05
0.168,3.997506E-05
0.169,4.031226E-05
0.17,4.077208E-05
0.171,4.113995E-05
0.172,4.159976E-05
0.173,4.205959E-05
0.174,4.239679E-05
0.175,4.285661E-05
0.176,4.328578E-05
0.177,4.37456E-05
0.178,4.414412E-05
0.179,4.460394E-05
0.18,4.509441E-05
0.181,4.558489E-05
0.182,4.610602E-05
0.183,4.662716E-05
0.184,4.714829E-05
0.185,4.773073E-05
0.186,4.834383E-05
0.187,4.88343E-05
0.188,4.941675E-05
0.189,4.996853E-05
0.19,5.052032E-05
0.191,5.113342E-05
0.192,5.165455E-05
0.193,5.226765E-05
0.194,5.294205E-05
0.195,5.361646E-05
0.196,5.435217E-05
0.197,5.502658E-05
0.198,5.582361E-05
0.199,5.649801E-05
0.2,5.717242E-05
0.201,5.793879E-05
0.202,5.870515E-05
0.203,5.937956E-05
0.204,6.02379E-05
0.205,6.100427E-05
0.206,6.180129E-05
0.207,6.265963E-05
0.208,6.348731E-05
0.209,6.434564E-05
0.21,6.535726E-05
0.211,6.621559E-05
0.212,6.734982E-05
0.213,6.820816E-05
0.214,6.91278E-05
0.215,7.013941E-05
0.216,7.115101E-05
0.217,7.216263E-05
0.218,7.323555E-05
0.219,7.430847E-05
0.22,7.535073E-05
0.221,7.642365E-05
0.222,7.752722E-05
0.223,7.878407E-05
0.224,8.001026E-05
0.225,8.126711E-05
0.226,8.264658E-05
0.227,8.381146E-05
0.228,8.519093E-05
0.229,8.647843E-05
0.23,8.776593E-05
0.231,8.923736E-05
0.232,9.061684E-05
0.233,9.205761E-05
0.234,9.349838E-05
0.235,9.500048E-05
0.236,9.656387E-05
0.237,9.806595E-05
0.238,9.962935E-05
0.239,0.0001013154
0.24,0.0001029707
0.241,0.0001046874
0.242,0.0001064654
0.243,0.0001082127
0.244,0.0001101133
0.245,0.0001119526
0.246,0.0001137919
0.247,0.0001159071
0.248,0.0001178383
0.249,0.0001198309
0.25,0.0001219767
0.251,0.0001240306
0.252,0.0001262684
0.253,0.0001283836
0.254,0.0001305601
0.255,0.0001329511
0.256,0.0001352196
0.257,0.0001376107
0.258,0.0001400937
0.259,0.0001425461
0.26,0.0001451211
0.261,0.0001476348
0.262,0.0001502711
0.263,0.0001530607
0.264,0.000155697
0.265,0.0001585786
0.266,0.0001614908
0.267,0.0001643723
0.268,0.0001674991
0.269,0.0001706566
0.27,0.0001736914
0.271,0.0001770634
0.272,0.0001803128
0.273,0.0001836542
0.274,0.0001871795
0.275,0.0001907048
0.276,0.000194506
0.277,0.00019797
0.278,0.0002017712
0.279,0.0002057564
0.28,0.0002095575
0.281,0.000213696
0.282,0.0002178344
0.283,0.0002220341
0.284,0.000226571
0.285,0.000230924
0.286,0.0002354302
0.287,0.0002402431
0.288,0.0002450558
0.289,0.0002498993
0.29,0.0002550493
0.291,0.000260046
0.292,0.0002655333
0.293,0.0002708059
0.294,0.0002763851
0.295,0.0002822402
0.296,0.0002879113
0.297,0.0002940729
0.298,0.0003041076
0.299,0.000309932
0.3,0.000316676
0.301,0.0003231135
0.302,0.0003298576
0.303,0.0003372148
0.304,0.0003442654
0.305,0.0003516225
0.306,0.0003592863
0.307,0.0003672565
0.308,0.0003758399
0.309,0.0003841167
0.31,0.0003923935
0.311,0.0004015899
0.312,0.0004104798
0.313,0.0004199828
0.314,0.0004297924
0.315,0.0004399084
0.316,0.0004503311
0.317,0.0004610603
0.318,0.0004724026
0.319,0.0004840514
0.32,0.0004960068
0.321,0.0005088818
0.322,0.0005220634
0.323,0.0005355515
0.324,0.0005505724
0.325,0.0005652867
0.326,0.0005815338
0.327,0.000599007
0.328,0.0006170933
0.329,0.000637019
0.33,0.0006581708
0.331,0.0006808554
0.332,0.0007066055
0.333,0.0007335817
0.334,0.0007642366
0.335,0.0007982634
0.336,0.0008356623
0.337,0.0008782725
0.338,0.0009257875
0.339,0.0009788203
0.34,0.00104013
0.341,0.001107264
0.342,0.001183595
0.343,0.001271574
0.344,0.001368443
0.345,0.001480027
0.346,0.001606018
0.347,0.001745498
0.348,0.001904596
0.349,0.002080555
0.35,0.002275826
0.351,0.002492556
0.352,0.002728904
0.353,0.002985792
0.354,0.003292445
0.355,0.003583666
0.356,0.003890214
0.357,0.004205959
0.358,0.004537031
0.359,0.004874234
0.36,0.005211437
0.361,0.005554772
0.362,0.005901171
0.363,0.006250636
0.364,0.006603166
0.365,0.006952631
0.366,0.007308227
0.367,0.007660758
0.368,0.008013288
0.369,0.008371949
0.37,0.008727546
0.371,0.009089272
0.372,0.009454065
0.373,0.009809661
0.374,0.01017752
0.375,0.01054231
0.376,0.01090404
0.377,0.01127803
0.378,0.01164588
0.379,0.01201374
0.38,0.0123908
0.381,0.01276172
0.382,0.01313264
0.383,0.0135097
0.384,0.01388062
0.385,0.01426074
0.386,0.0146378
0.387,0.01501178
0.388,0.0153919
0.389,0.01576589
0.39,0.01614295
0.391,0.01652307
0.392,0.01690012
0.393,0.01727718
0.394,0.01765423
0.395,0.01803128
0.396,0.01840834
0.397,0.01878846
0.398,0.01915938
0.399,0.01953644
0.4,0.01991349
0.401,0.02028748
0.402,0.0206584
0.403,0.02103546
0.404,0.02140945
0.405,0.02178037
0.406,0.02215743
0.407,0.02252528
0.408,0.02289621
0.409,0.02327326
0.41,0.02365031
0.411,0.02402124
0.412,0.0243891
0.413,0.02475389
0.414,0.02512788
0.415,0.0254896
0.416,0.0258544
0.417,0.02622839
0.418,0.02657785
0.419,0.02694264
0.42,0.02731663
0.421,0.02766916
0.422,0.02803396
0.423,0.02839875
0.424,0.02874821
0.425,0.02910994
0.426,0.0294686
0.427,0.02981807
0.428,0.03017366
0.429,0.03129975
0.43,0.03163695
0.431,0.03200481
0.432,0.03234201
0.433,0.03267921
0.434,0.03301642
0.435,0.03332296
0.436,0.03369082
0.437,0.03402802
0.438,0.03430392
0.439,0.03464112
0.44,0.03494767
0.441,0.03525422
0.442,0.03553011
0.443,0.03583666
0.444,0.03611255
0.445,0.03638845
0.446,0.03660303
0.447,0.03687892
0.448,0.03709351
0.449,0.03730809
0.45,0.03752267
0.451,0.03770661
0.452,0.03789053
0.453,0.03804381
0.454,0.03819708
0.455,0.0383197
0.456,0.03844232
0.457,0.03853428
0.458,0.03859559
0.459,0.03862625
0.46,0.0386569
0.461,0.03862625
0.462,0.03859559
0.463,0.03853428
0.464,0.03844232
0.465,0.03835035
0.466,0.03819708
0.467,0.0379825
0.468,0.03779857
0.469,0.03755333
0.47,0.03724678
0.471,0.03694023
0.472,0.03657238
0.473,0.03623517
0.474,0.035806
0.475,0.03537684
0.476,0.03491702
0.477,0.03442654
0.478,0.03390541
0.479,0.03338427
0.48,0.03283248
0.481,0.0322807
0.482,0.03169826
0.483,0.03114647
0.484,0.03056403
0.485,0.03001224
0.486,0.0294298
0.487,0.02890867
0.488,0.02841819
0.489,0.02792772
0.49,0.02746789
0.491,0.02703872
0.492,0.02667087
0.493,0.02633366
0.494,0.02605777
0.495,0.02581253
0.496,0.02559795
0.497,0.02544468
0.498,0.02535271
0.499,0.02526074
0.5,0.02523009
0.501,0.02526074
0.502,0.0252914
0.503,0.02535271
0.504,0.02544468
0.505,0.02556729
0.506,0.02572057
0.507,0.0259045
0.508,0.02605777
0.509,0.02630301
0.51,0.02651759
0.511,0.02676283
0.512,0.02700807
0.513,0.02731462
0.514,0.02759051
0.515,0.02786641
0.516,0.02817295
0.517,0.0284795
0.518,0.0288167
0.519,0.02915391
0.52,0.02946045
0.521,0.02982831
0.522,0.03016552
0.523,0.03050272
0.524,0.03090123
0.525,0.03123844
0.526,0.03160629
0.527,0.03200481
0.528,0.03237266
0.529,0.03274052
0.53,0.03313904
0.531,0.03350689
0.532,0.03390541
0.533,0.03430392
0.534,0.03467178
0.535,0.03507029
0.536,0.0354688
0.537,0.03589797
0.538,0.03629648
0.539,0.036695
0.54,0.03709351
0.541,0.03752267
0.542,0.03792119
0.543,0.03835035
0.544,0.03877952
0.545,0.03917804
0.546,0.0396072
0.547,0.04003637
0.548,0.04043488
0.549,0.04086405
0.55,0.04129322
0.551,0.04172239
0.552,0.04215155
0.553,0.04258072
0.554,0.04300989
0.555,0.04343906
0.556,0.04386823
0.557,0.04429739
0.558,0.04475721
0.559,0.04518638
0.56,0.04561555
0.561,0.04607537
0.562,0.04650454
0.563,0.04693371
0.564,0.04739353
0.565,0.0478227
0.566,0.04828252
0.567,0.04871169
0.568,0.04914085
0.569,0.04960068
0.57,0.05002984
0.571,0.05048966
0.572,0.05094949
0.573,0.05137866
0.574,0.05183848
0.575,0.0522983
0.576,0.05272747
0.577,0.05318729
0.578,0.05364711
0.579,0.05410693
0.58,0.05456676
0.581,0.05502658
0.582,0.05545575
0.583,0.05591557
0.584,0.05637539
0.585,0.05680456
0.586,0.05723373
0.587,0.05766289
0.588,0.05812272
0.589,0.05855189
0.59,0.05898106
0.591,0.05944088
0.592,0.0599007
0.593,0.06032987
0.594,0.06082034
0.595,0.06128017
0.596,0.06173999
0.597,0.06223046
0.598,0.06272095
0.599,0.06318077
0.6,0.06364059
0.601,0.06413107
0.602,0.06459089
0.603,0.06505071
0.604,0.06554119
0.605,0.06597035
0.606,0.06646083
0.607,0.06692065
0.608,0.06738048
0.609,0.06787095
0.61,0.06833078
0.611,0.0687906
0.612,0.06928107
0.613,0.06971025
0.614,0.07020072
0.615,0.0706912
0.616,0.07115102
0.617,0.07161084
0.618,0.07210132
0.619,0.07256114
0.62,0.07305162
0.621,0.07351144
0.622,0.07397126
0.623,0.07446174
0.624,0.0748909
0.625,0.07538139
0.626,0.07584121
0.627,0.07630103
0.628,0.07679151
0.629,0.07725133
0.63,0.07774181
0.631,0.07823228
0.632,0.07869211
0.633,0.07915193
0.634,0.07964241
0.635,0.08010223
0.636,0.08059271
0.637,0.08108319
0.638,0.08151235
0.639,0.08200283
0.64,0.08249331
0.641,0.08295313
0.642,0.0834436
0.643,0.08390342
0.644,0.0843939
0.645,0.08488438
0.646,0.0853442
0.647,0.08583468
0.648,0.08632516
0.649,0.08678498
0.65,0.08727546
0.651,0.08776593
0.652,0.08822576
0.653,0.08868558
0.654,0.08917606
0.655,0.08966654
0.656,0.09012636
0.657,0.09061684
0.658,0.09107666
0.659,0.09156714
0.66,0.09202696
0.661,0.09251743
0.662,0.09300791
0.663,0.09346773
0.664,0.09392755
0.665,0.09444869
0.666,0.09487786
0.667,0.09536833
0.668,0.0958588
0.669,0.09631863
0.67,0.09680911
0.671,0.09726893
0.672,0.09772875
0.673,0.09824988
0.674,0.09867906
0.675,0.09916953
0.676,0.09966001
0.677,0.1001198
0.678,0.1006103
0.679,0.1011008
0.68,0.1015606
0.681,0.1020511
0.682,0.1025416
0.683,0.1030014
0.684,0.1034919
0.685,0.1039823
0.686,0.1044422
0.687,0.1049326
0.688,0.1054231
0.689,0.1058829
0.69,0.1064041
0.691,0.1068639
0.692,0.1073544
0.693,0.1078142
0.694,0.108274
0.695,0.1087951
0.696,0.1092856
0.697,0.1097761
0.698,0.1102666
0.699,0.1107264
0.7,0.110849
0.6990001,0.1104198
0.6980001,0.1099294
0.6970001,0.1094389
0.6960001,0.1090097
0.6950001,0.1084886
0.6940001,0.1080288
0.6930001,0.1075689
0.6920001,0.1070478
0.6910001,0.1066186
0.6900001,0.1061282
0.6890001,0.1056377
0.6880001,0.1051779
0.6870001,0.104718
0.6860001,0.1042276
0.6850001,0.1037678
0.6840001,0.1032773
0.6830001,0.1028175
0.6820001,0.1023576
0.6810001,0.1018672
0.6800001,0.1014073
0.6790001,0.1009169
0.6780001,0.100457
0.6770001,0.09996656
0.6760001,0.09950673
0.6750001,0.09901626
0.6740001,0.09855644
0.6730001,0.09809661
0.6720001,0.09760614
0.6710001,0.09714631
0.6700001,0.09665584
0.6690001,0.09619602
0.6680001,0.09573619
0.6670001,0.09527637
0.6660001,0.09478589
0.6650001,0.09432607
0.6640001,0.09383559
0.6630001,0.09337576
0.6620001,0.09288529
0.6610001,0.09242547
0.6600001,0.09196565
0.6590001,0.09147517
0.6580001,0.09101535
0.6570001,0.09055553
0.6560001,0.09006505
0.6550001,0.08957457
0.6540001,0.08914541
0.6530001,0.08865493
0.6520001,0.08816445
0.6510001,0.08773528
0.6500001,0.0872448
0.6490001,0.08675433
0.6480001,0.0862945
0.6470001,0.08583468
0.6460001,0.0853442
0.6450001,0.08488438
0.6440001,0.0843939
0.6430001,0.08393408
0.6420001,0.08347426
0.6410001,0.08298378
0.6400001,0.08252396
0.6390001,0.08206414
0.6380001,0.08160432
0.6370001,0.0811445
0.6360001,0.08068467
0.6350001,0.0801942
0.6340001,0.07973437
0.6330001,0.07927455
0.6320001,0.07881473
0.6310001,0.0783549
0.6300001,0.07786443
0.6290001,0.0774046
0.6280001,0.07691412
0.6270001,0.0764543
0.6260001,0.07599448
0.6250001,0.075504
0.6240001,0.07504418
0.6230001,0.07458436
0.6220001,0.07412454
0.6210001,0.07366472
0.6200001,0.0732049
0.6190001,0.07271441
0.6180001,0.07225459
0.6170001,0.07179477
0.6160001,0.07133495
0.6150001,0.07087513
0.6140001,0.0704153
0.6130001,0.06992482
0.6120001,0.069465
0.6110001,0.06900518
0.6100001,0.06854536
0.6090001,0.06808554
0.6080001,0.06762572
0.6070001,0.06713524
0.6060001,0.06670607
0.6050001,0.0662156
0.6040001,0.06575577
0.6030001,0.0653266
0.6020001,0.06486678
0.6010001,0.0643763
0.6000001,0.06394713
0.5990001,0.06345665
0.5980001,0.06302749
0.5970001,0.06256767
0.5960001,0.06207719
0.5950001,0.06164802
0.5940001,0.0611882
0.5930001,0.06069772
0.5920001,0.06026856
0.5910001,0.05977808
0.5900001,0.05934891
0.5890001,0.05888909
0.5880001,0.05842927
0.5870001,0.05796945
0.5860001,0.05750962
0.5850001,0.0570498
0.5840001,0.05662064
0.5830001,0.05616081
0.5820001,0.05570099
0.5810001,0.05524116
0.5800001,0.05478134
0.5790001,0.05432152
0.5780001,0.05389235
0.5770001,0.05343253
0.5760001,0.0529727
0.5750001,0.05251288
0.5740001,0.05208372
0.5730001,0.05159324
0.5720001,0.05116407
0.5710001,0.05070425
0.5700001,0.05024443
0.5690001,0.04981526
0.5680001,0.04935544
0.5670001,0.04892627
0.5660001,0.04846645
0.5650001,0.04800662
0.5640001,0.04757746
0.5630001,0.04714829
0.5620001,0.04665781
0.5610001,0.04622864
0.5600001,0.04579948
0.5590001,0.04533966
0.5580001,0.04491049
0.5570001,0.04445067
0.5560001,0.0440215
0.5550001,0.04359233
0.5540001,0.04313251
0.5530001,0.04270334
0.5520001,0.04224352
0.5510001,0.04181435
0.5500001,0.04138518
0.5490001,0.04092536
0.5480001,0.04049619
0.5470001,0.04006703
0.5460001,0.03963786
0.5450001,0.03917804
0.5440001,0.03874887
0.5430001,0.0383197
0.5420001,0.03785988
0.5410001,0.03743071
0.5400001,0.03700154
0.5390001,0.03657238
0.5380001,0.03614321
0.5370001,0.03571404
0.5360001,0.03528487
0.5350001,0.0348557
0.5340001,0.03442654
0.5330001,0.03402802
0.5320001,0.03359886
0.5310001,0.03316969
0.5300001,0.03274052
0.5290001,0.03231135
0.5280001,0.03188219
0.5270001,0.03148368
0.5260001,0.03105451
0.5250001,0.03062534
0.5240001,0.03019617
0.5230001,0.02979766
0.5220001,0.02936849
0.5210001,0.02896998
0.5200001,0.02854081
0.5190001,0.0281423
0.5180001,0.02771313
0.5170001,0.02731462
0.5160001,0.02688545
0.5150001,0.02648694
0.5140001,0.02608843
0.5130001,0.02568991
0.5120001,0.02526074
0.5110001,0.02483158
0.5100001,0.02446372
0.5090001,0.02406521
0.5080001,0.02363604
0.5070001,0.02326818
0.5060001,0.02286967
0.5050001,0.02247116
0.5040001,0.02207264
0.5030001,0.02167413
0.5020001,0.02127562
0.5010001,0.0208771
0.5000001,0.02050925
0.4990001,0.02011073
0.4980001,0.01974287
0.4970001,0.01934436
0.4960001,0.01897651
0.4950001,0.01857799
0.4940001,0.01821013
0.4930001,0.01784228
0.4920001,0.01747442
0.4910001,0.01710656
0.4900001,0.0167387
0.4890001,0.01637085
0.4880001,0.01600299
0.4870001,0.01563513
0.4860001,0.01526727
0.4850001,0.01493007
0.4840001,0.01456221
0.4830001,0.01419435
0.4820001,0.01385715
0.4810001,0.01348929
0.4800001,0.01315209
0.4790001,0.01231109
0.4780001,0.01198002
0.4770001,0.01164588
0.4760001,0.01131788
0.4750001,0.01099294
0.4740001,0.01066799
0.4730001,0.01034612
0.4720001,0.01002731
0.4710001,0.00971463
0.4700001,0.009405017
0.4690001,0.009095403
0.4680001,0.008791921
0.4670001,0.008491503
0.4660001,0.008191085
0.4650001,0.00790293
0.4640001,0.00761171
0.4630001,0.007320489
0.4620001,0.007044595
0.4610001,0.006762571
0.4600001,0.006486678
0.4590001,0.006223046
0.4580001,0.005956349
0.4570001,0.005695784
0.4560001,0.005441349
0.4550001,0.005183848
0.4540001,0.004941675
0.4530001,0.004699502
0.4520001,0.004460394
0.4510001,0.004230483
0.4500001,0.004000572
0.4490001,0.003776791
0.4480001,0.003559142
0.4470001,0.003344558
0.4460001,0.003139171
0.4450001,0.002936849
0.4440001,0.002734527
0.4430001,0.002547533
0.4420001,0.002357473
0.4410001,0.002173544
0.4400001,0.002001877
0.4390001,0.001827144
0.4380001,0.001664674
0.4370001,0.001505269
0.4360001,0.001345864
0.4350001,0.00119872
0.4340001,0.001020817
0.4330001,0.0008804183
0.4320001,0.0007479895
0.4310001,0.0006161737
0.4300001,0.0004929413
0.4290001,0.0003718548
0.4280001,0.0002547533
0.4270001,0.0001477679
0.4260001,3.833021E-05
0.4250001,-6.740879E-05
0.4240001,-0.0001611513
0.4230001,-0.0002585416
0.4220001,-0.0003463879
0.4210001,-0.0004288494
0.4200001,-0.000512537
0.4190001,-0.0005867218
0.4180001,-0.0006621326
0.4170001,-0.0007341714
0.4160001,-0.0008006924
0.4150001,-0.0008684396
0.4140001,-0.0009288296
0.4130001,-0.0009873803
0.4120001,-0.001045011
0.4110001,-0.001096818
0.4100001,-0.001155982
0.4090001,-0.001210241
0.4080001,-0.001252545
0.4070001,-0.001298833
0.4060001,-0.001339298
0.4050001,-0.001380375
0.4040001,-0.001422679
0.4030001,-0.001458852
0.4020001,-0.001497783
0.4010001,-0.001534569
0.4000001,-0.00156645
0.3990001,-0.001604462
0.3980001,-0.001636343
0.3970001,-0.001669144
0.3960001,-0.001703477
0.3950001,-0.001731986
0.3940001,-0.001764174
0.3930001,-0.001793602
0.3920001,-0.001822111
0.3910001,-0.001853992
0.3900001,-0.001882501
0.3890001,-0.001911623
0.3880001,-0.001942278
0.3870001,-0.001967415
0.3860001,-0.001999603
0.3850001,-0.002027805
0.3840001,-0.002052635
0.3830001,-0.002086356
0.3820001,-0.002112719
0.3810001,-0.002140922
0.3800001,-0.002174335
0.3790001,-0.002200698
0.3780001,-0.002232886
0.3770001,-0.002265073
0.3760001,-0.002292663
0.3750001,-0.00232577
0.3740001,-0.002356425
0.3730001,-0.002388306
0.3720001,-0.002422026
0.3710001,-0.00245452
0.3700001,-0.002490386
0.3690001,-0.002523494
0.3680001,-0.002555681
0.3670001,-0.002595532
0.3660001,-0.002628333
0.3650001,-0.002665425
0.3640001,-0.002706809
0.3630001,-0.002740836
0.3620001,-0.002781607
0.3610001,-0.002822072
0.3600001,-0.002859164
0.3590001,-0.002904227
0.3580001,-0.002948063
0.3570001,-0.002988528
0.3560001,-0.00303359
0.3550001,-0.003040842
0.3540001,-0.003083759
0.3530001,-0.003129741
0.3520001,-0.003178789
0.3510001,-0.003227836
0.3500001,-0.003273819
0.3490001,-0.003328997
0.3480001,-0.00338111
0.3470001,-0.003430158
0.3460001,-0.003488402
0.3450001,-0.003543581
0.3440001,-0.003595694
0.3430001,-0.003657004
0.3420001,-0.003715248
0.3410001,-0.003773492
0.3400001,-0.003837867
0.3390001,-0.003899177
0.3380001,-0.003966617
0.3370001,-0.004030993
0.3360001,-0.004098434
0.3350001,-0.004168939
0.3340001,-0.00423638
0.3330001,-0.004309952
0.3320001,-0.004383523
0.3310001,-0.004454029
0.3300001,-0.004533732
0.3290001,-0.004610369
0.3280001,-0.004687006
0.3270001,-0.004775905
0.3260001,-0.004855608
0.3250001,-0.004941441
0.3240001,-0.005033405
0.3230001,-0.005119239
0.3220001,-0.005211203
0.3210001,-0.005306234
0.3200001,-0.005401264
0.3190001,-0.005499359
0.3180001,-0.005597454
0.3170001,-0.005698615
0.3160001,-0.005805907
0.3150001,-0.005910133
0.3140001,-0.006017426
0.3130001,-0.006130849
0.3120001,-0.00623814
0.3110001,-0.006354629
0.3100001,-0.006471117
0.3090001,-0.006590671
0.3080001,-0.00671329
0.3070001,-0.00684204
0.3060001,-0.006967725
0.3050001,-0.007096475
0.3040001,-0.007225225
0.3030001,-0.007357041
0.3020001,-0.007488857
0.3010001,-0.007626804
0.3000001,-0.007764751
0.2990001,-0.007902697
0.2980001,-0.008046775
0.2970001,-0.008190853
0.2960001,-0.00833493
0.2950001,-0.008488204
0.2940001,-0.008635348
0.2930001,-0.008791687
0.2920001,-0.008944961
0.2910001,-0.00909517
0.2900001,-0.009260706
0.2890001,-0.00941398
0.2880001,-0.009576451
0.2870001,-0.009745052
0.2860001,-0.009904457
0.2850001,-0.01006999
0.2840001,-0.01024473
0.2830001,-0.01041026
0.2820001,-0.010585
0.2810001,-0.01075973
0.2800001,-0.01092833
0.2790001,-0.01111226
0.2780001,-0.01129006
0.2770001,-0.01146785
0.2760001,-0.01165791
0.2750001,-0.01183878
0.2740001,-0.01202884
0.2730001,-0.0122189
0.2720001,-0.01240589
0.2710001,-0.01259902
0.2700001,-0.01279214
0.2690001,-0.01298527
0.2680001,-0.01318452
0.2670001,-0.01337765
0.2660001,-0.01357691
0.2650001,-0.01377616
0.2640001,-0.01396929
0.2630001,-0.01416548
0.2620001,-0.0143678
0.2610001,-0.01455786
0.2600001,-0.01475099
0.2590001,-0.01494718
0.2580001,-0.01513417
0.2570001,-0.01531503
0.2560001,-0.01550203
0.2550001,-0.0156737
0.2540001,-0.01583617
0.2530001,-0.01599557
0.2520001,-0.01613965
0.2510001,-0.01626533
0.2500001,-0.01638795
0.2490001,-0.01647685
0.2480001,-0.01654429
0.2470001,-0.01659334
0.2460001,-0.01660254
0.2450001,-0.01659334
0.2440001,-0.01654429
0.2430001,-0.01645233
0.2420001,-0.01632664
0.2410001,-0.01613965
0.2400001,-0.01589748
0.2390001,-0.01561545
0.2380001,-0.01526905
0.2370001,-0.01487974
0.2360001,-0.0144567
0.2350001,-0.01398462
0.2340001,-0.0135064
0.2330001,-0.01301899
0.2320001,-0.01252544
0.2310001,-0.01205949
0.2300001,-0.01159047
0.2290001,-0.01113372
0.2280001,-0.01071068
0.2270001,-0.01029377
0.2260001,-0.00988913
0.2250001,-0.009530468
0.2240001,-0.009171807
0.2230001,-0.008840735
0.2220001,-0.008546448
0.2210001,-0.008249097
0.2200001,-0.0079824
0.2190001,-0.007749423
0.2180001,-0.007510316
0.2170001,-0.007301863
0.2160001,-0.007111803
0.2150001,-0.006915612
0.2140001,-0.00674701
0.2130001,-0.006590671
0.2120001,-0.006431265
0.2110001,-0.006293319
0.2100001,-0.006158438
0.2090001,-0.006026622
0.2080001,-0.005910133
0.2070001,-0.005793645
0.2060001,-0.005680223
0.2050001,-0.005579061
0.2040001,-0.005471769
0.2030001,-0.005370609
0.2020001,-0.005278645
0.2010001,-0.005177483
0.2000001,-0.005082454
0.1990001,-0.00499662
0.1980001,-0.004895459
0.1970001,-0.004800429
0.1960001,-0.004708464
0.1950001,-0.004607304
0.1940001,-0.004518405
0.1930001,-0.004429505
0.1920001,-0.004340607
0.1910001,-0.004260904
0.1900001,-0.004178136
0.1890001,-0.004095368
0.1880001,-0.004021796
0.1870001,-0.003942094
0.1860001,-0.003868522
0.1850001,-0.003798016
0.1840001,-0.003724444
0.1830001,-0.003653938
0.1820001,-0.003589563
0.1810001,-0.003519057
0.1800001,-0.003454682
0.1790001,-0.003393373
0.1780001,-0.003328997
0.1770001,-0.003267688
0.1760001,-0.003206378
0.1750001,-0.003145068
0.1740001,-0.003086824
0.1730001,-0.00302858
0.1720001,-0.00296727
0.1710001,-0.002912092
0.1700001,-0.002853847
0.1690001,-0.002801734
0.1680001,-0.002749621
0.1670001,-0.002697508
0.1660001,-0.00264846
0.1650001,-0.002602478
0.1640001,-0.00255343
0.1630001,-0.002507448
0.1620001,-0.002461466
0.1610001,-0.002418549
0.1600001,-0.002378698
0.1590001,-0.002341912
0.1580001,-0.002302061
0.1570001,-0.00226834
0.1560001,-0.002237685
0.1550001,-0.002203965
0.1540001,-0.002176376
0.1530001,-0.002145721
0.1520001,-0.002118132
0.1510001,-0.002090542
0.1500001,-0.002066019
0.1490001,-0.002038429
0.1480001,-0.002016971
0.1470001,-0.001992447
0.1460001,-0.001967923
0.1450001,-0.001946465
0.1440001,-0.001925006
0.1430001,-0.001903548
0.1420001,-0.00188209
0.1410001,-0.001863697
0.1400001,-0.001842238
0.1390001,-0.001823845
0.1380001,-0.001805453
0.1370001,-0.00178706
0.1360001,-0.001768667
0.1350001,-0.001750274
0.1340001,-0.001734946
0.1330001,-0.001716554
0.1320001,-0.001701226
0.1310001,-0.001682833
0.1300001,-0.001667506
0.1290001,-0.001652178
0.1280001,-0.001636851
0.1270001,-0.001621523
0.1260001,-0.001645233
0.1250001,-0.001631132
0.1240001,-0.001616724
0.1230001,-0.001602929
0.1220001,-0.001589441
0.1210001,-0.001575953
0.1200001,-0.001562772
0.1190001,-0.001549896
0.1180001,-0.001537021
0.1170001,-0.001524453
0.1160001,-0.001512191
0.1150001,-0.001499929
0.1140001,-0.001487974
0.1130001,-0.001476325
0.1120001,-0.001464676
0.1110001,-0.001453334
0.1100001,-0.001441992
0.1090001,-0.001430956
0.1080001,-0.001420533
0.1070001,-0.001409191
0.1060001,-0.001398768
0.1050001,-0.001388652
0.1040001,-0.001378229
0.1030001,-0.00136842
0.1020001,-0.00135861
0.1010001,-0.001348494
0.1000001,-0.001338685
0.0990001,-0.001329182
0.09800009,-0.001319679
0.09700009,-0.001310482
0.0960001,-0.001300979
0.0950001,-0.001291783
0.09400009,-0.001282893
0.0930001,-0.001274003
0.0920001,-0.00126542
0.0910001,-0.00125653
0.09000009,-0.001248253
0.0890001,-0.00123967
0.0880001,-0.001231393
0.08700009,-0.001223116
0.08600009,-0.001215146
0.0850001,-0.001207175
0.0840001,-0.001199512
0.08300009,-0.001191848
0.08200009,-0.001183878
0.0810001,-0.001176521
0.0800001,-0.001168857
0.07900009,-0.0011615
0.0780001,-0.001154143
0.0770001,-0.001146785
0.07600009,-0.001139735
0.07500009,-0.001132378
0.0740001,-0.001125634
0.0730001,-0.001118583
0.07200009,-0.001111532
0.07100009,-0.001105095
0.0700001,-0.001098351
0.0690001,-0.001091607
0.06800009,-0.001085169
0.0670001,-0.001078732
0.0660001,-0.001072294
0.06500009,-0.00106647
0.06400009,-0.001060032
0.0630001,-0.001053901
0.0620001,-0.00104777
0.06100009,-0.001041333
0.0600001,-0.001035508
0.0590001,-0.001029377
0.0580001,-0.001023553
0.0570001,-0.001018035
0.05600009,-0.001012211
0.0550001,-0.001006693
0.05400009,-0.001001175
0.0530001,-0.0009953505
0.05200009,-0.0009898327
0.0510001,-0.0009846214
0.05000009,-0.0009791035
0.0490001,-0.0009735856
0.04800009,-0.0009683743
0.0470001,-0.000963163
0.0460001,-0.0009579517
0.04500009,-0.0009527404
0.0440001,-0.000947529
0.04300009,-0.0009426242
0.0420001,-0.000937413
0.04100009,-0.0009325081
0.0400001,-0.0009276034
0.03900009,-0.0009230052
0.0380001,-0.0009181004
0.03700009,-0.0009135022
0.0360001,-0.000908904
0.0350001,-0.0009039992
0.03400009,-0.000899401
0.0330001,-0.0008948027
0.03200009,-0.0008905111
0.03100009,-0.0008859128
0.0300001,-0.0008813146
0.0290001,-0.000877023
0.0280001,-0.0008727313
0.0270001,-0.000868133
0.0260001,-0.0008638413
0.0250001,-0.0008595497
0.0240001,-0.000855258
0.0230001,-0.0008512728
0.02200009,-0.0008469812
0.02100009,-0.0008429961
0.02000009,-0.0008390109
0.0190001,-0.0008350258
0.0180001,-0.0008310407
0.0170001,-0.0008270555
0.0160001,-0.0008230705
0.0150001,-0.0008190853
0.0140001,-0.0008154067
0.0130001,-0.0008114216
0.0120001,-0.0008077431
0.01100009,-0.0008040644
0.0100001,-0.0008003859
0.009000096,-0.0007967073
0.008000095,-0.0007927222
0.007000095,-0.0007893501
0.006000096,-0.0007856716
0.005000095,-0.000781993
0.004000095,-0.0007783144
0.003000095,-0.0007749424
0.002000095,-0.0007715704
0.001000095,-0.0007681983
9.536743E-08,-0.0007577756
0.0009999046,-0.0007396893
0.001999905,-0.0007237488
0.002999905,-0.0007087279
0.003999905,-0.0006949333
0.004999904,-0.0006817517
0.005999905,-0.0006691832
0.006999905,-0.0006575344
0.007999904,-0.0006461921
0.008999905,-0.0006354629
0.009999905,-0.0006250403
0.0109999,-0.0006152307
0.0119999,-0.0006057277
0.0129999,-0.0005962247
0.0139999,-0.0005876414
0.0149999,-0.000579058
0.0159999,-0.0005707812
0.0169999,-0.0005625045
0.0179999,-0.0005548407
0.0189999,-0.000547177
0.0199999,-0.0005398199
0.0209999,-0.0005324627
0.0219999,-0.0005257186
0.02299991,-0.000518668
0.02399991,-0.0005122305
0.02499991,-0.000505793
0.02599991,-0.0004993554
0.0269999,-0.0004932245
0.0279999,-0.0004870935
0.0289999,-0.0004812691
0.0299999,-0.0004757512
0.0309999,-0.0004699268
0.0319999,-0.0004644089
0.0329999,-0.0004588911
0.0339999,-0.0004536798
0.0349999,-0.0004484684
0.03599991,-0.0004432572
0.0369999,-0.0004383524
0.03799991,-0.0004334476
0.0389999,-0.0004285428
0.03999991,-0.000423638
0.0409999,-0.0004190398
0.04199991,-0.0004144416
0.0429999,-0.0004101499
0.0439999,-0.0004055517
0.0449999,-0.00040126
0.0459999,-0.0003969684
0.04699991,-0.0003926767
0.0479999,-0.0003886915
0.04899991,-0.0003843998
0.0499999,-0.0003804147
0.05099991,-0.0003764296
0.0519999,-0.0003724445
0.05299991,-0.0003687659
0.0539999,-0.0003647808
0.0549999,-0.0003611022
0.0559999,-0.0003574236
0.0569999,-0.0003540516
0.05799991,-0.000350373
0.0589999,-0.0003466944
0.05999991,-0.0003433224
0.0609999,-0.0003396438
0.06199991,-0.0003365783
0.0629999,-0.0003328998
0.06399991,-0.0003295277
0.06499991,-0.0003264622
0.0659999,-0.0003230902
0.0669999,-0.0003197182
0.06799991,-0.0003166527
0.0689999,-0.0003135872
0.0699999,-0.0003105217
0.07099991,-0.0003071497
0.07199991,-0.0003043908
0.0729999,-0.0003013253
0.0739999,-0.0002985664
0.07499991,-0.0002955009
0.07599991,-0.0002927419
0.0769999,-0.000289983
0.0779999,-0.0002872241
0.07899991,-0.0002844651
0.0799999,-0.0002817062
0.0809999,-0.0002792538
0.08199991,-0.0002764949
0.08299991,-0.0002737359
0.0839999,-0.000270977
0.0849999,-0.0002685246
0.08599991,-0.0002660722
0.08699991,-0.0002633133
0.0879999,-0.0002608609
0.0889999,-0.0002584085
0.08999991,-0.0002559561
0.0909999,-0.0002535038
0.0919999,-0.0002510514
0.09299991,-0.000248599
0.09399991,-0.0002461466
0.0949999,-0.0002440007
0.0959999,-0.0002415484
0.09699991,-0.0002394025
0.09799991,-0.0002369501
0.0989999,-0.0002348043
0.0999999,-0.0002326585
0.1009999,-0.0002305126
0.1019999,-0.0002283668
0.1029999,-0.0002262209
0.1039999,-0.0002240751
0.1049999,-0.0002219293
0.1059999,-0.0002197834
0.1069999,-0.0002176376
0.1079999,-0.0002154918
0.1089999,-0.0002136525
0.1099999,-0.0002118132
0.1109999,-0.0002096674
0.1119999,-0.0002078281
0.1129999,-0.0002056822
0.1139999,-0.0002038429
0.1149999,-0.0002020036
0.1159999,-0.0001998578
0.1169999,-0.0001980185
0.1179999,-0.0001964858
0.1189999,-0.0001943399
0.1199999,-0.0001925007
0.1209999,-0.0001906613
0.1219999,-0.0001888221
0.1229999,-0.0001872893
0.1239999,-0.00018545
0.1249999,-0.0001836107
0.1259999,-0.000182078
0.1269999,-0.0001802387
0.1279999,-0.0001783994
0.1289999,-0.0001768667
0.1299999,-0.0001750274
0.1309999,-0.0001734946
0.1319999,-0.0001716554
0.1329999,-0.0001701226
0.1339999,-0.0001685899
0.1349999,-0.0001667506
0.1359999,-0.0001652178
0.1369999,-0.0001636851
0.1379999,-0.0001621524
0.1389999,-0.0001606196
0.1399999,-0.0001590869
0.1409999,-0.0001610899
0.1419999,-0.0001596492
0.1429999,-0.0001580858
0.1439999,-0.0001566143
0.1449999,-0.0001551123
0.1459999,-0.0001536408
0.1469999,-0.0001521387
0.1479999,-0.0001506366
0.1489999,-0.0001492265
0.1499999,-0.0001478164
0.1509999,-0.0001463756
0.1519999,-0.0001450268
0.1529999,-0.0001436167
0.1539999,-0.0001422372
0.1549999,-0.0001409497
0.1559999,-0.0001395703
0.1569999,-0.0001382215
0.1579999,-0.0001369646
0.1589999,-0.0001356158
0.1599999,-0.0001343283
0.1609999,-0.0001330101
0.1619999,-0.0001317533
0.1629999,-0.0001304658
0.1639999,-0.000129117
0.1649999,-0.0001277988
0.1659999,-0.0001264806
0.1669999,-0.0001251625
0.1679999,-0.0001240283
0.1689999,-0.0001227714
0.1699999,-0.0001215146
0.1709999,-0.0001203803
0.1719999,-0.0001191235
0.1729999,-0.0001179586
0.1739999,-0.0001167324
0.1749999,-0.0001155982
0.1759999,-0.0001144026
0.1769999,-0.0001132378
0.1779999,-0.0001120422
0.1789999,-0.000111
0.1799999,-0.0001098657
0.1809999,-0.0001087008
0.1819999,-0.000107536
0.1829999,-0.0001063711
0.1839999,-0.0001052675
0.1849999,-0.0001041333
0.1859999,-0.0001029684
0.1869999,-0.0001018955
0.1879999,-0.0001006693
0.1889999,-9.959636E-05
0.1899999,-9.849279E-05
0.1909999,-9.735856E-05
0.1919999,-9.628564E-05
0.1929999,-9.524338E-05
0.1939999,-9.417046E-05
0.1949999,-9.306688E-05
0.1959999,-9.202462E-05
0.1969999,-9.09517E-05
0.1979999,-8.990943E-05
0.1989999,-8.883652E-05
0.1999999,-8.779425E-05
0.2009999,-8.678265E-05
0.2019999,-8.567907E-05
0.2029999,-8.466746E-05
0.2039999,-8.356389E-05
0.2049999,-8.252162E-05
0.2059999,-8.151001E-05
0.2069999,-8.043709E-05
0.2079999,-7.942548E-05
0.2089999,-7.844453E-05
0.2099999,-7.737162E-05
0.2109999,-7.632935E-05
0.2119999,-7.528708E-05
0.2129999,-7.424482E-05
0.2139999,-7.326387E-05
0.2149999,-7.219095E-05
0.2159999,-7.114868E-05
0.2169999,-7.013707E-05
0.2179999,-6.90335E-05
0.2189999,-6.80832E-05
0.2199999,-6.694897E-05
0.2209999,-6.599867E-05
0.2219999,-6.492575E-05
0.2229999,-6.382218E-05
0.2239999,-6.281057E-05
0.2249999,-6.17683E-05
0.2259999,-6.066473E-05
0.2269999,-5.968377E-05
0.2279999,-5.867217E-05
0.2289999,-5.75686E-05
0.2299999,-5.658764E-05
0.2309999,-5.542276E-05
0.2319999,-5.438049E-05
0.2329999,-5.333823E-05
0.2339999,-5.223465E-05
0.2349999,-5.110043E-05
0.2359999,-4.999685E-05
0.2369999,-4.886262E-05
0.2379999,-4.77897E-05
0.2389999,-4.668613E-05
0.2399999,-4.55519E-05
0.2409999,-4.438702E-05
0.2419999,-4.33141E-05
0.2429999,-4.214922E-05
0.2439999,-4.095368E-05
0.2449999,-3.981945E-05
0.2459999,-3.865457E-05
0.2469999,-3.739772E-05
0.2479999,-3.620218E-05
0.2489999,-3.506795E-05
0.2499999,-3.374979E-05
0.2509999,-3.258491E-05
0.2519999,-3.126675E-05
0.2529999,-3.000991E-05
0.2539999,-2.881437E-05
0.2549999,-2.74349E-05
0.2559999,-2.611674E-05
0.2569999,-2.479859E-05
0.2579999,-2.344977E-05
0.2589999,-2.213162E-05
0.2599999,-2.062953E-05
0.2609999,-1.931137E-05
0.2619999,-1.790125E-05
0.2629999,-1.636851E-05
0.2639999,-1.495839E-05
0.2649999,-1.348696E-05
0.2659999,-1.18929E-05
0.2669999,-1.067696E-05
0.2679999,-9.039992E-06
0.2689999,-7.470464E-06
0.2699999,-5.784449E-06
0.2709999,-4.070844E-06
0.2719999,-2.430811E-06
0.2729999,-7.018787E-07
0.2739999,1.125149E-06
0.2749999,2.90926E-06
0.2759999,4.78227E-06
0.2769999,6.621559E-06
0.2779999,8.473111E-06
0.2789999,1.057297E-05
0.2799999,1.250728E-05
0.2809999,1.45489E-05
0.2819999,1.672539E-05
0.2829999,1.874554E-05
0.2839999,2.11029E-05
0.2849999,2.336522E-05
0.2859999,2.557237E-05
0.2869999,2.844885E-05
0.2879999,3.083992E-05
0.2889999,3.329231E-05
0.2899999,3.586731E-05
0.2909999,3.850363E-05
0.2919999,4.132387E-05
0.2929999,4.408281E-05
0.2939999,4.696436E-05
0.2949999,5.009115E-05
0.2959999,5.306467E-05
0.2969999,5.625277E-05
0.2979999,5.956349E-05
0.2989999,6.284356E-05
0.2999999,6.652214E-05
0.3009999,7.007809E-05
0.3019999,7.369537E-05
0.3029999,7.77418E-05
0.3039999,8.169628E-05
0.3049999,8.580402E-05
0.3059999,9.015701E-05
0.3069999,9.481654E-05
0.3079999,9.950672E-05
0.3089999,0.0001043195
0.3099999,0.0001094082
0.3109999,0.0001147422
0.3119999,0.0001202294
0.3129999,0.0001261458
0.3139999,0.0001323074
0.3149999,0.0001387449
0.3159999,0.0001457342
0.3169999,0.0001528155
0.3179999,0.0001604485
0.3189999,0.000168756
0.3199999,0.0001774313
0.3209999,0.0001868423
0.3219999,0.0001969278
0.3229999,0.0002075957
0.3239999,0.0002196123
0.3249999,0.0002323341
0.3259999,0.000246466
0.3269999,0.0002621613
0.3279999,0.000279144
0.3289999,0.0002985792
0.3299999,0.0003237267
0.3309999,0.0003473309
0.3319999,0.0003749202
0.3329999,0.0004055751
0.3339999,0.0004405216
0.3349999,0.0004809859
0.3359999,0.0005260485
0.3369999,0.0005775486
0.3379999,0.0006367125
0.3389999,0.0007035399
0.3399999,0.000780177
0.3409999,0.0008663171
0.3419999,0.0009644126
0.3429999,0.001075383
0.3439999,0.001200455
0.3449999,0.001341773
0.3459999,0.001500259
0.3469999,0.001678363
0.3479999,0.001878233
0.3489999,0.002099867
0.3499999,0.002347558
0.3509999,0.002619773
0.3519999,0.002915592
0.3529999,0.003264856
0.3539999,0.003595928
0.3549999,0.003945393
0.3559999,0.004300989
0.3569999,0.00465965
0.3579999,0.005024442
0.3589999,0.00538617
0.3599999,0.005741765
0.3609999,0.006103492
0.3619999,0.006456023
0.3629999,0.006802422
0.3639999,0.007154953
0.3649999,0.007495221
0.3659999,0.007838556
0.3669999,0.008178824
0.3679999,0.008509896
0.3689999,0.0088471
0.3699999,0.009178172
0.3709999,0.009509244
0.3719999,0.009840316
0.3729999,0.01016526
0.3739999,0.01048713
0.3749999,0.01081207
0.3759999,0.01112782
0.3769999,0.01144356
0.3779999,0.01176237
0.3789999,0.01206892
0.3799999,0.01237854
0.3809999,0.01268815
0.3819999,0.0129855
0.3829999,0.01328592
0.3839999,0.01358327
0.3849999,0.01387449
0.3859999,0.01416264
0.3869999,0.01444467
0.3879999,0.01472363
0.3889999,0.01499646
0.3899999,0.01526315
0.3909999,0.01552679
0.3919999,0.01578429
0.3929999,0.01603259
0.3939999,0.01627783
0.3949999,0.01651694
0.3959999,0.01674991
0.3969999,0.01697982
0.3979999,0.0172036
0.3989999,0.01741819
0.3999999,0.01762664
0.4009999,0.01783816
0.4019999,0.01803128
0.4029999,0.01822747
0.4039999,0.01842367
0.4049999,0.0185984
0.4059999,0.01878539
0.4069999,0.01896013
0.4079999,0.0191226
0.4089999,0.01929733
0.4099999,0.01946286
0.4109999,0.01961614
0.4119999,0.01976941
0.4129999,0.01990736
0.4139999,0.02004531
0.4149999,0.02018326
0.4159999,0.02030281
0.4169999,0.02042543
0.4179999,0.02053885
0.4189999,0.02063695
0.4199999,0.02073811
0.4209999,0.02082394
0.4219999,0.02089751
0.4229999,0.02097415
0.4239999,0.02102626
0.4249999,0.02107224
0.4259999,0.02110903
0.4269999,0.02112129
0.4279999,0.02112436
0.4289999,0.02111823
0.4299999,0.02107838
0.4309999,0.02103239
0.4319999,0.02096189
0.4329999,0.02086379
0.4339999,0.02075037
0.4349999,0.02061242
0.4359999,0.02044382
0.4369999,0.02025376
0.4379999,0.02003304
0.4389999,0.01978474
0.4399999,0.01951191
0.4409999,0.01920843
0.4419999,0.01888042
0.4429999,0.01853402
0.4439999,0.0181539
0.4449999,0.01775846
0.4459999,0.01735381
0.4469999,0.01692158
0.4479999,0.01648935
0.4489999,0.01605098
0.4499999,0.01560036
0.4509999,0.01516199
0.4519999,0.01472976
0.4529999,0.01430059
0.4539999,0.01390208
0.4549999,0.01351583
0.4559999,0.01315104
0.4569999,0.01282303
0.4579999,0.01251648
0.4589999,0.01224672
0.4599999,0.01201987
0.4609999,0.01181755
0.4619999,0.01165815
0.4629999,0.01153246
0.4639999,0.0114313
0.4649999,0.01138225
0.4659999,0.01135773
0.4669999,0.01135773
0.4679999,0.01140065
0.4689999,0.01145889
0.4699999,0.01154166
0.4709999,0.01165815
0.4719999,0.01178383
0.4729999,0.01193404
0.4739999,0.01210264
0.4749999,0.01228044
0.4759999,0.01248276
0.4769999,0.01269121
0.4779999,0.0129058
0.4789999,0.01314184
0.4799999,0.01338708
0.4809999,0.01363845
0.4819999,0.01390208
0.4829999,0.01416878
0.4839999,0.01444467
0.4849999,0.01472669
0.4859999,0.01501485
0.4869999,0.0153122
0.4879999,0.01561568
0.4889999,0.01591917
0.4899999,0.01623185
0.4909999,0.01655066
0.4919999,0.01687253
0.4929999,0.01720054
0.4939999,0.01752548
0.4949999,0.01785962
0.4959999,0.01819989
0.4969999,0.01854016
0.4979999,0.01888349
0.4989999,0.01923602
0.4999999,0.01958548
0.5009999,0.01993801
0.5019999,0.02030281
0.5029999,0.02066147
0.5039999,0.02102013
0.5049999,0.02139412
0.5059999,0.02176198
0.5069999,0.0221329
0.5079999,0.02250996
0.5089999,0.02288394
0.5099999,0.02326713
0.5109999,0.02364725
0.5119999,0.02403043
0.5129999,0.02442588
0.5139999,0.02480294
0.5149999,0.02519532
0.5159999,0.02559383
0.5169999,0.02597702
0.5179999,0.02637246
0.5189999,0.02677711
0.5199999,0.02716336
0.5209999,0.027568
0.5219999,0.02796958
0.5229999,0.02836809
0.5239999,0.02877887
0.5249999,0.02918044
0.5259999,0.02958509
0.5269999,0.03000199
0.5279999,0.03117712
0.5289999,0.03157564
0.5299999,0.03200481
0.5309999,0.03240332
0.5319999,0.03283248
0.5329999,0.03326165
0.5339999,0.03366017
0.5349999,0.03408933
0.5359999,0.0345185
0.5369999,0.03491702
0.5379999,0.03537684
0.5389999,0.03577535
0.5399999,0.03620452
0.5409999,0.03663369
0.5419999,0.03706285
0.5429999,0.03749202
0.5439999,0.03792119
0.5449999,0.03835035
0.5459999,0.03881018
0.5469999,0.03923934
0.5479999,0.03966851
0.5489999,0.04009768
0.5499999,0.04052685
0.5509999,0.04098667
0.5519999,0.04141584
0.5529999,0.04184501
0.5539999,0.04230483
0.5549999,0.04273399
0.5559999,0.04319382
0.5569999,0.04362299
0.5579999,0.04408281
0.5589999,0.04451197
0.5599999,0.04494114
0.5609999,0.04540097
0.5619999,0.04586079
0.5629999,0.04632061
0.5639999,0.04678043
0.5649999,0.0472096
0.5659999,0.04766942
0.5669999,0.04809859
0.5679999,0.04855841
0.5689999,0.04901823
0.5699999,0.0494474
0.5709999,0.04990723
0.5719999,0.05036705
0.5729999,0.05079622
0.5739999,0.05125604
0.5749999,0.05171586
0.5759999,0.05217568
0.5769999,0.0526355
0.5779999,0.05309533
0.5789999,0.05352449
0.5799999,0.05398431
0.5809999,0.05444414
0.5819999,0.05490396
0.5829999,0.05536379
0.5839999,0.05582361
0.5849999,0.05628343
0.5859999,0.05674325
0.5869999,0.05720307
0.5879999,0.05766289
0.5889999,0.05812272
0.5899999,0.05858254
0.5909999,0.05907302
0.5919999,0.05950218
0.5929999,0.059962
0.5939999,0.06045249
0.5949999,0.06088165
0.5959999,0.06137213
0.5969999,0.06183195
0.5979999,0.06229177
0.5989999,0.0627516
0.5999999,0.06321142
0.6009999,0.06367125
0.6019999,0.06416172
0.6029999,0.06462154
0.6039999,0.06508137
0.6049999,0.06554119
0.6059999,0.06600101
0.6069999,0.06646083
0.6079999,0.0669513
0.6089999,0.06738048
0.6099999,0.06787095
0.6109999,0.06833078
0.6119999,0.0687906
0.6129999,0.06928107
0.6139999,0.0697409
0.6149999,0.07020072
0.6159999,0.07066055
0.6169999,0.07115102
0.6179999,0.07161084
0.6189999,0.07207067
0.6199999,0.07256114
0.6209999,0.07302096
0.6219999,0.07348078
0.6229999,0.07400192
0.6239999,0.07443108
0.6249999,0.0748909
0.6259999,0.07538139
0.6269999,0.07584121
0.6279999,0.07630103
0.6289999,0.07679151
0.6299999,0.07728198
0.6309999,0.07774181
0.6319999,0.07823228
0.6329999,0.07869211
0.6339999,0.07918259
0.6349999,0.07961175
0.6359999,0.08007158
0.6369999,0.08056205
0.6379999,0.08105253
0.6389999,0.0814817
0.6399999,0.08197217
0.6409999,0.08246265
0.6419999,0.08292247
0.6429999,0.08341295
0.6439999,0.08387277
0.6449999,0.08433259
0.6459999,0.08485373
0.6469999,0.08531355
0.6479999,0.08580403
0.6489999,0.0862945
0.6499999,0.08675433
0.6509999,0.0872448
0.6519999,0.08770462
0.6529999,0.08819511
0.6539999,0.08868558
0.6549999,0.08914541
0.6559999,0.08963588
0.6569999,0.0900957
0.6579999,0.09058618
0.6589999,0.091046
0.6599999,0.09153648
0.6609999,0.09202696
0.6619999,0.09251743
0.6629999,0.09297726
0.6639999,0.09343708
0.6649999,0.09392755
0.6659999,0.09441803
0.6669999,0.09487786
0.6679999,0.09533768
0.6689999,0.09582815
0.6699999,0.09634929
0.6709999,0.09680911
0.6719999,0.09726893
0.6729999,0.09775941
0.6739999,0.09821923
0.6749999,0.09870971
0.6759999,0.09920018
0.6769999,0.09966001
0.6779999,0.1001505
0.6789999,0.100641
0.6799999,0.1011314
0.6809999,0.1016219
0.6819999,0.1020817
0.6829999,0.1025416
0.6839999,0.103032
0.6849999,0.1035225
0.6859999,0.1039823
0.6869999,0.1044728
0.6879999,0.1049633
0.6889999,0.1054231
0.6899999,0.1059442
0.6909999,0.1064041
0.6919999,0.1068639
0.6929999,0.107385
0.6939999,0.1078448
0.6949999,0.1083353
0.6959999,0.1088258
0.6969999,0.1093163
0.6979999,0.1098068
0.6989999,0.1102972
0.6999999,0.1104198
0.6990002,0.1099907
0.6980002,0.1094389
0.6970002,0.1090097
0.6960002,0.1085192
0.6950002,0.1079981
0.6940002,0.1075383
0.6930002,0.1070785
0.6920002,0.106588
0.6910002,0.1061282
0.6900002,0.1056377
0.6890002,0.1051472
0.6880002,0.104718
0.6870002,0.1041969
0.6860002,0.1037371
0.6850002,0.1032773
0.6840002,0.1027561
0.6830002,0.102327
0.6820002,0.1018365
0.6810002,0.101346
0.6800002,0.1009169
0.6790002,0.1004264
0.6780002,0.0999359
0.6770002,0.09947608
0.6760002,0.0989856
0.6750002,0.09852578
0.6740002,0.0980353
0.6730002,0.09754483
0.6720002,0.097085
0.6710002,0.09662518
0.6700002,0.09616536
0.6690002,0.09570553
0.6680002,0.09521506
0.6670002,0.09472458
0.6660002,0.0942341
0.6650002,0.09380494
0.6640002,0.09331446
0.6630002,0.09282398
0.6620002,0.09236415
0.6610002,0.09184303
0.6600002,0.0913832
0.6590002,0.09092338
0.6580002,0.0904329
0.6570002,0.08997308
0.6560002,0.08951326
0.6550002,0.08902278
0.6540002,0.08856296
0.6530002,0.08810314
0.6520002,0.08761266
0.6510002,0.08715284
0.6500002,0.08666236
0.6490002,0.08620254
0.6480002,0.08574272
0.6470002,0.08525224
0.6460002,0.08476176
0.6450002,0.08433259
0.6440002,0.08384212
0.6430002,0.08335164
0.6420002,0.08289181
0.6410002,0.08243199
0.6400002,0.08197217
0.6390002,0.0814817
0.6380002,0.08105253
0.6370002,0.08059271
0.6360002,0.08013289
0.6350002,0.07967306
0.6340002,0.07921324
0.6330002,0.07875342
0.6320002,0.07829359
0.6310002,0.07780312
0.6300002,0.07734329
0.6290002,0.07688347
0.6280002,0.07642365
0.6270002,0.07593317
0.6260002,0.07547335
0.6250002,0.07501353
0.6240002,0.07452305
0.6230002,0.07406323
0.6220002,0.07360341
0.6210002,0.07311293
0.6200002,0.07268376
0.6190002,0.07219329
0.6180002,0.07173347
0.6170002,0.07127364
0.6160002,0.07081382
0.6150002,0.07032334
0.6140002,0.06986352
0.6130002,0.06937304
0.6120002,0.06891321
0.6110002,0.06848405
0.6100002,0.06799357
0.6090002,0.06756441
0.6080002,0.06710459
0.6070002,0.06661411
0.6060002,0.06618494
0.6050002,0.06569446
0.6040002,0.06526529
0.6030002,0.06480547
0.6020002,0.06434565
0.6010002,0.06388583
0.6000002,0.063426
0.5990002,0.06296618
0.5980002,0.06250636
0.5970002,0.06204654
0.5960002,0.06158672
0.5950002,0.06112689
0.5940002,0.06066707
0.5930002,0.06020725
0.5920002,0.05974742
0.5910002,0.0592876
0.5900002,0.05882778
0.5890002,0.05839861
0.5880002,0.05793879
0.5870002,0.05747896
0.5860002,0.05701914
0.5850002,0.05655932
0.5840002,0.05613015
0.5830002,0.05567033
0.5820002,0.05521051
0.5810002,0.05475069
0.5800002,0.05429087
0.5790002,0.0538617
0.5780002,0.05340188
0.5770002,0.05294205
0.5760002,0.05251288
0.5750002,0.05205306
0.5740002,0.05159324
0.5730002,0.05116407
0.5720002,0.05070425
0.5710002,0.05024443
0.5700002,0.04981526
0.5690002,0.04935544
0.5680002,0.04892627
0.5670002,0.04846645
0.5660002,0.04803728
0.5650002,0.04757746
0.5640002,0.04714829
0.5630002,0.04671912
0.5620002,0.0462593
0.5610002,0.04583013
0.5600002,0.04537031
0.5590002,0.04494114
0.5580002,0.04448132
0.5570002,0.04405215
0.5560002,0.04362299
0.5550002,0.04319382
0.5540002,0.04273399
0.5530002,0.04230483
0.5520002,0.04184501
0.5510002,0.04141584
0.5500002,0.04098667
0.5490002,0.0405575
0.5480002,0.04009768
0.5470002,0.03966851
0.5460002,0.03923934
0.5450002,0.03881018
0.5440002,0.03838101
0.5430002,0.03792119
0.5420002,0.03752267
0.5410002,0.03706285
0.5400002,0.03663369
0.5390002,0.03620452
0.5380002,0.03577535
0.5370002,0.03534618
0.5360002,0.03494767
0.5350002,0.03448785
0.5340002,0.03408933
0.5330002,0.03366017
0.5320002,0.033231
0.5310002,0.03283248
0.5300002,0.03240332
0.5290002,0.03197415
0.5280002,0.03154498
0.5270002,0.03114647
0.5260002,0.0307173
0.5250002,0.03028814
0.5240002,0.02985897
0.5230002,0.02946045
0.5220002,0.02906194
0.5210002,0.02863277
0.5200002,0.02823426
0.5190002,0.0278051
0.5180002,0.02740658
0.5170002,0.02700807
0.5160002,0.0265789
0.5150002,0.02618039
0.5140002,0.02578188
0.5130002,0.02538336
0.5120002,0.0249542
0.5110002,0.02455568
0.5100002,0.02415717
0.5090002,0.02375866
0.5080002,0.02336015
0.5070002,0.02299229
0.5060002,0.02259377
0.5050002,0.02219526
0.5040002,0.02179675
0.5030002,0.02139824
0.5020002,0.02099972
0.5010002,0.02063187
0.5000002,0.02023335
0.4990002,0.0198655
0.4980002,0.01949764
0.4970002,0.01909912
0.4960002,0.01873127
0.4950002,0.01836341
0.4940002,0.01799555
0.4930002,0.01759704
0.4920002,0.01722918
0.4910002,0.01686132
0.4900002,0.01649346
0.4890002,0.01612561
0.4880002,0.0157884
0.4870002,0.01542055
0.4860002,0.01508334
0.4850002,0.01471548
0.4840002,0.01434763
0.4830002,0.01401042
0.4820002,0.01364256
0.4810002,0.01330536
0.4800002,0.01247357
0.4790002,0.01213636
0.4780002,0.01180529
0.4770002,0.01147728
0.4760002,0.01114928
0.4750002,0.0108274
0.4740002,0.01050552
0.4730002,0.01018672
0.4720002,0.009874037
0.4710002,0.009558291
0.4700002,0.009254809
0.4690002,0.008945195
0.4680002,0.008644777
0.4670002,0.008350492
0.4660002,0.008050074
0.4650002,0.007764984
0.4640002,0.007479894
0.4630002,0.007194804
0.4620002,0.00691891
0.4610002,0.006639952
0.4600002,0.006364059
0.4590002,0.006103492
0.4580002,0.005836796
0.4570002,0.005579295
0.4560002,0.005327926
0.4550002,0.005073491
0.4540002,0.004831317
0.4530002,0.00459221
0.4520002,0.004353102
0.4510002,0.004126256
0.4500002,0.003899411
0.4490002,0.00367563
0.4480002,0.003457981
0.4470002,0.003243397
0.4460002,0.003041075
0.4450002,0.002838754
0.4440002,0.002639497
0.4430002,0.002452503
0.4420002,0.002262443
0.4410002,0.002081579
0.4400002,0.001909912
0.4390002,0.00173518
0.4380002,0.001572709
0.4370002,0.001410239
0.4360002,0.001253899
0.4350002,0.00107477
0.4340002,0.0009282398
0.4330002,0.0007899866
0.4320002,0.0006557184
0.4310002,0.0005220634
0.4300002,0.0003991375
0.4290002,0.0002774379
0.4280002,0.0001594168
0.4270002,5.120524E-05
0.4260002,-6.259599E-05
0.4250002,-0.0001646766
0.4240002,-0.0002601663
0.4230002,-0.0003568105
0.4220002,-0.0004463226
0.4210002,-0.0005312365
0.4200002,-0.0006152307
0.4190002,-0.0006921744
0.4180002,-0.0007688114
0.4170002,-0.0008405437
0.4160002,-0.0009101302
0.4150002,-0.0009784905
0.4140002,-0.001037654
0.4130002,-0.001099271
0.4120002,-0.001159354
0.4110002,-0.001211467
0.4100002,-0.001272777
0.4090002,-0.001329795
0.4080002,-0.001371792
0.4070002,-0.00141992
0.4060002,-0.001462837
0.4050002,-0.001503608
0.4040002,-0.001546831
0.4030002,-0.001585456
0.4020002,-0.001624694
0.4010002,-0.001663013
0.4000002,-0.001698572
0.3990002,-0.001735358
0.3980002,-0.001768772
0.3970002,-0.001804332
0.3960002,-0.001839278
0.3950002,-0.001869013
0.3940002,-0.001902734
0.3930002,-0.001933388
0.3920002,-0.001961897
0.3910002,-0.00199715
0.3900002,-0.002025659
0.3890002,-0.002055088
0.3880002,-0.002088808
0.3870002,-0.002115171
0.3860002,-0.00214552
0.3850002,-0.00217832
0.3840002,-0.002204683
0.3830002,-0.002238404
0.3820002,-0.002268139
0.3810002,-0.002299713
0.3800002,-0.002332514
0.3790002,-0.002361636
0.3780002,-0.002396583
0.3770002,-0.002428464
0.3760002,-0.002459732
0.3750002,-0.002496517
0.3740002,-0.002527785
0.3730002,-0.002562119
0.3720002,-0.002599824
0.3710002,-0.002634464
0.3700002,-0.002671863
0.3690002,-0.002708955
0.3680002,-0.002743902
0.3670002,-0.002785592
0.3660002,-0.002822991
0.3650002,-0.002863762
0.3640002,-0.002905453
0.3630002,-0.002944078
0.3620002,-0.002987914
0.3610002,-0.003030524
0.3600002,-0.003037777
0.3590002,-0.003083759
0.3580002,-0.003126675
0.3570002,-0.003175723
0.3560002,-0.003221706
0.3550002,-0.003267688
0.3540002,-0.003319801
0.3530002,-0.003368848
0.3520002,-0.003420962
0.3510002,-0.00347614
0.3500002,-0.003525188
0.3490002,-0.003580367
0.3480002,-0.003638611
0.3470002,-0.003690724
0.3460002,-0.003752034
0.3450002,-0.003813344
0.3440002,-0.003868522
0.3430002,-0.003932897
0.3420002,-0.003994207
0.3410002,-0.004058582
0.3400002,-0.004126023
0.3390002,-0.004190398
0.3380002,-0.004260904
0.3370002,-0.00433141
0.3360002,-0.004398851
0.3350002,-0.004472422
0.3340002,-0.004542928
0.3330002,-0.0046165
0.3320002,-0.004696202
0.3310002,-0.004769774
0.3300002,-0.004852542
0.3290002,-0.00493531
0.3280002,-0.005015012
0.3270002,-0.005103912
0.3260002,-0.005189745
0.3250002,-0.005278645
0.3240002,-0.005367543
0.3230002,-0.005456442
0.3220002,-0.005551472
0.3210002,-0.005649568
0.3200002,-0.005747663
0.3190002,-0.005848824
0.3180002,-0.005946919
0.3170002,-0.00604808
0.3160002,-0.006155372
0.3150002,-0.006259599
0.3140002,-0.006369956
0.3130002,-0.006483379
0.3120002,-0.006593736
0.3110002,-0.006710225
0.3100002,-0.006826713
0.3090002,-0.006946267
0.3080002,-0.007068886
0.3070002,-0.007197636
0.3060002,-0.007323321
0.3050002,-0.00744594
0.3040002,-0.007574691
0.3030002,-0.007706506
0.3020002,-0.007835257
0.3010002,-0.007976269
0.3000002,-0.008114216
0.2990002,-0.008246032
0.2980002,-0.008390109
0.2970002,-0.008531122
0.2960002,-0.008672133
0.2950002,-0.008822342
0.2940002,-0.008969485
0.2930002,-0.009119694
0.2920002,-0.009269902
0.2910002,-0.009417046
0.2900002,-0.009576451
0.2890002,-0.00973279
0.2880002,-0.00988913
0.2870002,-0.01005467
0.2860002,-0.01021101
0.2850002,-0.01037654
0.2840002,-0.01054514
0.2830002,-0.01070455
0.2820002,-0.01087622
0.2810002,-0.01104482
0.2800002,-0.01121342
0.2790002,-0.01139122
0.2780002,-0.01156288
0.2770002,-0.01173762
0.2760002,-0.01191848
0.2750002,-0.01209321
0.2740002,-0.01227408
0.2730002,-0.012458
0.2720002,-0.01263274
0.2710002,-0.01281973
0.2700002,-0.01300366
0.2690002,-0.01318452
0.2680002,-0.01337152
0.2670002,-0.01355545
0.2660002,-0.01373631
0.2650002,-0.01391717
0.2640002,-0.01409497
0.2630002,-0.0142789
0.2620002,-0.01445363
0.2610002,-0.0146253
0.2600002,-0.01480003
0.2590002,-0.0149625
0.2580002,-0.01511884
0.2570002,-0.01527212
0.2560002,-0.01541313
0.2550002,-0.01554495
0.2540002,-0.01566143
0.2530002,-0.01575953
0.2520002,-0.01583617
0.2510002,-0.01589441
0.2500002,-0.01592507
0.2490002,-0.015922
0.2480002,-0.01589135
0.2470002,-0.01582084
0.2460002,-0.01570742
0.2450002,-0.01555108
0.2440002,-0.01533956
0.2430002,-0.01506673
0.2420002,-0.01474179
0.2410002,-0.01436167
0.2400002,-0.0139417
0.2390002,-0.01347881
0.2380002,-0.01299446
0.2370002,-0.01250705
0.2360002,-0.01201351
0.2350002,-0.01153836
0.2340002,-0.01107547
0.2330002,-0.01062485
0.2320002,-0.01020181
0.2310002,-0.009797165
0.2300002,-0.009410915
0.2290002,-0.009064515
0.2280002,-0.008724246
0.2270002,-0.008414633
0.2260002,-0.008141804
0.2250002,-0.007868977
0.2240002,-0.00762987
0.2230002,-0.007415285
0.2220002,-0.007194571
0.2210002,-0.007007576
0.2200002,-0.006832844
0.2190002,-0.006658111
0.2180002,-0.006507902
0.2170002,-0.006357694
0.2160002,-0.006219747
0.2150002,-0.006094063
0.2140002,-0.005968377
0.2130002,-0.005854954
0.2120002,-0.005744598
0.2110002,-0.00563424
0.2100002,-0.005539211
0.2090002,-0.005441115
0.2080002,-0.005343019
0.2070002,-0.005263316
0.2060002,-0.005174418
0.2050002,-0.00509165
0.2040002,-0.005018078
0.2030002,-0.00493531
0.2020002,-0.004858673
0.2010002,-0.004782036
0.2000002,-0.004708464
0.1990002,-0.004637958
0.1980002,-0.004561321
0.1970002,-0.00448775
0.1960002,-0.004417243
0.1950002,-0.004346738
0.1940002,-0.004273166
0.1930002,-0.004208791
0.1920002,-0.004138284
0.1910002,-0.004070844
0.1900002,-0.004006469
0.1890002,-0.003939028
0.1880002,-0.003877719
0.1870002,-0.003816409
0.1860002,-0.003758165
0.1850002,-0.003696855
0.1840002,-0.003638611
0.1830002,-0.003583432
0.1820002,-0.003528254
0.1810002,-0.003473075
0.1800002,-0.003417896
0.1790002,-0.003365783
0.1780002,-0.00331367
0.1770002,-0.003261557
0.1760002,-0.003212509
0.1750002,-0.003160396
0.1740002,-0.003114413
0.1730002,-0.003068431
0.1720002,-0.003019383
0.1710002,-0.002973401
0.1700002,-0.002930485
0.1690002,-0.002884502
0.1680002,-0.002841586
0.1670002,-0.002798669
0.1660002,-0.002758818
0.1650002,-0.002718966
0.1640002,-0.002676049
0.1630002,-0.002636198
0.1620002,-0.002596347
0.1610002,-0.002556496
0.1600002,-0.002516645
0.1590002,-0.002476793
0.1580002,-0.002433876
0.1570002,-0.002394025
0.1560002,-0.002354174
0.1550002,-0.002314323
0.1540002,-0.002274471
0.1530002,-0.00223462
0.1520002,-0.002197834
0.1510002,-0.002164114
0.1500002,-0.002130394
0.1490002,-0.002099739
0.1480002,-0.002069084
0.1470002,-0.002041495
0.1460002,-0.002013905
0.1450002,-0.001989381
0.1440002,-0.001964858
0.1430002,-0.001940334
0.1420002,-0.00191581
0.1410002,-0.001894351
0.1400002,-0.001872893
0.1390002,-0.0018545
0.1380002,-0.001833042
0.1370002,-0.001814649
0.1360002,-0.001796256
0.1350002,-0.001777863
0.1340002,-0.00175947
0.1330002,-0.001741077
0.1320002,-0.00172575
0.1310002,-0.001707357
0.1300002,-0.00169203
0.1290002,-0.001673637
0.1280002,-0.001658309
0.1270002,-0.001642982
0.1260002,-0.00163072
0.1250002,-0.001615393
0.1240002,-0.001637263
0.1230002,-0.001623468
0.1220002,-0.00160998
0.1210002,-0.001596492
0.1200002,-0.00158331
0.1190002,-0.001570129
0.1180002,-0.001557254
0.1170002,-0.001544992
0.1160002,-0.00153273
0.1150002,-0.001520774
0.1140002,-0.001509126
0.1130002,-0.001497477
0.1120002,-0.001485828
0.1110002,-0.001475099
0.1100002,-0.001463756
0.1090002,-0.001452721
0.1080002,-0.001442298
0.1070002,-0.001431569
0.1060002,-0.001421146
0.1050002,-0.00141103
0.1040002,-0.001400914
0.1030002,-0.001391411
0.1020002,-0.001381908
0.1010002,-0.001372098
0.1000002,-0.001362595
0.09900019,-0.001353092
0.09800019,-0.001343896
0.09700019,-0.0013347
0.09600019,-0.001325503
0.09500019,-0.00131692
0.09400019,-0.001308336
0.09300019,-0.001299447
0.09200019,-0.00129117
0.09100019,-0.001282586
0.09000019,-0.00127431
0.08900019,-0.001266339
0.08800019,-0.001258063
0.08700019,-0.001250092
0.08600019,-0.001242735
0.08500019,-0.001234765
0.08400019,-0.001227101
0.08300019,-0.001219744
0.08200019,-0.001212387
0.08100019,-0.001204723
0.08000019,-0.001197673
0.07900019,-0.001190315
0.07800019,-0.001183265
0.07700019,-0.001176214
0.07600019,-0.001169164
0.07500019,-0.001162113
0.07400019,-0.001155369
0.07300019,-0.001148625
0.07200019,-0.001141881
0.07100019,-0.001135443
0.07000019,-0.001129006
0.06900019,-0.001122875
0.06800019,-0.001116437
0.06700019,-0.00111
0.06600019,-0.001103869
0.06500019,-0.001097738
0.06400019,-0.001091607
0.06300019,-0.001085782
0.06200019,-0.001079651
0.06100019,-0.001073827
0.06000019,-0.001068003
0.05900019,-0.001062178
0.05800019,-0.00105666
0.05700019,-0.001050836
0.05600019,-0.001045318
0.05500019,-0.001040107
0.05400019,-0.001034589
0.05300019,-0.001028764
0.05200019,-0.00102386
0.05100019,-0.001018342
0.05000019,-0.001013131
0.04900019,-0.001007919
0.04800019,-0.001002708
0.04700019,-0.0009974964
0.04600019,-0.0009925916
0.04500019,-0.0009873803
0.04400019,-0.0009824756
0.04300019,-0.0009775708
0.04200019,-0.0009729725
0.04100019,-0.0009680677
0.04000019,-0.000963163
0.03900019,-0.0009585648
0.03800019,-0.0009539665
0.03700019,-0.0009493683
0.03600019,-0.0009444635
0.03500019,-0.0009401719
0.03400019,-0.0009355737
0.03300019,-0.0009312819
0.03200019,-0.0009269903
0.03100019,-0.0009223921
0.03000019,-0.0009181004
0.02900019,-0.0009138088
0.02800019,-0.0009095171
0.02700019,-0.0009055319
0.02600019,-0.0009012403
0.02500019,-0.0008969486
0.02400019,-0.0008929634
0.02300019,-0.0008886718
0.02200019,-0.0008846867
0.02100019,-0.0008807015
0.02000019,-0.0008767164
0.01900019,-0.0008727313
0.01800019,-0.0008687461
0.01700019,-0.000864761
0.01600019,-0.0008610824
0.01500019,-0.0008574039
0.01400019,-0.0008534187
0.01300019,-0.0008494336
0.01200019,-0.0008460616
0.01100019,-0.0008420764
0.01000019,-0.0008383978
0.009000191,-0.0008347193
0.00800019,-0.0008310407
0.007000191,-0.0008276686
0.006000191,-0.0008236835
0.005000191,-0.0008203115
0.004000191,-0.0008169395
0.003000191,-0.0008132609
0.002000191,-0.0008095824
0.001000191,-0.0008065169
1.907349E-07,-0.0007957877
0.0009998092,-0.0007770882
0.001999809,-0.0007602281
0.002999809,-0.0007449006
0.003999809,-0.0007301863
0.004999809,-0.0007166982
0.005999809,-0.0007038232
0.006999809,-0.0006915613
0.007999809,-0.0006796059
0.00899981,-0.0006682636
0.009999809,-0.0006578409
0.01099981,-0.0006474183
0.01199981,-0.0006373022
0.01299981,-0.0006277992
0.01399981,-0.0006182962
0.01499981,-0.0006094063
0.01599981,-0.000600823
0.01699981,-0.0005922396
0.01799981,-0.0005839628
0.01899981,-0.0005762991
0.01999981,-0.0005683288
0.02099981,-0.0005606651
0.02199981,-0.000553308
0.02299981,-0.0005462574
0.02399981,-0.0005392068
0.02499981,-0.0005324627
0.02599981,-0.0005257186
0.02699981,-0.0005192811
0.02799981,-0.0005128436
0.02899981,-0.0005067126
0.02999981,-0.0005005816
0.03099981,-0.0004947572
0.03199981,-0.0004886262
0.03299981,-0.0004828018
0.03399981,-0.0004769774
0.03499981,-0.0004717661
0.03599981,-0.0004662482
0.03699981,-0.000461037
0.03799981,-0.0004555191
0.03899981,-0.0004503077
0.03999981,-0.000445403
0.04099981,-0.0004404982
0.04199981,-0.0004359
0.04299981,-0.0004309952
0.04399981,-0.0004260904
0.04499981,-0.0004214922
0.04599981,-0.0004172005
0.04699981,-0.0004122957
0.04799981,-0.0004083106
0.04899981,-0.0004037124
0.04999981,-0.0003994207
0.05099981,-0.0003951291
0.05199981,-0.0003908373
0.05299981,-0.0003868522
0.05399981,-0.0003828671
0.05499981,-0.000378882
0.05599981,-0.0003748969
0.05699981,-0.0003709117
0.05799981,-0.0003672332
0.05899981,-0.0003632481
0.05999981,-0.0003595694
0.06099981,-0.0003558909
0.06199981,-0.0003522123
0.06299981,-0.0003485337
0.06399981,-0.0003451617
0.06499981,-0.0003414831
0.06599981,-0.0003381111
0.06699981,-0.000334739
0.06799981,-0.000331367
0.06899981,-0.000327995
0.06999981,-0.0003246229
0.07099981,-0.0003212509
0.07199981,-0.0003181854
0.07299981,-0.0003151199
0.07399981,-0.0003120545
0.07499981,-0.0003086824
0.07599981,-0.0003059235
0.07699981,-0.000302858
0.07799981,-0.0002997925
0.07899981,-0.0002967271
0.07999981,-0.0002939681
0.08099981,-0.0002912092
0.08199981,-0.0002881437
0.08299981,-0.0002853848
0.08399981,-0.0002826258
0.08499981,-0.0002798669
0.08599981,-0.000277108
0.08699981,-0.000274349
0.08799981,-0.0002715901
0.08899981,-0.0002691377
0.08999981,-0.0002663788
0.09099981,-0.0002639264
0.09199981,-0.0002611674
0.09299981,-0.0002587151
0.09399981,-0.0002562627
0.09499981,-0.0002538103
0.09599981,-0.0002510514
0.09699981,-0.0002489055
0.09799981,-0.0002464531
0.09899981,-0.0002440007
0.09999981,-0.0002415484
0.1009998,-0.000239096
0.1019998,-0.0002369501
0.1029998,-0.0002344978
0.1039998,-0.0002323519
0.1049998,-0.0002298995
0.1059998,-0.0002277537
0.1069998,-0.0002256079
0.1079998,-0.000223462
0.1089998,-0.0002213162
0.1099998,-0.0002188638
0.1109998,-0.0002167179
0.1119998,-0.0002148787
0.1129998,-0.0002127328
0.1139998,-0.000210587
0.1149998,-0.0002084412
0.1159998,-0.0002066019
0.1169998,-0.000204456
0.1179998,-0.0002026167
0.1189998,-0.0002004709
0.1199998,-0.0001986316
0.1209998,-0.0001967923
0.1219998,-0.0001946465
0.1229998,-0.0001928072
0.1239998,-0.0001909679
0.1249998,-0.0001891286
0.1259998,-0.0001872893
0.1269998,-0.00018545
0.1279998,-0.0001836107
0.1289998,-0.0001817715
0.1299998,-0.0001799322
0.1309998,-0.0001783994
0.1319998,-0.0001765601
0.1329998,-0.0001750274
0.1339998,-0.0001731881
0.1349998,-0.0001716554
0.1359998,-0.0001698161
0.1369998,-0.0001682833
0.1379998,-0.000166444
0.1389998,-0.0001649113
0.1399998,-0.000163072
0.1409998,-0.0001615393
0.1419998,-0.0001600065
0.1429998,-0.0001617644
0.1439998,-0.0001601703
0.1449998,-0.0001586376
0.1459998,-0.0001571048
0.1469998,-0.0001555108
0.1479998,-0.000153978
0.1489998,-0.0001524146
0.1499998,-0.0001509125
0.1509998,-0.0001494105
0.1519998,-0.000147939
0.1529998,-0.0001464982
0.1539998,-0.0001450575
0.1549998,-0.0001436473
0.1559998,-0.0001422066
0.1569998,-0.0001408271
0.1579998,-0.0001395089
0.1589998,-0.0001380682
0.1599998,-0.0001367194
0.1609998,-0.0001353399
0.1619998,-0.0001338685
0.1629998,-0.0001325196
0.1639998,-0.0001311708
0.1649998,-0.0001298527
0.1659998,-0.0001285652
0.1669998,-0.0001273083
0.1679998,-0.0001260208
0.1689998,-0.000124764
0.1699998,-0.0001234765
0.1709998,-0.0001221583
0.1719998,-0.0001208095
0.1729998,-0.0001195527
0.1739998,-0.0001183571
0.1749998,-0.0001170696
0.1759998,-0.0001159047
0.1769998,-0.0001146479
0.1779998,-0.000113483
0.1789998,-0.0001123794
0.1799998,-0.0001110919
0.1809998,-0.000109927
0.1819998,-0.0001087928
0.1829998,-0.0001075053
0.1839998,-0.0001063098
0.1849998,-0.0001051142
0.1859998,-0.00010398
0.1869998,-0.0001028458
0.1879998,-0.0001016809
0.1889998,-0.0001005773
0.1899998,-9.947374E-05
0.1909998,-9.833951E-05
0.1919998,-9.717463E-05
0.1929998,-9.610171E-05
0.1939998,-9.499813E-05
0.1949998,-9.395587E-05
0.1959998,-9.276033E-05
0.1969998,-9.171807E-05
0.1979998,-9.064515E-05
0.1989998,-8.951092E-05
0.1999998,-8.8438E-05
0.2009998,-8.739574E-05
0.2019998,-8.626151E-05
0.2029998,-8.521925E-05
0.2039998,-8.411567E-05
0.2049998,-8.304276E-05
0.2059998,-8.200049E-05
0.2069998,-8.089692E-05
0.2079998,-7.991596E-05
0.2089998,-7.884304E-05
0.2099998,-7.777012E-05
0.2109998,-7.669721E-05
0.2119998,-7.56856E-05
0.2129998,-7.464333E-05
0.2139998,-7.360106E-05
0.2149998,-7.252815E-05
0.2159998,-7.148589E-05
0.2169998,-7.047428E-05
0.2179998,-6.943201E-05
0.2189998,-6.838975E-05
0.2199998,-6.737814E-05
0.2209998,-6.633587E-05
0.2219998,-6.538557E-05
0.2229998,-6.434331E-05
0.2239998,-6.32704E-05
0.2249998,-6.210551E-05
0.2259998,-6.097128E-05
0.2269998,-6.005164E-05
0.2279998,-5.891741E-05
0.2289998,-5.79058E-05
0.2299998,-5.70168E-05
0.2309998,-5.579061E-05
0.2319998,-5.465639E-05
0.2329998,-5.367543E-05
0.2339998,-5.260251E-05
0.2349998,-5.162156E-05
0.2359998,-5.042602E-05
0.2369998,-4.923048E-05
0.2379998,-4.824953E-05
0.2389998,-4.71153E-05
0.2399998,-4.613434E-05
0.2409998,-4.490815E-05
0.2419998,-4.368196E-05
0.2429998,-4.260904E-05
0.2439998,-4.150547E-05
0.2449998,-4.043255E-05
0.2459998,-3.914504E-05
0.2469998,-3.794951E-05
0.2479998,-3.681528E-05
0.2489998,-3.56504E-05
0.2499998,-3.445486E-05
0.2509998,-3.322866E-05
0.2519998,-3.184919E-05
0.2529998,-3.065366E-05
0.2539998,-2.942747E-05
0.2549998,-2.807865E-05
0.2559998,-2.688312E-05
0.2569998,-2.556496E-05
0.2579998,-2.421614E-05
0.2589998,-2.280602E-05
0.2599998,-2.136525E-05
0.2609998,-2.01084E-05
0.2619998,-1.863697E-05
0.2629998,-1.722684E-05
0.2639998,-1.581672E-05
0.2649998,-1.425333E-05
0.2659998,-1.265927E-05
0.2669998,-1.14372E-05
0.2679998,-9.913653E-06
0.2689998,-8.371716E-06
0.2699998,-6.845106E-06
0.2709998,-5.060995E-06
0.2719998,-3.350456E-06
0.2729998,-1.621523E-06
0.2739998,1.22736E-07
0.2749998,1.876192E-06
0.2759998,3.678696E-06
0.2769998,5.45361E-06
0.2779998,7.427781E-06
0.2789998,9.463261E-06
0.2799998,1.149261E-05
0.2809998,1.348824E-05
0.2819998,1.559116E-05
0.2829998,1.758066E-05
0.2839998,1.98767E-05
0.2849998,2.204707E-05
0.2859998,2.43707E-05
0.2869998,2.7192E-05
0.2879998,2.961373E-05
0.2889998,3.203546E-05
0.2899998,3.464112E-05
0.2909998,3.712416E-05
0.2919998,3.997506E-05
0.2929998,4.288727E-05
0.2939998,4.576882E-05
0.2949998,4.874234E-05
0.2959998,5.171586E-05
0.2969998,5.481199E-05
0.2979998,5.818402E-05
0.2989998,6.158671E-05
0.2999998,6.520398E-05
0.3009998,6.879059E-05
0.3019998,7.246917E-05
0.3029998,7.64543E-05
0.3039998,8.040878E-05
0.3049998,8.466979E-05
0.3059998,8.91454E-05
0.3069998,9.377428E-05
0.3079998,9.846447E-05
0.3089998,0.0001033692
0.3099998,0.0001084579
0.3109998,0.0001140065
0.3119998,0.0001197082
0.3129998,0.0001256859
0.3139998,0.0001319702
0.3149998,0.0001384997
0.3159998,0.0001455809
0.3169998,0.0001529074
0.3179998,0.0001606938
0.3189998,0.0001693384
0.3199998,0.0001783509
0.3209998,0.0001879459
0.3219998,0.0001983379
0.3229998,0.0002094349
0.3239998,0.0002218195
0.3249998,0.0002348478
0.3259998,0.0002496541
0.3269998,0.0002658705
0.3279998,0.0002834663
0.3289998,0.0003035759
0.3299998,0.0003292445
0.3309998,0.0003537684
0.3319998,0.0003825839
0.3329998,0.0004138518
0.3339998,0.0004500245
0.3349998,0.0004914086
0.3359998,0.0005373908
0.3369998,0.0005904236
0.3379998,0.0006508137
0.3389998,0.0007188674
0.3399998,0.0007967306
0.3409998,0.0008840969
0.3419998,0.0009831119
0.3429998,0.001095309
0.3439998,0.001219767
0.3449998,0.001360779
0.3459998,0.001518958
0.3469998,0.00169461
0.3479998,0.001892028
0.3489998,0.002110597
0.3499998,0.002353689
0.3509998,0.002621613
0.3519998,0.00291314
0.3529998,0.003255659
0.3539998,0.003586731
0.3549998,0.003936196
0.3559998,0.004294858
0.3569998,0.00465965
0.3579998,0.005027508
0.3589998,0.005395366
0.3599998,0.005760158
0.3609998,0.006124951
0.3619998,0.006480547
0.3629998,0.006836143
0.3639998,0.007188674
0.3649998,0.007535073
0.3659998,0.007881473
0.3669998,0.008218676
0.3679998,0.008555878
0.3689998,0.008893081
0.3699998,0.009221088
0.3709998,0.009555226
0.3719998,0.009883232
0.3729998,0.01020204
0.3739998,0.01053005
0.3749998,0.01084886
0.3759998,0.01116154
0.3769998,0.01147728
0.3779998,0.0117869
0.3789998,0.01209344
0.3799998,0.01240306
0.3809998,0.01269428
0.3819998,0.01299776
0.3829998,0.01329205
0.3839998,0.01357407
0.3849998,0.01386529
0.3859998,0.01414732
0.3869998,0.01441401
0.3879998,0.01468991
0.3889998,0.01495354
0.3899998,0.01521104
0.3909998,0.01546854
0.3919998,0.01571685
0.3929998,0.01595902
0.3939998,0.01619506
0.3949998,0.01642804
0.3959998,0.01666101
0.3969998,0.01687866
0.3979998,0.01709325
0.3989998,0.0173109
0.3999998,0.01751015
0.4009998,0.01770634
0.4019998,0.0179056
0.4029998,0.01809566
0.4039998,0.01828265
0.4049998,0.01846045
0.4059998,0.01863518
0.4069998,0.01880992
0.4079998,0.01897239
0.4089998,0.01913486
0.4099998,0.01930652
0.4109998,0.0194506
0.4119998,0.01959161
0.4129998,0.01973263
0.4139998,0.01986444
0.4149998,0.019984
0.4159998,0.02010968
0.4169998,0.02021698
0.4179998,0.02032427
0.4189998,0.02042543
0.4199998,0.0205082
0.4209998,0.02058483
0.4219998,0.02065534
0.4229998,0.02071052
0.4239998,0.02075037
0.4249998,0.02078716
0.4259998,0.02079942
0.4269998,0.02079942
0.4279998,0.02078716
0.4289998,0.02075343
0.4299998,0.02070132
0.4309998,0.02062468
0.4319998,0.02052965
0.4329998,0.02041316
0.4339998,0.02025683
0.4349998,0.02010049
0.4359998,0.01989816
0.4369998,0.01966519
0.4379998,0.01942914
0.4389998,0.01915938
0.4399998,0.0188467
0.4409998,0.01852483
0.4419998,0.01818149
0.4429998,0.01781364
0.4439998,0.01742432
0.4449998,0.01702581
0.4459998,0.01661197
0.4469998,0.01618893
0.4479998,0.0157567
0.4489998,0.01533059
0.4499998,0.01491675
0.4509998,0.01449065
0.4519998,0.01409214
0.4529998,0.01371508
0.4539998,0.0133319
0.4549998,0.01299163
0.4559998,0.01267895
0.4569998,0.01237854
0.4579998,0.01212717
0.4589998,0.01190032
0.4599998,0.01170719
0.4609998,0.01155392
0.4619998,0.01141904
0.4629998,0.01134853
0.4639998,0.01128109
0.4649998,0.01123511
0.4659998,0.01126883
0.4669998,0.01131788
0.4679998,0.01131175
0.4689998,0.01146502
0.4699998,0.01159684
0.4709998,0.01165508
0.4719998,0.01182368
0.4729998,0.01201681
0.4739998,0.01214862
0.4749998,0.01234175
0.4759998,0.01258086
0.4769998,0.01277092
0.4779998,0.01299163
0.4789998,0.013243
0.4799998,0.01348824
0.4809998,0.01373348
0.4819998,0.01399711
0.4829998,0.01427607
0.4839998,0.0145489
0.4849998,0.01482479
0.4859998,0.01512827
0.4869998,0.01542869
0.4879998,0.01571378
0.4889998,0.01602952
0.4899998,0.01634527
0.4909998,0.01665182
0.4919998,0.01697982
0.4929998,0.01730783
0.4939998,0.0176389
0.4949998,0.01796998
0.4959998,0.01830105
0.4969998,0.01866277
0.4979998,0.01899078
0.4989998,0.01934025
0.4999998,0.0197081
0.5009998,0.02004837
0.5019998,0.02040703
0.5029998,0.02077489
0.5039998,0.02112742
0.5049998,0.02149528
0.5059998,0.0218662
0.5069998,0.02221873
0.5079998,0.02260805
0.5089998,0.02298204
0.5099998,0.0233499
0.5109998,0.02374228
0.5119998,0.02412547
0.5129998,0.02449639
0.5139998,0.02489184
0.5149998,0.02528115
0.5159998,0.02565821
0.5169998,0.02605365
0.5179998,0.0264491
0.5189998,0.02683229
0.5199998,0.0272308
0.5209998,0.02762931
0.5219998,0.02801863
0.5229998,0.02842327
0.5239998,0.02882179
0.5249998,0.0292203
0.5259998,0.02963107
0.5269998,0.03003265
0.5279998,0.03120778
0.5289998,0.03160629
0.5299998,0.03200481
0.5309998,0.03243398
0.5319998,0.03286314
0.5329998,0.03326165
0.5339998,0.03369082
0.5349998,0.03411999
0.5359998,0.0345185
0.5369998,0.03494767
0.5379998,0.03537684
0.5389998,0.03577535
0.5399998,0.03620452
0.5409998,0.03663369
0.5419998,0.03706285
0.5429998,0.03749202
0.5439998,0.03792119
0.5449998,0.03835035
0.5459998,0.03881018
0.5469998,0.03923934
0.5479998,0.03966851
0.5489998,0.04009768
0.5499998,0.04052685
0.5509998,0.04098667
0.5519998,0.04141584
0.5529998,0.04184501
0.5539998,0.04230483
0.5549998,0.04273399
0.5559998,0.04316316
0.5569998,0.04362299
0.5579998,0.04405215
0.5589998,0.04448132
0.5599998,0.04494114
0.5609998,0.04537031
0.5619998,0.04583013
0.5629998,0.04628995
0.5639998,0.04671912
0.5649998,0.04717895
0.5659998,0.04760811
0.5669998,0.04806793
0.5679998,0.04852776
0.5689998,0.04895693
0.5699998,0.04941675
0.5709998,0.04984592
0.5719998,0.05030574
0.5729998,0.05073491
0.5739998,0.05116407
0.5749998,0.05165455
0.5759998,0.05208372
0.5769998,0.05254354
0.5779998,0.05303402
0.5789998,0.05346319
0.5799998,0.05392301
0.5809998,0.05438283
0.5819998,0.05484265
0.5829998,0.05527182
0.5839998,0.0557623
0.5849998,0.05619146
0.5859998,0.05665129
0.5869998,0.05711111
0.5879998,0.05757093
0.5889998,0.05803075
0.5899998,0.05849057
0.5909998,0.05891975
0.5919998,0.05941022
0.5929998,0.05987004
0.5939998,0.06029921
0.5949998,0.06078969
0.5959998,0.06121886
0.5969998,0.06167868
0.5979998,0.0621385
0.5989998,0.06259833
0.5999998,0.0630888
0.6009998,0.06354862
0.6019998,0.06400844
0.6029998,0.06446826
0.6039998,0.06492809
0.6049998,0.06538791
0.6059998,0.06584774
0.6069998,0.06630756
0.6079998,0.06676738
0.6089998,0.06725786
0.6099998,0.06768703
0.6109998,0.06814685
0.6119998,0.06866798
0.6129998,0.06906649
0.6139998,0.06967959
0.6149998,0.07001679
0.6159998,0.07047661
0.6169998,0.07096709
0.6179998,0.07139625
0.6189998,0.07194804
0.6199998,0.07237721
0.6209998,0.07289835
0.6219998,0.07338882
0.6229998,0.07375668
0.6239998,0.07427781
0.6249998,0.07476829
0.6259998,0.07516681
0.6269998,0.07562663
0.6279998,0.07620906
0.6289998,0.07657693
0.6299998,0.0770674
0.6309998,0.07761919
0.6319998,0.0780177
0.6329998,0.07847752
0.6339998,0.07905997
0.6349998,0.07939716
0.6359998,0.07988765
0.6369998,0.08050074
0.6379998,0.08086859
0.6389998,0.08126711
0.6399998,0.0818189
0.6409998,0.08230938
0.6419998,0.08270789
0.6429998,0.08319836
0.6439998,0.0837195
0.6449998,0.08417932
0.6459998,0.08448587
0.6469998,0.08512962
0.6479998,0.08558945
0.6489998,0.08592664
0.6499998,0.08653974
0.6509998,0.08703022
0.6519998,0.08736742
0.6529998,0.08794986
0.6539998,0.088471
0.6549998,0.0888695
0.6559998,0.08932933
0.6569998,0.08985046
0.6579998,0.09031029
0.6589998,0.09077011
0.6599998,0.09126058
0.6609998,0.09175106
0.6619998,0.09221088
0.6629998,0.09267071
0.6639998,0.09316119
0.6649998,0.09365166
0.6659998,0.09411149
0.6669998,0.09460196
0.6679998,0.09509244
0.6689998,0.09558292
0.6699998,0.09601208
0.6709998,0.09653322
0.6719998,0.09699304
0.6729998,0.09748352
0.6739998,0.09791268
0.6749998,0.09843381
0.6759998,0.09901626
0.6769998,0.0993228
0.6779998,0.09978263
0.6789998,0.1003651
0.6799998,0.1007942
0.6809998,0.1012234
0.6819998,0.1017752
0.6829998,0.1022657
0.6839998,0.1026642
0.6849998,0.1031853
0.6859998,0.1036758
0.6869998,0.1041356
0.6879998,0.1046261
0.6889998,0.1051166
0.6899998,0.1055764
0.6909998,0.1060362
0.6919998,0.1065267
0.6929998,0.1070478
0.6939998,0.1075076
0.6949998,0.1079675
0.6959998,0.1084886
0.6969998,0.1089484
0.6979998,0.1094082
0.6989998,0.1098987
0.6999998,0.110052
0.6990003,0.1095615
0.6980003,0.1091017
0.6970003,0.1085806
0.6960003,0.1082127
0.6950003,0.1076303
0.6940003,0.1071704
0.6930003,0.1067413
0.6920003,0.1062815
0.6910003,0.1057603
0.6900003,0.1053005
0.6890003,0.1048407
0.6880003,0.1043195
0.6870003,0.1038597
0.6860003,0.1033999
0.6850003,0.1028788
0.6840003,0.1024496
0.6830003,0.1019898
0.6820003,0.1014993
0.6810003,0.1010088
0.6800003,0.100549
0.6790003,0.1000892
0.6780003,0.0995987
0.6770003,0.09913888
0.6760003,0.09867906
0.6750003,0.09818857
0.6740003,0.09772875
0.6730003,0.09726893
0.6720003,0.09677845
0.6710003,0.09628798
0.6700003,0.0958588
0.6690003,0.09536833
0.6680003,0.09487786
0.6670003,0.09441803
0.6660003,0.09395821
0.6650003,0.09346773
0.6640003,0.09300791
0.6630003,0.09251743
0.6620003,0.09205761
0.6610003,0.09156714
0.6600003,0.09107666
0.6590003,0.09061684
0.6580003,0.09015701
0.6570003,0.08969719
0.6560003,0.08920672
0.6550003,0.08871623
0.6540003,0.08825641
0.6530003,0.08779659
0.6520003,0.08730611
0.6510003,0.08684629
0.6500003,0.08638646
0.6490003,0.08598796
0.6480003,0.08549748
0.6470003,0.085007
0.6460003,0.08454718
0.6450003,0.0840567
0.6440003,0.08359688
0.6430003,0.08313706
0.6420003,0.08267724
0.6410003,0.08218676
0.6400003,0.08172693
0.6390003,0.08126711
0.6380003,0.08080729
0.6370003,0.08034747
0.6360003,0.07988765
0.6350003,0.07939716
0.6340003,0.078968
0.6330003,0.07847752
0.6320003,0.0780177
0.6310003,0.07755788
0.6300003,0.0770674
0.6290003,0.07660758
0.6280003,0.07614776
0.6270003,0.07568794
0.6260003,0.07519746
0.6250003,0.07473763
0.6240003,0.07427781
0.6230003,0.07381799
0.6220003,0.07335817
0.6210003,0.07289835
0.6200003,0.07243852
0.6190003,0.0719787
0.6180003,0.07148822
0.6170003,0.07105906
0.6160003,0.07056858
0.6150003,0.07010876
0.6140003,0.06964894
0.6130003,0.06915846
0.6120003,0.06869864
0.6110003,0.06826947
0.6100003,0.06777899
0.6090003,0.06734982
0.6080003,0.06685934
0.6070003,0.06639952
0.6060003,0.06597035
0.6050003,0.06551053
0.6040003,0.06505071
0.6030003,0.06459089
0.6020003,0.06410041
0.6010003,0.06367125
0.6000003,0.06321142
0.5990003,0.0627516
0.5980003,0.06229177
0.5970003,0.06186261
0.5960003,0.06137213
0.5950003,0.06091231
0.5940003,0.06048314
0.5930003,0.06002332
0.5920003,0.0595635
0.5910003,0.05910368
0.5900003,0.05864385
0.5890003,0.05821468
0.5880003,0.05775486
0.5870003,0.05732569
0.5860003,0.05686587
0.5850003,0.05640605
0.5840003,0.05597688
0.5830003,0.05551706
0.5820003,0.05505724
0.5810003,0.05459742
0.5800003,0.05416824
0.5790003,0.05367777
0.5780003,0.0532486
0.5770003,0.05278878
0.5760003,0.05235961
0.5750003,0.05189979
0.5740003,0.05147062
0.5730003,0.0510108
0.5720003,0.05055097
0.5710003,0.05012181
0.5700003,0.04969264
0.5690003,0.04923282
0.5680003,0.04880365
0.5670003,0.04834383
0.5660003,0.04791466
0.5650003,0.04745484
0.5640003,0.04702567
0.5630003,0.04656585
0.5620003,0.04613668
0.5610003,0.04570751
0.5600003,0.04524769
0.5590003,0.04481852
0.5580003,0.0443587
0.5570003,0.04392953
0.5560003,0.04350037
0.5550003,0.04304054
0.5540003,0.04261138
0.5530003,0.04218221
0.5520003,0.04175304
0.5510003,0.04129322
0.5500003,0.04086405
0.5490003,0.04043488
0.5480003,0.04000572
0.5470003,0.03957655
0.5460003,0.03914738
0.5450003,0.03868756
0.5440003,0.03828905
0.5430003,0.03782922
0.5420003,0.03740006
0.5410003,0.03697089
0.5400003,0.03654172
0.5390003,0.03614321
0.5380003,0.03568339
0.5370003,0.03528487
0.5360003,0.0348557
0.5350003,0.03442654
0.5340003,0.03402802
0.5330003,0.03359886
0.5320003,0.03316969
0.5310003,0.03274052
0.5300003,0.03234201
0.5290003,0.03191284
0.5280003,0.03148368
0.5270003,0.03108516
0.5260003,0.03065599
0.5250003,0.03022683
0.5240003,0.02982831
0.5230003,0.02939915
0.5220003,0.02900063
0.5210003,0.02857147
0.5200003,0.02817295
0.5190003,0.02777444
0.5180003,0.02734527
0.5170003,0.02697741
0.5160003,0.02654825
0.5150003,0.02614973
0.5140003,0.02575122
0.5130003,0.02541402
0.5120003,0.0249542
0.5110003,0.02452503
0.5100003,0.02418783
0.5090003,0.02375866
0.5080003,0.02332949
0.5070003,0.02296163
0.5060003,0.02259377
0.5050003,0.02216461
0.5040003,0.02176609
0.5030003,0.02139824
0.5020003,0.02099972
0.5010003,0.02060121
0.5000003,0.02023335
0.4990003,0.0198655
0.4980003,0.01946698
0.4970003,0.01909912
0.4960003,0.01873127
0.4950003,0.01836341
0.4940003,0.01799555
0.4930003,0.01762769
0.4920003,0.01725983
0.4910003,0.01689198
0.4900003,0.01652412
0.4890003,0.01618692
0.4880003,0.01581906
0.4870003,0.0154512
0.4860003,0.015114
0.4850003,0.01474614
0.4840003,0.01437828
0.4830003,0.01404108
0.4820003,0.01370388
0.4810003,0.01333602
0.4800003,0.01251035
0.4790003,0.01217928
0.4780003,0.01184514
0.4770003,0.01151407
0.4760003,0.01119219
0.4750003,0.01087338
0.4740003,0.01054538
0.4730003,0.01022963
0.4720003,0.009923084
0.4710003,0.009604273
0.4700003,0.009297726
0.4690003,0.009000373
0.4680003,0.00869689
0.4670003,0.008396474
0.4660003,0.008105253
0.4650003,0.007817097
0.4640003,0.007528942
0.4630003,0.007246917
0.4620003,0.006967959
0.4610003,0.006692065
0.4600003,0.006419237
0.4590003,0.006155606
0.4580003,0.005891975
0.4570003,0.005631408
0.4560003,0.005380039
0.4550003,0.005131735
0.4540003,0.004886496
0.4530003,0.004647388
0.4520003,0.004408281
0.4510003,0.004178369
0.4500003,0.003951524
0.4490003,0.003727744
0.4480003,0.00351316
0.4470003,0.003298576
0.4460003,0.003093189
0.4450003,0.002890867
0.4440003,0.00269161
0.4430003,0.002501551
0.4420003,0.00231149
0.4410003,0.002130627
0.4400003,0.001952829
0.4390003,0.001781162
0.4380003,0.001618691
0.4370003,0.001453156
0.4360003,0.00129375
0.4350003,0.001146607
0.4340003,0.0009656387
0.4330003,0.0008249331
0.4320003,0.0006903584
0.4310003,0.000554251
0.4300003,0.0004285662
0.4290003,0.0003047207
0.4280003,0.0001854734
0.4270003,7.45029E-05
0.4260003,-4.086172E-05
0.4250003,-0.0001446283
0.4240003,-0.0002428464
0.4230003,-0.0003422906
0.4220003,-0.0004346738
0.4210003,-0.00052204
0.4200003,-0.0006084866
0.4190003,-0.0006857368
0.4180003,-0.000766359
0.4170003,-0.0008402371
0.4160003,-0.0009095171
0.4150003,-0.0009809429
0.4140003,-0.001043785
0.4130003,-0.001105708
0.4120003,-0.00116855
0.4110003,-0.00122281
0.4100003,-0.001284426
0.4090003,-0.001342363
0.4080003,-0.001387426
0.4070003,-0.0014377
0.4060003,-0.001482149
0.4050003,-0.001525986
0.4040003,-0.001569209
0.4030003,-0.001609673
0.4020003,-0.001651977
0.4010003,-0.001689989
0.4000003,-0.001725855
0.3990003,-0.00176632
0.3980003,-0.001799733
0.3970003,-0.001834986
0.3960003,-0.001872998
0.3950003,-0.001902427
0.3940003,-0.001934001
0.3930003,-0.001966496
0.3920003,-0.001999909
0.3910003,-0.002035162
0.3900003,-0.002066737
0.3890003,-0.002099231
0.3880003,-0.002131725
0.3870003,-0.00216146
0.3860003,-0.002197939
0.3850003,-0.002219398
0.3840003,-0.002256797
0.3830003,-0.002294196
0.3820003,-0.002313202
0.3810003,-0.002350294
0.3800003,-0.002389226
0.3790003,-0.002411297
0.3780003,-0.002455133
0.3770003,-0.002473833
0.3760003,-0.00253177
0.3750003,-0.002564878
0.3740003,-0.002581125
0.3730003,-0.0026268
0.3720003,-0.002668491
0.3710003,-0.002695467
0.3700003,-0.002736545
0.3690003,-0.002782834
0.3680003,-0.002810423
0.3670003,-0.002847209
0.3660003,-0.002901161
0.3650003,-0.002937027
0.3640003,-0.002978105
0.3630003,-0.003025313
0.3620003,-0.003037777
0.3610003,-0.003068431
0.3600003,-0.003120545
0.3590003,-0.003172658
0.3580003,-0.003212509
0.3570003,-0.00325236
0.3560003,-0.003319801
0.3550003,-0.003365783
0.3540003,-0.003402569
0.3530003,-0.003470009
0.3520003,-0.00353745
0.3510003,-0.00357117
0.3500003,-0.003614087
0.3490003,-0.003699921
0.3480003,-0.003764296
0.3470003,-0.003782689
0.3460003,-0.003862391
0.3450003,-0.00395129
0.3440003,-0.003988076
0.3430003,-0.004037124
0.3420003,-0.004126023
0.3410003,-0.004196529
0.3400003,-0.004254773
0.3390003,-0.004325279
0.3380003,-0.004404982
0.3370003,-0.00448775
0.3360003,-0.004533732
0.3350003,-0.004595041
0.3340003,-0.004714595
0.3330003,-0.004797364
0.3320003,-0.004818822
0.3310003,-0.004950637
0.3300003,-0.005048733
0.3290003,-0.005152959
0.3280003,-0.005143763
0.3270003,-0.005318495
0.3260003,-0.005434984
0.3250003,-0.005398198
0.3240003,-0.005585192
0.3230003,-0.005692484
0.3220003,-0.005717008
0.3210003,-0.005870283
0.3200003,-0.005977574
0.3190003,-0.006005164
0.3180003,-0.006100194
0.3170003,-0.006308646
0.3160003,-0.006357694
0.3150003,-0.006400611
0.3140003,-0.006609064
0.3130003,-0.00671329
0.3120003,-0.00674701
0.3110003,-0.006924808
0.3100003,-0.007068886
0.3090003,-0.00712713
0.3080003,-0.007277339
0.3070003,-0.007433678
0.3060003,-0.007519512
0.3050003,-0.007620673
0.3040003,-0.00782606
0.3030003,-0.007927221
0.3020003,-0.007991596
0.3010003,-0.00820618
0.3000003,-0.008356389
0.2990003,-0.008380912
0.2980003,-0.008604692
0.2970003,-0.008803949
0.2960003,-0.008834604
0.2950003,-0.009003206
0.2940003,-0.009236182
0.2930003,-0.009315885
0.2920003,-0.009429308
0.2910003,-0.009662284
0.2900003,-0.009806362
0.2890003,-0.00989526
0.2880003,-0.01009758
0.2870003,-0.01029684
0.2860003,-0.01039494
0.2850003,-0.01055434
0.2840003,-0.01077505
0.2830003,-0.01090687
0.2820003,-0.01103869
0.2810003,-0.01125327
0.2800003,-0.011428
0.2790003,-0.01155675
0.2780003,-0.01174681
0.2770003,-0.01194913
0.2760003,-0.01209015
0.2750003,-0.01225568
0.2740003,-0.0124672
0.2730003,-0.0126358
0.2720003,-0.01278295
0.2710003,-0.01298833
0.2700003,-0.01317533
0.2690003,-0.01332554
0.2680003,-0.01350947
0.2670003,-0.01370566
0.2660003,-0.013862
0.2650003,-0.01402447
0.2640003,-0.01421759
0.2630003,-0.01438619
0.2620003,-0.0145364
0.2610003,-0.0147234
0.2600003,-0.01483988
0.2590003,-0.01499316
0.2580003,-0.01517096
0.2570003,-0.01525679
0.2560003,-0.01539474
0.2550003,-0.01541619
0.2540003,-0.01561239
0.2530003,-0.01570742
0.2520003,-0.01554495
0.2510003,-0.01562465
0.2500003,-0.01574727
0.2490003,-0.01543459
0.2480003,-0.01534875
0.2470003,-0.01543152
0.2460003,-0.01506673
0.2450003,-0.01467741
0.2440003,-0.01448429
0.2430003,-0.01436167
0.2420003,-0.01355545
0.2410003,-0.01308949
0.2400003,-0.0129117
0.2390003,-0.01228634
0.2380003,-0.01167324
0.2370003,-0.01141881
0.2360003,-0.01075053
0.2350003,-0.0103888
0.2340003,-0.01003627
0.2330003,-0.009530468
0.2320003,-0.009119694
0.2310003,-0.008929634
0.2300003,-0.00868133
0.2290003,-0.007957876
0.2280003,-0.008089691
0.2270003,-0.007844454
0.2260003,-0.007277339
0.2250003,-0.007301863
0.2240003,-0.007160851
0.2230003,-0.006878826
0.2220003,-0.006461921
0.2210003,-0.006710225
0.2200003,-0.006566147
0.2190003,-0.006219747
0.2180003,-0.00614311
0.2170003,-0.006041949
0.2160003,-0.005701681
0.2150003,-0.005839627
0.2140003,-0.005808973
0.2130003,-0.005428853
0.2120003,-0.005456442
0.2110003,-0.005471769
0.2100003,-0.005223466
0.2090003,-0.005143763
0.2080003,-0.005159091
0.2070003,-0.005060995
0.2060003,-0.004886262
0.2050003,-0.005048733
0.2040003,-0.004843346
0.2030003,-0.004634893
0.2020003,-0.00471153
0.2010003,-0.004683941
0.2000003,-0.004444833
0.1990003,-0.004398851
0.1980003,-0.004454029
0.1970003,-0.004273166
0.1960003,-0.004168939
0.1950003,-0.004217987
0.1940003,-0.004113761
0.1930003,-0.003975814
0.1920003,-0.003981945
0.1910003,-0.003948225
0.1900003,-0.003819474
0.1890003,-0.003779623
0.1880003,-0.003773492
0.1870003,-0.003660069
0.1860003,-0.003657004
0.1850003,-0.003595694
0.1840003,-0.003531319
0.1830003,-0.003448551
0.1820003,-0.003414831
0.1810003,-0.003393373
0.1800003,-0.003304473
0.1790003,-0.003270753
0.1780003,-0.003181854
0.1770003,-0.003240098
0.1760003,-0.003102152
0.1750003,-0.003040842
0.1740003,-0.003074562
0.1730003,-0.003000991
0.1720003,-0.002912092
0.1710003,-0.002915157
0.1700003,-0.002887568
0.1690003,-0.0028048
0.1680003,-0.00277721
0.1670003,-0.002764949
0.1660003,-0.002700574
0.1650003,-0.002654591
0.1640003,-0.002636198
0.1630003,-0.002596347
0.1620003,-0.002541168
0.1610003,-0.002510513
0.1600003,-0.002473728
0.1590003,-0.002418549
0.1580003,-0.002375632
0.1570003,-0.002338846
0.1560003,-0.002292864
0.1550003,-0.002249948
0.1540003,-0.002219293
0.1530003,-0.002182507
0.1520003,-0.002145721
0.1510003,-0.002115066
0.1500003,-0.002093608
0.1490003,-0.002050691
0.1480003,-0.002032298
0.1470003,-0.002013905
0.1460003,-0.001970988
0.1450003,-0.001964858
0.1440003,-0.001937268
0.1430003,-0.001909679
0.1420003,-0.001891286
0.1410003,-0.001866762
0.1400003,-0.001860631
0.1390003,-0.001826911
0.1380003,-0.001802387
0.1370003,-0.001796256
0.1360003,-0.001771732
0.1350003,-0.001744143
0.1340003,-0.001734946
0.1330003,-0.001722684
0.1320003,-0.001698161
0.1310003,-0.001682833
0.1300003,-0.001673637
0.1290003,-0.001655244
0.1280003,-0.001636851
0.1270003,-0.001627655
0.1260003,-0.001612327
0.1250003,-0.001631438
0.1240003,-0.001619789
0.1230003,-0.001608447
0.1220003,-0.001592813
0.1210003,-0.001579019
0.1200003,-0.001568902
0.1190003,-0.001555721
0.1180003,-0.001541006
0.1170003,-0.001531197
0.1160003,-0.001519855
0.1150003,-0.001506367
0.1140003,-0.001495637
0.1130003,-0.001485521
0.1120003,-0.001472953
0.1110003,-0.001461917
0.1100003,-0.001452414
0.1090003,-0.001441378
0.1080003,-0.001430343
0.1070003,-0.00142084
0.1060003,-0.00141103
0.1050003,-0.001400607
0.1040003,-0.001391104
0.1030003,-0.001381908
0.1020003,-0.001372405
0.1010003,-0.001362595
0.1000003,-0.001353706
0.09900028,-0.001344816
0.09800029,-0.001335313
0.09700029,-0.001326423
0.09600028,-0.001318453
0.09500029,-0.001309563
0.09400029,-0.001300979
0.09300029,-0.001293316
0.09200028,-0.001284732
0.09100029,-0.001276455
0.09000029,-0.001268485
0.08900028,-0.001260515
0.08800028,-0.001252851
0.08700029,-0.001245494
0.08600029,-0.001237524
0.08500028,-0.001230167
0.08400029,-0.00122281
0.08300029,-0.001215146
0.08200029,-0.001208095
0.08100028,-0.001201045
0.08000029,-0.001193381
0.07900029,-0.001186943
0.07800028,-0.001179893
0.07700028,-0.001172842
0.07600029,-0.001166711
0.07500029,-0.001159661
0.07400028,-0.001153223
0.07300029,-0.001146785
0.07200029,-0.001140041
0.07100029,-0.001133604
0.07000028,-0.001127473
0.06900029,-0.001121342
0.06800029,-0.001115211
0.06700028,-0.00110908
0.06600028,-0.001102949
0.06500029,-0.001096818
0.06400029,-0.001090994
0.06300028,-0.001085782
0.06200029,-0.001079651
0.06100029,-0.001073827
0.06000029,-0.001068616
0.05900029,-0.001063098
0.05800029,-0.001057273
0.05700029,-0.001052062
0.05600028,-0.001046238
0.05500029,-0.001041026
0.05400028,-0.001036122
0.05300029,-0.001030604
0.05200029,-0.001025392
0.05100029,-0.001020488
0.05000029,-0.00101497
0.04900029,-0.001010065
0.04800029,-0.00100516
0.04700029,-0.001000255
0.04600029,-0.0009953505
0.04500028,-0.0009904457
0.04400029,-0.000985541
0.04300028,-0.0009809429
0.04200029,-0.000976038
0.04100028,-0.0009714398
0.04000029,-0.0009668416
0.03900029,-0.0009622434
0.03800029,-0.0009576452
0.03700029,-0.0009530469
0.03600029,-0.0009487552
0.03500029,-0.000944157
0.03400028,-0.0009395588
0.03300029,-0.0009352671
0.03200028,-0.0009309754
0.03100029,-0.0009269903
0.03000029,-0.0009223921
0.02900029,-0.0009184069
0.02800029,-0.0009141153
0.02700029,-0.0009104367
0.02600029,-0.000906145
0.02500029,-0.0009021599
0.02400029,-0.0008981748
0.02300029,-0.0008938831
0.02200029,-0.000889898
0.02100029,-0.0008859128
0.02000029,-0.0008822342
0.01900029,-0.0008779426
0.01800029,-0.000874264
0.01700029,-0.0008705854
0.01600029,-0.0008666003
0.01500029,-0.0008629217
0.01400029,-0.0008592432
0.01300029,-0.0008555645
0.01200029,-0.0008518859
0.01100029,-0.000848514
0.01000029,-0.0008445288
0.009000286,-0.0008408502
0.008000286,-0.0008374782
0.007000286,-0.0008337997
0.006000286,-0.0008304276
0.005000286,-0.000826749
0.004000286,-0.000823377
0.003000286,-0.000820005
0.002000286,-0.0008166329
0.001000286,-0.0008132609
2.861023E-07,-0.0008028382
0.0009997139,-0.0007838323
0.001999714,-0.0007669721
0.002999714,-0.0007516447
0.003999714,-0.0007369304
0.004999714,-0.0007231357
0.005999714,-0.0007099541
0.006999714,-0.0006976922
0.007999714,-0.0006860433
0.008999714,-0.0006747011
0.009999714,-0.0006636653
0.01099971,-0.0006535492
0.01199971,-0.0006431266
0.01299971,-0.0006336236
0.01399971,-0.0006241206
0.01499971,-0.0006149242
0.01599971,-0.0006063408
0.01699971,-0.0005977575
0.01799971,-0.0005894807
0.01899971,-0.0005815104
0.01999971,-0.0005738467
0.02099971,-0.000566183
0.02199971,-0.0005585193
0.02299971,-0.0005514687
0.02399971,-0.0005444181
0.02499971,-0.0005373674
0.02599971,-0.0005309299
0.02699971,-0.0005241859
0.02799971,-0.0005177484
0.02899971,-0.0005113108
0.02999971,-0.0005051799
0.03099971,-0.0004990489
0.03199971,-0.0004932245
0.03299971,-0.0004874001
0.03399972,-0.0004815757
0.03499971,-0.0004760578
0.03599972,-0.0004702334
0.03699971,-0.0004650221
0.03799972,-0.0004598107
0.03899971,-0.0004545994
0.03999971,-0.0004493881
0.04099971,-0.0004441768
0.04199971,-0.000439272
0.04299971,-0.0004343672
0.04399971,-0.000429769
0.04499971,-0.0004251708
0.04599971,-0.000420266
0.04699972,-0.0004156678
0.04799971,-0.0004110696
0.04899972,-0.0004067779
0.04999971,-0.0004024862
0.05099971,-0.000397888
0.05199971,-0.0003939029
0.05299971,-0.0003896112
0.05399971,-0.0003856261
0.05499971,-0.0003813344
0.05599971,-0.0003776558
0.05699971,-0.0003736707
0.05799972,-0.0003696856
0.05899971,-0.0003660069
0.05999972,-0.0003620218
0.06099971,-0.0003583433
0.06199971,-0.0003546647
0.06299971,-0.0003509861
0.06399971,-0.0003473075
0.06499971,-0.0003436289
0.06599972,-0.0003399504
0.06699971,-0.0003365783
0.06799971,-0.0003332063
0.06899972,-0.0003298343
0.06999972,-0.0003264622
0.07099971,-0.0003230902
0.07199971,-0.0003197182
0.07299972,-0.0003166527
0.07399971,-0.0003132806
0.07499971,-0.0003102152
0.07599971,-0.0003071497
0.07699972,-0.0003040842
0.07799971,-0.0003010187
0.07899971,-0.0002979533
0.07999972,-0.0002948878
0.08099972,-0.0002921289
0.08199971,-0.0002890633
0.08299971,-0.0002859978
0.08399972,-0.0002832389
0.08499971,-0.00028048
0.08599971,-0.0002777211
0.08699971,-0.0002749621
0.08799972,-0.0002725097
0.08899971,-0.0002697508
0.08999971,-0.0002669919
0.09099972,-0.0002642329
0.09199972,-0.0002617805
0.09299971,-0.0002590216
0.09399971,-0.0002565692
0.09499972,-0.0002541168
0.09599971,-0.0002516645
0.09699971,-0.0002489055
0.09799971,-0.0002464531
0.09899972,-0.0002440007
0.09999971,-0.0002415484
0.1009997,-0.0002394025
0.1019997,-0.0002369501
0.1029997,-0.0002344978
0.1039997,-0.0002323519
0.1049997,-0.0002298995
0.1059997,-0.0002277537
0.1069997,-0.0002256079
0.1079997,-0.0002231555
0.1089997,-0.0002210096
0.1099997,-0.0002188638
0.1109997,-0.0002167179
0.1119997,-0.0002145721
0.1129997,-0.0002124263
0.1139997,-0.0002102804
0.1149997,-0.0002084412
0.1159997,-0.0002062953
0.1169997,-0.0002041495
0.1179997,-0.0002023102
0.1189997,-0.0002001643
0.1199997,-0.0001983251
0.1209997,-0.0001964858
0.1219997,-0.0001943399
0.1229997,-0.0001925007
0.1239997,-0.0001903548
0.1249997,-0.0001885155
0.1259997,-0.0001866762
0.1269997,-0.0001848369
0.1279997,-0.0001829976
0.1289997,-0.0001811584
0.1299997,-0.0001793191
0.1309997,-0.0001777863
0.1319997,-0.000175947
0.1329997,-0.0001741077
0.1339997,-0.0001722685
0.1349997,-0.0001707357
0.1359997,-0.0001688964
0.1369997,-0.0001673637
0.1379997,-0.0001655244
0.1389997,-0.0001639917
0.1399997,-0.0001621524
0.1409997,-0.0001606196
0.1419997,-0.0001623774
0.1429997,-0.0001607834
0.1439997,-0.0001591894
0.1449997,-0.0001575953
0.1459997,-0.0001560012
0.1469997,-0.0001544072
0.1479997,-0.0001528131
0.1489997,-0.0001513417
0.1499997,-0.0001498703
0.1509997,-0.0001483375
0.1519997,-0.0001468661
0.1529997,-0.0001454253
0.1539997,-0.0001439232
0.1549997,-0.0001425438
0.1559997,-0.0001411337
0.1569997,-0.0001396622
0.1579997,-0.0001382521
0.1589997,-0.0001367807
0.1599997,-0.0001353705
0.1609997,-0.0001340217
0.1619997,-0.0001326729
0.1629997,-0.0001313854
0.1639997,-0.000130006
0.1649997,-0.0001287491
0.1659997,-0.0001274003
0.1669997,-0.0001260515
0.1679997,-0.000124764
0.1689997,-0.0001234458
0.1699997,-0.000122097
0.1709997,-0.0001207789
0.1719997,-0.0001194607
0.1729997,-0.0001182038
0.1739997,-0.000117039
0.1749997,-0.0001157208
0.1759997,-0.0001145253
0.1769997,-0.0001132991
0.1779997,-0.0001121035
0.1789997,-0.000110908
0.1799997,-0.0001097125
0.1809997,-0.0001085169
0.1819997,-0.000107352
0.1829997,-0.0001061565
0.1839997,-0.0001050223
0.1849997,-0.0001038574
0.1859997,-0.0001026925
0.1869997,-0.0001015889
0.1879997,-0.000100424
0.1889997,-9.932047E-05
0.1899997,-9.824755E-05
0.1909997,-9.708267E-05
0.1919997,-9.594844E-05
0.1929997,-9.490617E-05
0.1939997,-9.374129E-05
0.1949997,-9.266837E-05
0.1959997,-9.150348E-05
0.1969997,-9.036926E-05
0.1979997,-8.923503E-05
0.1989997,-8.813146E-05
0.1999997,-8.711984E-05
0.2009997,-8.604692E-05
0.2019997,-8.494335E-05
0.2029997,-8.393174E-05
0.2039997,-8.282817E-05
0.2049997,-8.175525E-05
0.2059997,-8.080495E-05
0.2069997,-7.970138E-05
0.2079997,-7.865911E-05
0.2089997,-7.764751E-05
0.2099997,-7.660524E-05
0.2109997,-7.556297E-05
0.2119997,-7.455137E-05
0.2129997,-7.35091E-05
0.2139997,-7.243618E-05
0.2149997,-7.142458E-05
0.2159997,-7.038231E-05
0.2169997,-6.93707E-05
0.2179997,-6.832844E-05
0.2189997,-6.728617E-05
0.2199997,-6.624391E-05
0.2209997,-6.520165E-05
0.2219997,-6.422069E-05
0.2229997,-6.314777E-05
0.2239997,-6.210551E-05
0.2249997,-6.10939E-05
0.2259997,-6.002098E-05
0.2269997,-5.904003E-05
0.2279997,-5.796711E-05
0.2289997,-5.692484E-05
0.2299997,-5.588258E-05
0.2309997,-5.480966E-05
0.2319997,-5.379805E-05
0.2329997,-5.278644E-05
0.2339997,-5.165222E-05
0.2349997,-5.060995E-05
0.2359997,-4.950637E-05
0.2369997,-4.846411E-05
0.2379997,-4.739119E-05
0.2389997,-4.628762E-05
0.2399997,-4.518405E-05
0.2409997,-4.411113E-05
0.2419997,-4.294624E-05
0.2429997,-4.190398E-05
0.2439997,-4.070844E-05
0.2449997,-3.957421E-05
0.2459997,-3.850129E-05
0.2469997,-3.72751E-05
0.2479997,-3.611021E-05
0.2489997,-3.500664E-05
0.2499997,-3.374979E-05
0.2509997,-3.258491E-05
0.2519997,-3.135872E-05
0.2529997,-3.007122E-05
0.2539997,-2.887568E-05
0.2549997,-2.761883E-05
0.2559997,-2.630067E-05
0.2569997,-2.501317E-05
0.2579997,-2.372567E-05
0.2589997,-2.243817E-05
0.2599997,-2.10587E-05
0.2609997,-1.97712E-05
0.2619997,-1.839173E-05
0.2629997,-1.685899E-05
0.2639997,-1.551017E-05
0.2649997,-1.410005E-05
0.2659997,-1.259797E-05
0.2669997,-1.137282E-05
0.2679997,-9.833951E-06
0.2689997,-8.252162E-06
0.2699997,-6.722486E-06
0.2709997,-5.05793E-06
0.2719997,-3.433224E-06
0.2729997,-1.753339E-06
0.2739997,1.237866E-08
0.2749997,1.738245E-06
0.2759997,3.632714E-06
0.2769997,5.38617E-06
0.2779997,7.249983E-06
0.2789997,9.251743E-06
0.2799997,1.107877E-05
0.2809997,1.307133E-05
0.2819997,1.521411E-05
0.2829997,1.719747E-05
0.2839997,1.946286E-05
0.2849997,2.164856E-05
0.2859997,2.384344E-05
0.2869997,2.65789E-05
0.2879997,2.893932E-05
0.2889997,3.13304E-05
0.2899997,3.381344E-05
0.2909997,3.64191E-05
0.2919997,3.911672E-05
0.2929997,4.175304E-05
0.2939997,4.457328E-05
0.2949997,4.760811E-05
0.2959997,5.055097E-05
0.2969997,5.370842E-05
0.2979997,5.695783E-05
0.2989997,6.020725E-05
0.2999997,6.385517E-05
0.3009997,6.744178E-05
0.3019997,7.108971E-05
0.3029997,7.501352E-05
0.3039997,7.8968E-05
0.3049997,8.307574E-05
0.3059997,8.749004E-05
0.3069997,9.211891E-05
0.3079997,9.687041E-05
0.3089997,0.0001015912
0.3099997,0.0001068332
0.3109997,0.0001121978
0.3119997,0.0001177463
0.3129997,0.0001237547
0.3139997,0.0001300389
0.3149997,0.0001364151
0.3159997,0.0001435577
0.3169997,0.0001507309
0.3179997,0.0001584253
0.3189997,0.000166886
0.3199997,0.000175684
0.3209997,0.0001852176
0.3219997,0.0001955483
0.3229997,0.0002064614
0.3239997,0.0002186314
0.3249997,0.0002316597
0.3259997,0.0002460062
0.3269997,0.000262008
0.3279997,0.000279236
0.3289997,0.0002986405
0.3299997,0.0003237267
0.3309997,0.0003473309
0.3319997,0.0003749202
0.3329997,0.0004052685
0.3339997,0.0004399084
0.3349997,0.0004797597
0.3359997,0.0005239027
0.3369997,0.0005747897
0.3379997,0.0006327273
0.3389997,0.0006977156
0.3399997,0.0007725133
0.3409997,0.0008565076
0.3419997,0.0009515375
0.3429997,0.001059442
0.3439997,0.001179609
0.3449997,0.00131541
0.3459997,0.001467152
0.3469997,0.001636673
0.3479997,0.001826426
0.3489997,0.002036718
0.3499997,0.002270921
0.3509997,0.002529035
0.3519997,0.002810446
0.3529997,0.003116688
0.3539997,0.003470243
0.3549997,0.003810511
0.3559997,0.004166107
0.3569997,0.0045309
0.3579997,0.004901823
0.3589997,0.005272747
0.3599997,0.005640605
0.3609997,0.006008463
0.3619997,0.00637019
0.3629997,0.006728851
0.3639997,0.007084447
0.3649997,0.007430846
0.3659997,0.007780312
0.3669997,0.008123646
0.3679997,0.008460849
0.3689997,0.008798052
0.3699997,0.009132189
0.3709997,0.009463261
0.3719997,0.009794333
0.3729997,0.01011927
0.3739997,0.01044422
0.3749997,0.01075996
0.3759997,0.01108184
0.3769997,0.01139145
0.3779997,0.01170413
0.3789997,0.01201374
0.3799997,0.01231416
0.3809997,0.01261458
0.3819997,0.01291499
0.3829997,0.01320315
0.3839997,0.01349437
0.3849997,0.01377946
0.3859997,0.01405842
0.3869997,0.01433738
0.3879997,0.01460101
0.3889997,0.01486771
0.3899997,0.01512827
0.3909997,0.01537964
0.3919997,0.01562795
0.3929997,0.01587012
0.3939997,0.01610616
0.3949997,0.01633914
0.3959997,0.01656292
0.3969997,0.0167867
0.3979997,0.01700435
0.3989997,0.01721586
0.3999997,0.01742125
0.4009997,0.01762358
0.4019997,0.01781364
0.4029997,0.01800676
0.4039997,0.01819682
0.4049997,0.01836849
0.4059997,0.01855242
0.4069997,0.01872408
0.4079997,0.01888655
0.4089997,0.01906435
0.4099997,0.01922376
0.4109997,0.0193709
0.4119997,0.01952724
0.4129997,0.01965906
0.4139997,0.01979087
0.4149997,0.01992575
0.4159997,0.02003611
0.4169997,0.02014953
0.4179997,0.02025683
0.4189997,0.02034266
0.4199997,0.02042849
0.4209997,0.02050513
0.4219997,0.02056951
0.4229997,0.02063081
0.4239997,0.0206676
0.4249997,0.02069212
0.4259997,0.02070745
0.4269997,0.02069826
0.4279997,0.0206768
0.4289997,0.02064001
0.4299997,0.02057564
0.4309997,0.02048367
0.4319997,0.02038558
0.4329997,0.02024763
0.4339997,0.02009436
0.4349997,0.01991656
0.4359997,0.0197081
0.4369997,0.01948126
0.4379997,0.01922682
0.4389997,0.01894173
0.4399997,0.01863825
0.4409997,0.01831024
0.4419997,0.01795465
0.4429997,0.01759292
0.4439997,0.0172128
0.4449997,0.01680509
0.4459997,0.01640351
0.4469997,0.0159958
0.4479997,0.01557277
0.4489997,0.01516812
0.4499997,0.01475428
0.4509997,0.01434351
0.4519997,0.01396646
0.4529997,0.01359553
0.4539997,0.01324607
0.4549997,0.01292419
0.4559997,0.01262071
0.4569997,0.01234481
0.4579997,0.01210264
0.4589997,0.01188499
0.4599997,0.01172252
0.4609997,0.01157844
0.4619997,0.01146809
0.4629997,0.01138838
0.4639997,0.01133627
0.4649997,0.01132707
0.4659997,0.01133321
0.4669997,0.01137919
0.4679997,0.01145276
0.4689997,0.0115294
0.4699997,0.01164282
0.4709997,0.01177157
0.4719997,0.01191565
0.4729997,0.01208118
0.4739997,0.01226205
0.4749997,0.01245517
0.4759997,0.01266669
0.4769997,0.01287514
0.4779997,0.01310199
0.4789997,0.01334416
0.4799997,0.0135802
0.4809997,0.0138377
0.4819997,0.01410747
0.4829997,0.01436803
0.4839997,0.01465006
0.4849997,0.01493821
0.4859997,0.01521717
0.4869997,0.01551452
0.4879997,0.01582414
0.4889997,0.01611842
0.4899997,0.01643417
0.4909997,0.01675604
0.4919997,0.01707179
0.4929997,0.0173998
0.4939997,0.01773087
0.4949997,0.01806194
0.4959997,0.01839608
0.4969997,0.01874554
0.4979997,0.01907968
0.4989997,0.01942608
0.4999997,0.01978168
0.5009997,0.02012194
0.5019997,0.0204898
0.5029997,0.02084233
0.5039997,0.02119793
0.5049997,0.02156885
0.5059997,0.02192751
0.5069997,0.02229537
0.5079997,0.02266936
0.5089997,0.02303415
0.5099997,0.02341121
0.5109997,0.0237852
0.5119997,0.02416838
0.5129997,0.02455463
0.5139997,0.02493475
0.5149997,0.02531487
0.5159997,0.02571339
0.5169997,0.02608737
0.5179997,0.02647669
0.5189997,0.0268844
0.5199997,0.02726758
0.5209997,0.02765997
0.5219997,0.02805848
0.5229997,0.02845393
0.5239997,0.02884324
0.5249997,0.02925708
0.5259997,0.02965253
0.5269997,0.03005411
0.5279997,0.03123844
0.5289997,0.03160629
0.5299997,0.03203546
0.5309997,0.03243398
0.5319997,0.03286314
0.5329997,0.03326165
0.5339997,0.03369082
0.5349997,0.03408933
0.5359997,0.0345185
0.5369997,0.03494767
0.5379997,0.03534618
0.5389997,0.03577535
0.5399997,0.03620452
0.5409997,0.03663369
0.5419997,0.03706285
0.5429997,0.03749202
0.5439997,0.03792119
0.5449997,0.03835035
0.5459997,0.03877952
0.5469997,0.03920869
0.5479997,0.03966851
0.5489997,0.04006703
0.5499997,0.04052685
0.5509997,0.04095602
0.5519997,0.04138518
0.5529997,0.04181435
0.5539997,0.04224352
0.5549997,0.04270334
0.5559997,0.04313251
0.5569997,0.04356168
0.5579997,0.0440215
0.5589997,0.04445067
0.5599997,0.04487984
0.5609997,0.04533966
0.5619997,0.04576882
0.5629997,0.04622864
0.5639997,0.04665781
0.5649997,0.04711764
0.5659997,0.0475468
0.5669997,0.04800662
0.5679997,0.04843579
0.5689997,0.04889562
0.5699997,0.04935544
0.5709997,0.0497846
0.5719997,0.05021377
0.5729997,0.05067359
0.5739997,0.05113342
0.5749997,0.05156258
0.5759997,0.05202241
0.5769997,0.05248223
0.5779997,0.0529114
0.5789997,0.05337122
0.5799997,0.05383104
0.5809997,0.05429087
0.5819997,0.05475069
0.5829997,0.05517985
0.5839997,0.05563968
0.5849997,0.0560995
0.5859997,0.05652867
0.5869997,0.05698849
0.5879997,0.05744831
0.5889997,0.05790814
0.5899997,0.05836796
0.5909997,0.05882778
0.5919997,0.0592876
0.5929997,0.05974742
0.5939997,0.06020725
0.5949997,0.06066707
0.5959997,0.06112689
0.5969997,0.06158672
0.5979997,0.06204654
0.5989997,0.06250636
0.5999997,0.06296618
0.6009997,0.063426
0.6019997,0.06388583
0.6029997,0.06434565
0.6039997,0.06480547
0.6049997,0.06529595
0.6059997,0.06575577
0.6069997,0.0662156
0.6079997,0.06667542
0.6089997,0.06713524
0.6099997,0.06756441
0.6109997,0.06802423
0.6119997,0.06848405
0.6129997,0.06894387
0.6139997,0.06943435
0.6149997,0.06992482
0.6159997,0.07035399
0.6169997,0.07081382
0.6179997,0.07130429
0.6189997,0.07173347
0.6199997,0.07222394
0.6209997,0.07268376
0.6219997,0.07314359
0.6229997,0.07363406
0.6239997,0.07409389
0.6249997,0.07455371
0.6259997,0.07504418
0.6269997,0.075504
0.6279997,0.07596382
0.6289997,0.07642365
0.6299997,0.07688347
0.6309997,0.07737394
0.6319997,0.07786443
0.6329997,0.07829359
0.6339997,0.07878407
0.6349997,0.07924389
0.6359997,0.07970371
0.6369997,0.0801942
0.6379997,0.08065402
0.6389997,0.08111384
0.6399997,0.08157366
0.6409997,0.08206414
0.6419997,0.08252396
0.6429997,0.08298378
0.6439997,0.0834436
0.6449997,0.08393408
0.6459997,0.0843939
0.6469997,0.08488438
0.6479997,0.0853442
0.6489997,0.08583468
0.6499997,0.0862945
0.6509997,0.08675433
0.6519997,0.0872448
0.6529997,0.08770462
0.6539997,0.08819511
0.6549997,0.08865493
0.6559997,0.08914541
0.6569997,0.08963588
0.6579997,0.0900957
0.6589997,0.09055553
0.6599997,0.091046
0.6609997,0.09150583
0.6619997,0.09196565
0.6629997,0.09245612
0.6639997,0.09291594
0.6649997,0.09340642
0.6659997,0.0938969
0.6669997,0.09435672
0.6679997,0.09484719
0.6689997,0.09530702
0.6699997,0.09576684
0.6709997,0.09625732
0.6719997,0.09671714
0.6729997,0.09720763
0.6739997,0.0976981
0.6749997,0.09815792
0.6759997,0.0986484
0.6769997,0.09910822
0.6779997,0.09956805
0.6789997,0.1000585
0.6799997,0.100549
0.6809997,0.1010395
0.6819997,0.1015299
0.6829997,0.1019898
0.6839997,0.1024802
0.6849997,0.1029401
0.6859997,0.1034305
0.6869997,0.103921
0.6879997,0.1043808
0.6889997,0.1048407
0.6899997,0.1053311
0.6909997,0.105791
0.6919997,0.1062815
0.6929997,0.1067719
0.6939997,0.1072318
0.6949997,0.1077529
0.6959997,0.1082127
0.6969997,0.1087032
0.6979997,0.1091936
0.6989997,0.1096535
0.6999997,0.1098068
0.6990004,0.1093163
0.6980004,0.1088565
0.6970004,0.1083966
0.6960004,0.1079062
0.6950004,0.1074157
0.6940004,0.1069558
0.6930004,0.1064654
0.6920004,0.1059749
0.6910004,0.1055151
0.6900004,0.1050553
0.6890004,0.1045648
0.6880004,0.104105
0.6870004,0.1036451
0.6860004,0.103124
0.6850004,0.1026948
0.6840004,0.1022043
0.6830004,0.1017139
0.6820004,0.101254
0.6810004,0.1007636
0.6800004,0.1002731
0.6790004,0.09984394
0.6780004,0.09935346
0.6770004,0.09886298
0.6760004,0.09843381
0.6750004,0.09794334
0.6740004,0.09745286
0.6730004,0.09702369
0.6720004,0.09653322
0.6710004,0.09604274
0.6700004,0.09558292
0.6690004,0.09509244
0.6680004,0.09463262
0.6670004,0.0941728
0.6660004,0.09368231
0.6650004,0.09322249
0.6640004,0.09276267
0.6630004,0.09227219
0.6620004,0.09181237
0.6610004,0.09135254
0.6600004,0.09086207
0.6590004,0.09040225
0.6580004,0.08994243
0.6570004,0.08948261
0.6560004,0.08899213
0.6550004,0.08853231
0.6540004,0.08807249
0.6530004,0.08761266
0.6520004,0.08712219
0.6510004,0.08666236
0.6500004,0.08620254
0.6490004,0.08571207
0.6480004,0.08525224
0.6470004,0.08479242
0.6460004,0.08430194
0.6450004,0.08384212
0.6440004,0.0833823
0.6430004,0.08295313
0.6420004,0.08249331
0.6410004,0.08200283
0.6400004,0.08157366
0.6390004,0.08108319
0.6380004,0.08062336
0.6370004,0.08016354
0.6360004,0.07970371
0.6350004,0.07924389
0.6340004,0.07875342
0.6330004,0.07829359
0.6320004,0.07783377
0.6310004,0.07734329
0.6300004,0.07691412
0.6290004,0.07642365
0.6280004,0.07596382
0.6270004,0.07553466
0.6260004,0.07504418
0.6250004,0.07458436
0.6240004,0.07412454
0.6230004,0.07363406
0.6220004,0.07317424
0.6210004,0.07271441
0.6200004,0.07225459
0.6190004,0.07179477
0.6180004,0.0713656
0.6170004,0.07087513
0.6160004,0.0704153
0.6150004,0.06995548
0.6140004,0.069465
0.6130004,0.06903584
0.6120004,0.06854536
0.6110004,0.06808554
0.6100004,0.06762572
0.6090004,0.06719655
0.6080004,0.06670607
0.6070004,0.0662769
0.6060004,0.06581708
0.6050004,0.06535726
0.6040004,0.06492809
0.6030004,0.06443761
0.6020004,0.06397779
0.6010004,0.06354862
0.6000004,0.0630888
0.5990004,0.06262898
0.5980004,0.06219981
0.5970004,0.06170933
0.5960004,0.06124951
0.5950004,0.06082034
0.5940004,0.06036052
0.5930004,0.05987004
0.5920004,0.05944088
0.5910004,0.05898106
0.5900004,0.05855189
0.5890004,0.05812272
0.5880004,0.05763224
0.5870004,0.05720307
0.5860004,0.05674325
0.5850004,0.05628343
0.5840004,0.05582361
0.5830004,0.05539444
0.5820004,0.05493462
0.5810004,0.05450545
0.5800004,0.05404563
0.5790004,0.0535858
0.5780004,0.05315664
0.5770004,0.05269681
0.5760004,0.05223699
0.5750004,0.05180782
0.5740004,0.051348
0.5730004,0.05091884
0.5720004,0.05045901
0.5710004,0.05002984
0.5700004,0.04957002
0.5690004,0.04914085
0.5680004,0.04871169
0.5670004,0.04825186
0.5660004,0.04779204
0.5650004,0.04736288
0.5640004,0.04693371
0.5630004,0.04647389
0.5620004,0.04604472
0.5610004,0.04561555
0.5600004,0.04515573
0.5590004,0.04472656
0.5580004,0.04429739
0.5570004,0.04383757
0.5560004,0.0434084
0.5550004,0.04297924
0.5540004,0.04251941
0.5530004,0.04209024
0.5520004,0.04166108
0.5510004,0.04120126
0.5500004,0.04080274
0.5490004,0.04034292
0.5480004,0.03991375
0.5470004,0.03951524
0.5460004,0.03905542
0.5450004,0.03862625
0.5440004,0.03819708
0.5430004,0.03776791
0.5420004,0.03733874
0.5410004,0.03690958
0.5400004,0.03648041
0.5390004,0.03605124
0.5380004,0.03562208
0.5370004,0.03522356
0.5360004,0.0347944
0.5350004,0.03436523
0.5340004,0.03396672
0.5330004,0.03353755
0.5320004,0.03310838
0.5310004,0.03267921
0.5300004,0.0322807
0.5290004,0.03185153
0.5280004,0.03145302
0.5270004,0.03102385
0.5260004,0.03059468
0.5250004,0.03019617
0.5240004,0.029767
0.5230004,0.02936849
0.5220004,0.02893933
0.5210004,0.02854081
0.5200004,0.0281423
0.5190004,0.02774378
0.5180004,0.02731462
0.5170004,0.02691611
0.5160004,0.02651759
0.5150004,0.02611908
0.5140004,0.02572057
0.5130004,0.02532205
0.5120004,0.02489289
0.5110004,0.02452503
0.5100004,0.02412652
0.5090004,0.023728
0.5080004,0.02332949
0.5070004,0.02296163
0.5060004,0.02253246
0.5050004,0.02213395
0.5040004,0.02176609
0.5030004,0.02136758
0.5020004,0.02096907
0.5010004,0.02060121
0.5000004,0.02023335
0.4990004,0.01983484
0.4980004,0.01946698
0.4970004,0.01906847
0.4960004,0.01870061
0.4950004,0.01836341
0.4940004,0.01799555
0.4930004,0.01762769
0.4920004,0.01725983
0.4910004,0.01689198
0.4900004,0.01652412
0.4890004,0.01618692
0.4880004,0.01581906
0.4870004,0.0154512
0.4860004,0.015114
0.4850004,0.01474614
0.4840004,0.01437828
0.4830004,0.01404108
0.4820004,0.01370388
0.4810004,0.01336667
0.4800004,0.01252874
0.4790004,0.01219154
0.4780004,0.01186353
0.4770004,0.01154166
0.4760004,0.01121365
0.4750004,0.01089484
0.4740004,0.01057603
0.4730004,0.01025722
0.4720004,0.009944541
0.4710004,0.009637994
0.4700004,0.009331445
0.4690004,0.009024898
0.4680004,0.008727546
0.4670004,0.008430193
0.4660004,0.008135907
0.4650004,0.007850817
0.4640004,0.007565727
0.4630004,0.007280638
0.4620004,0.00700781
0.4610004,0.006728851
0.4600004,0.006456023
0.4590004,0.006195457
0.4580004,0.00592876
0.4570004,0.005671259
0.4560004,0.005422956
0.4550004,0.00516852
0.4540004,0.004926347
0.4530004,0.004687239
0.4520004,0.004448132
0.4510004,0.004218221
0.4500004,0.003991375
0.4490004,0.003767595
0.4480004,0.003549946
0.4470004,0.003338427
0.4460004,0.00313304
0.4450004,0.002930718
0.4440004,0.002731462
0.4430004,0.002538336
0.4420004,0.002351342
0.4410004,0.002167413
0.4400004,0.00199268
0.4390004,0.001817948
0.4380004,0.001652412
0.4370004,0.001489941
0.4360004,0.001327471
0.4350004,0.001177262
0.4340004,0.000998746
0.4330004,0.0008552813
0.4320004,0.0007188674
0.4310004,0.000583373
0.4300004,0.0004564621
0.4290004,0.0003307773
0.4280004,0.0002103038
0.4270004,9.841367E-05
0.4260004,-1.408955E-05
0.4250004,-0.0001241815
0.4240004,-0.0002236258
0.4230004,-0.0003246334
0.4220004,-0.0004172005
0.4210004,-0.0005051799
0.4200004,-0.0005934658
0.4190004,-0.0006728618
0.4180004,-0.0007537905
0.4170004,-0.0008304276
0.4160004,-0.0009012403
0.4150004,-0.0009732791
0.4140004,-0.001038267
0.4130004,-0.00110111
0.4120004,-0.001164872
0.4110004,-0.001221277
0.4100004,-0.001284119
0.4090004,-0.001342976
0.4080004,-0.001390185
0.4070004,-0.001439846
0.4060004,-0.001483989
0.4050004,-0.00153089
0.4040004,-0.001576566
0.4030004,-0.001617644
0.4020004,-0.001660867
0.4010004,-0.001699799
0.4000004,-0.001736278
0.3990004,-0.001777968
0.3980004,-0.001812608
0.3970004,-0.001849701
0.3960004,-0.001888019
0.3950004,-0.001919287
0.3940004,-0.001954234
0.3930004,-0.001988567
0.3920004,-0.002019222
0.3910004,-0.002054475
0.3900004,-0.002085436
0.3890004,-0.002117624
0.3880004,-0.002151957
0.3870004,-0.002181079
0.3860004,-0.002215719
0.3850004,-0.002247293
0.3840004,-0.002276416
0.3830004,-0.002313508
0.3820004,-0.002343243
0.3810004,-0.002375124
0.3800004,-0.002412217
0.3790004,-0.002442258
0.3780004,-0.002478431
0.3770004,-0.002515523
0.3760004,-0.002546791
0.3750004,-0.002584497
0.3740004,-0.002620056
0.3730004,-0.002655616
0.3720004,-0.002695161
0.3710004,-0.002733479
0.3700004,-0.002773024
0.3690004,-0.002811649
0.3680004,-0.00285058
0.3670004,-0.002894417
0.3660004,-0.002934268
0.3650004,-0.002977492
0.3640004,-0.00302378
0.3630004,-0.00302858
0.3620004,-0.003074562
0.3610004,-0.003120545
0.3600004,-0.003166527
0.3590004,-0.003215575
0.3580004,-0.003267688
0.3570004,-0.003316735
0.3560004,-0.003368848
0.3550004,-0.003417896
0.3540004,-0.003473075
0.3530004,-0.003525188
0.3520004,-0.003583432
0.3510004,-0.003641677
0.3500004,-0.003696855
0.3490004,-0.003755099
0.3480004,-0.003816409
0.3470004,-0.003874653
0.3460004,-0.003942094
0.3450004,-0.004006469
0.3440004,-0.004067779
0.3430004,-0.00414135
0.3420004,-0.00420266
0.3410004,-0.004270101
0.3400004,-0.004343672
0.3390004,-0.004414178
0.3380004,-0.00448775
0.3370004,-0.004561321
0.3360004,-0.004634893
0.3350004,-0.004714595
0.3340004,-0.004791233
0.3330004,-0.004870935
0.3320004,-0.004953703
0.3310004,-0.00503034
0.3300004,-0.005122304
0.3290004,-0.005205072
0.3280004,-0.005290906
0.3270004,-0.005385936
0.3260004,-0.005474835
0.3250004,-0.0055668
0.3240004,-0.005661829
0.3230004,-0.00575686
0.3220004,-0.005854954
0.3210004,-0.00595305
0.3200004,-0.006054211
0.3190004,-0.006161503
0.3180004,-0.006259599
0.3170004,-0.006369956
0.3160004,-0.006480313
0.3150004,-0.006587605
0.3140004,-0.006704094
0.3130004,-0.006814451
0.3120004,-0.006924808
0.3110004,-0.007047428
0.3100004,-0.007163916
0.3090004,-0.00728347
0.3080004,-0.00741222
0.3070004,-0.007537905
0.3060004,-0.007663589
0.3050004,-0.00779234
0.3040004,-0.007918024
0.3030004,-0.008052906
0.3020004,-0.008187788
0.3010004,-0.008319603
0.3000004,-0.00845755
0.2990004,-0.008598561
0.2980004,-0.008736508
0.2970004,-0.008880586
0.2960004,-0.009024664
0.2950004,-0.009168741
0.2940004,-0.00931895
0.2930004,-0.009466094
0.2920004,-0.009616302
0.2910004,-0.009766511
0.2900004,-0.009925916
0.2890004,-0.01007306
0.2880004,-0.01023553
0.2870004,-0.010398
0.2860004,-0.01055127
0.2850004,-0.01071681
0.2840004,-0.01087928
0.2830004,-0.01104175
0.2820004,-0.01121342
0.2810004,-0.01137589
0.2800004,-0.01154143
0.2790004,-0.01171616
0.2780004,-0.01188169
0.2770004,-0.01205643
0.2760004,-0.01223116
0.2750004,-0.01239976
0.2740004,-0.01257756
0.2730004,-0.01275536
0.2720004,-0.01292396
0.2710004,-0.01310176
0.2700004,-0.01327649
0.2690004,-0.01344816
0.2680004,-0.01362289
0.2670004,-0.01379149
0.2660004,-0.01395703
0.2650004,-0.0141195
0.2640004,-0.01428503
0.2630004,-0.01444444
0.2620004,-0.01459465
0.2610004,-0.01474179
0.2600004,-0.01487667
0.2590004,-0.01500849
0.2580004,-0.01512804
0.2570004,-0.0152292
0.2560004,-0.01532117
0.2550004,-0.01539167
0.2540004,-0.01542539
0.2530004,-0.01544992
0.2520004,-0.01543152
0.2510004,-0.01537021
0.2500004,-0.01529358
0.2490004,-0.01516176
0.2480004,-0.01496863
0.2470004,-0.01474179
0.2460004,-0.01444137
0.2450004,-0.01408271
0.2440004,-0.01368726
0.2430004,-0.0132397
0.2420004,-0.01276455
0.2410004,-0.01227101
0.2400004,-0.01176827
0.2390004,-0.01128393
0.2380004,-0.01081491
0.2370004,-0.01035508
0.2360004,-0.009928982
0.2350004,-0.009521272
0.2340004,-0.009131956
0.2330004,-0.008785556
0.2320004,-0.00845755
0.2310004,-0.008147935
0.2300004,-0.007881239
0.2290004,-0.007620673
0.2280004,-0.007381565
0.2270004,-0.007182309
0.2260004,-0.006979987
0.2250004,-0.006789927
0.2240004,-0.006630522
0.2230004,-0.006461921
0.2220004,-0.006314777
0.2210004,-0.006186027
0.2200004,-0.00604808
0.2190004,-0.005925461
0.2180004,-0.005818169
0.2170004,-0.005701681
0.2160004,-0.005597454
0.2150004,-0.005502424
0.2140004,-0.005401264
0.2130004,-0.005318495
0.2120004,-0.005232662
0.2110004,-0.005143763
0.2100004,-0.005070191
0.2090004,-0.004993554
0.2080004,-0.004916917
0.2070004,-0.004849477
0.2060004,-0.004775905
0.2050004,-0.004705399
0.2040004,-0.004644089
0.2030004,-0.004573583
0.2020004,-0.004509208
0.2010004,-0.004447898
0.2000004,-0.004380458
0.1990004,-0.004319148
0.1980004,-0.004260904
0.1970004,-0.004196529
0.1960004,-0.004135219
0.1950004,-0.00408004
0.1940004,-0.004015665
0.1930004,-0.003963552
0.1920004,-0.003905308
0.1910004,-0.003847064
0.1900004,-0.003798016
0.1890004,-0.003742838
0.1880004,-0.003687659
0.1870004,-0.003638611
0.1860004,-0.003586498
0.1850004,-0.003534385
0.1840004,-0.003488402
0.1830004,-0.003439354
0.1820004,-0.003390307
0.1810004,-0.003344325
0.1800004,-0.003298342
0.1790004,-0.00325236
0.1780004,-0.003206378
0.1770004,-0.003163461
0.1760004,-0.003117479
0.1750004,-0.003074562
0.1740004,-0.003031645
0.1730004,-0.002988729
0.1720004,-0.002945812
0.1710004,-0.002905961
0.1700004,-0.00286611
0.1690004,-0.002826258
0.1680004,-0.002786407
0.1670004,-0.002749621
0.1660004,-0.00270977
0.1650004,-0.002672984
0.1640004,-0.002636198
0.1630004,-0.002599412
0.1620004,-0.002559561
0.1610004,-0.00251971
0.1600004,-0.002476793
0.1590004,-0.002433876
0.1580004,-0.00239096
0.1570004,-0.002348043
0.1560004,-0.002308191
0.1550004,-0.002265275
0.1540004,-0.002228489
0.1530004,-0.002194769
0.1520004,-0.002157983
0.1510004,-0.002127328
0.1500004,-0.002096673
0.1490004,-0.002066019
0.1480004,-0.002038429
0.1470004,-0.00201084
0.1460004,-0.001986316
0.1450004,-0.001961792
0.1440004,-0.001937268
0.1430004,-0.00191581
0.1420004,-0.001891286
0.1410004,-0.001872893
0.1400004,-0.001851435
0.1390004,-0.001829976
0.1380004,-0.001811583
0.1370004,-0.00179319
0.1360004,-0.001774798
0.1350004,-0.001756405
0.1340004,-0.001738012
0.1330004,-0.001719619
0.1320004,-0.001704292
0.1310004,-0.001688964
0.1300004,-0.001670571
0.1290004,-0.001655244
0.1280004,-0.001639916
0.1270004,-0.001627655
0.1260004,-0.001612327
0.1250004,-0.001634197
0.1240004,-0.001621016
0.1230004,-0.001607221
0.1220004,-0.001593733
0.1210004,-0.001580858
0.1200004,-0.001567983
0.1190004,-0.001555414
0.1180004,-0.001543152
0.1170004,-0.001531197
0.1160004,-0.001519242
0.1150004,-0.001507899
0.1140004,-0.001496557
0.1130004,-0.001484908
0.1120004,-0.001474179
0.1110004,-0.00146345
0.1100004,-0.001452414
0.1090004,-0.001442298
0.1080004,-0.001431875
0.1070004,-0.001421453
0.1060004,-0.001411643
0.1050004,-0.001401834
0.1040004,-0.001392024
0.1030004,-0.001382828
0.1020004,-0.001373631
0.1010004,-0.001364435
0.1000004,-0.001355545
0.09900038,-0.001346042
0.09800038,-0.001337152
0.09700038,-0.001328569
0.09600038,-0.001319679
0.09500038,-0.001311402
0.09400038,-0.001303125
0.09300038,-0.001294542
0.09200038,-0.001286571
0.09100038,-0.001278601
0.09000038,-0.001270631
0.08900038,-0.001262661
0.08800038,-0.00125469
0.08700038,-0.001247333
0.08600038,-0.00123967
0.08500038,-0.001232313
0.08400038,-0.001224955
0.08300038,-0.001217905
0.08200038,-0.001210548
0.08100038,-0.001203803
0.08000038,-0.001196446
0.07900038,-0.001189702
0.07800038,-0.001182652
0.07700038,-0.001176214
0.07600038,-0.00116947
0.07500038,-0.001162726
0.07400038,-0.001156288
0.07300038,-0.001149851
0.07200038,-0.00114372
0.07100038,-0.001137282
0.07000038,-0.001130845
0.06900038,-0.001124714
0.06800038,-0.00111889
0.06700038,-0.001112759
0.06600038,-0.001106628
0.06500039,-0.00110111
0.06400038,-0.001094979
0.06300038,-0.001089461
0.06200038,-0.001083943
0.06100038,-0.001078119
0.06000038,-0.001072601
0.05900038,-0.001067083
0.05800038,-0.001061565
0.05700038,-0.001056354
0.05600038,-0.001050836
0.05500038,-0.001045624
0.05400038,-0.001040107
0.05300038,-0.001035508
0.05200038,-0.001030297
0.05100038,-0.001025086
0.05000038,-0.001020181
0.04900038,-0.00101497
0.04800038,-0.001009758
0.04700038,-0.00100516
0.04600038,-0.001000255
0.04500038,-0.0009953505
0.04400038,-0.0009910589
0.04300038,-0.0009861541
0.04200038,-0.0009815559
0.04100038,-0.0009769576
0.04000038,-0.0009720529
0.03900038,-0.0009677612
0.03800038,-0.0009634696
0.03700038,-0.0009585648
0.03600038,-0.0009542731
0.03500038,-0.0009499814
0.03400038,-0.0009456897
0.03300038,-0.0009417046
0.03200038,-0.000937413
0.03100038,-0.0009331212
0.03000038,-0.0009288296
0.02900038,-0.0009245379
0.02800038,-0.0009205528
0.02700038,-0.0009162611
0.02600038,-0.0009125826
0.02500038,-0.0009085974
0.02400038,-0.0009046123
0.02300038,-0.0009009338
0.02200038,-0.000896642
0.02100038,-0.0008929634
0.02000038,-0.0008889784
0.01900038,-0.0008849932
0.01800038,-0.0008813146
0.01700038,-0.0008773295
0.01600038,-0.0008736509
0.01500038,-0.0008699723
0.01400038,-0.0008662938
0.01300038,-0.0008629217
0.01200038,-0.0008595497
0.01100038,-0.0008555645
0.01000038,-0.0008521925
0.009000381,-0.000848514
0.008000381,-0.0008448354
0.007000382,-0.0008414634
0.006000381,-0.0008380913
0.005000381,-0.0008344128
0.004000382,-0.0008310407
0.003000381,-0.0008276686
0.002000381,-0.0008242966
0.001000381,-0.0008209246
3.814697E-07,-0.0008101954
0.0009996186,-0.0007911894
0.001999618,-0.0007743293
0.002999618,-0.0007590018
0.003999618,-0.0007442875
0.004999619,-0.0007304929
0.005999619,-0.0007176179
0.006999618,-0.0007050494
0.007999619,-0.000693094
0.008999619,-0.0006817517
0.009999619,-0.0006707159
0.01099962,-0.0006602933
0.01199962,-0.0006501772
0.01299962,-0.0006403677
0.01399962,-0.0006308646
0.01499962,-0.0006216682
0.01599962,-0.0006127784
0.01699962,-0.000604195
0.01799962,-0.0005959182
0.01899962,-0.0005876414
0.01999962,-0.0005799776
0.02099962,-0.0005723139
0.02199962,-0.0005646503
0.02299962,-0.0005572931
0.02399962,-0.0005502424
0.02499962,-0.0005431919
0.02599962,-0.0005364478
0.02699962,-0.0005297037
0.02799962,-0.0005229597
0.02899962,-0.0005165222
0.02999962,-0.0005103912
0.03099962,-0.0005042602
0.03199962,-0.0004981293
0.03299962,-0.0004923049
0.03399962,-0.0004864805
0.03499962,-0.000480656
0.03599962,-0.0004751382
0.03699962,-0.0004696203
0.03799962,-0.0004641024
0.03899962,-0.0004588911
0.03999962,-0.0004536798
0.04099962,-0.000448775
0.04199962,-0.0004435637
0.04299962,-0.0004389654
0.04399962,-0.0004340607
0.04499962,-0.0004291559
0.04599962,-0.0004245577
0.04699962,-0.0004196529
0.04799962,-0.0004153613
0.04899962,-0.000410763
0.04999962,-0.0004061648
0.05099962,-0.0004015666
0.05199962,-0.0003972749
0.05299962,-0.0003932898
0.05399962,-0.0003889981
0.05499962,-0.0003850129
0.05599962,-0.0003807213
0.05699962,-0.0003767362
0.05799962,-0.0003730576
0.05899962,-0.0003690725
0.05999962,-0.0003650873
0.06099962,-0.0003614087
0.06199962,-0.0003574236
0.06299962,-0.000353745
0.06399962,-0.0003500664
0.06499962,-0.0003463879
0.06599962,-0.0003430158
0.06699962,-0.0003393373
0.06799962,-0.0003359652
0.06899962,-0.0003325932
0.06999962,-0.0003292212
0.07099961,-0.0003258491
0.07199962,-0.0003224771
0.07299962,-0.0003191051
0.07399962,-0.0003157331
0.07499962,-0.0003126676
0.07599962,-0.0003092955
0.07699962,-0.00030623
0.07799962,-0.0003031646
0.07899962,-0.0003000991
0.07999962,-0.0002970336
0.08099962,-0.0002942747
0.08199961,-0.0002912092
0.08299962,-0.0002884502
0.08399962,-0.0002853848
0.08499962,-0.0002826258
0.08599962,-0.0002798669
0.08699962,-0.0002768014
0.08799962,-0.0002740425
0.08899962,-0.0002712836
0.08999962,-0.0002685246
0.09099962,-0.0002660722
0.09199962,-0.0002633133
0.09299962,-0.0002608609
0.09399962,-0.000258102
0.09499962,-0.0002556496
0.09599962,-0.0002528907
0.09699962,-0.0002504383
0.09799962,-0.0002479859
0.09899962,-0.0002455335
0.09999962,-0.0002430811
0.1009996,-0.0002406287
0.1019996,-0.0002381763
0.1029996,-0.000235724
0.1039996,-0.0002332716
0.1049996,-0.0002311257
0.1059996,-0.0002289799
0.1069996,-0.0002265275
0.1079996,-0.0002240751
0.1089996,-0.0002222358
0.1099996,-0.0002197834
0.1109996,-0.0002176376
0.1119996,-0.0002154918
0.1129996,-0.0002133459
0.1139996,-0.0002112001
0.1149996,-0.0002090542
0.1159996,-0.0002069084
0.1169996,-0.0002047626
0.1179996,-0.0002029233
0.1189996,-0.0002007774
0.1199996,-0.0001989382
0.1209996,-0.0001967923
0.1219996,-0.000194953
0.1229996,-0.0001928072
0.1239996,-0.0001909679
0.1249996,-0.0001888221
0.1259996,-0.0001869828
0.1269996,-0.0001851435
0.1279996,-0.0001833042
0.1289996,-0.0001814649
0.1299996,-0.0001796256
0.1309996,-0.0001777863
0.1319996,-0.0001762536
0.1329996,-0.0001744143
0.1339996,-0.000172575
0.1349996,-0.0001707357
0.1359996,-0.000169203
0.1369996,-0.0001673637
0.1379996,-0.0001655244
0.1389996,-0.0001639917
0.1399996,-0.0001624589
0.1409996,-0.0001606196
0.1419996,-0.0001590869
0.1429996,-0.0001606608
0.1439996,-0.000159128
0.1449996,-0.0001575033
0.1459996,-0.000155848
0.1469996,-0.0001543765
0.1479996,-0.0001528131
0.1489996,-0.0001512498
0.1499996,-0.0001497783
0.1509996,-0.0001482149
0.1519996,-0.0001467741
0.1529996,-0.0001452721
0.1539996,-0.0001437393
0.1549996,-0.0001423292
0.1559996,-0.0001408884
0.1569996,-0.0001395089
0.1579996,-0.0001380988
0.1589996,-0.000136658
0.1599996,-0.0001353092
0.1609996,-0.0001338378
0.1619996,-0.000132397
0.1629996,-0.0001309869
0.1639996,-0.0001296687
0.1649996,-0.0001282893
0.1659996,-0.0001269711
0.1669996,-0.0001256836
0.1679996,-0.0001243348
0.1689996,-0.0001230473
0.1699996,-0.0001217905
0.1709996,-0.0001205336
0.1719996,-0.0001192768
0.1729996,-0.0001179893
0.1739996,-0.0001167324
0.1749996,-0.0001154449
0.1759996,-0.0001143107
0.1769996,-0.0001129925
0.1779996,-0.0001117357
0.1789996,-0.0001106014
0.1799996,-0.000109314
0.1809996,-0.0001081491
0.1819996,-0.0001069535
0.1829996,-0.0001056967
0.1839996,-0.0001045011
0.1849996,-0.0001033363
0.1859996,-0.0001021714
0.1869996,-0.0001010065
0.1879996,-9.987225E-05
0.1889996,-9.873803E-05
0.1899996,-9.76038E-05
0.1909996,-9.650022E-05
0.1919996,-9.533534E-05
0.1929996,-9.426242E-05
0.1939996,-9.315884E-05
0.1949996,-9.205527E-05
0.1959996,-9.089039E-05
0.1969996,-8.990943E-05
0.1979996,-8.883652E-05
0.1989996,-8.770229E-05
0.1999996,-8.669068E-05
0.2009996,-8.561776E-05
0.2019996,-8.460615E-05
0.2029996,-8.359454E-05
0.2039996,-8.246031E-05
0.2049996,-8.135674E-05
0.2059996,-8.031447E-05
0.2069996,-7.92109E-05
0.2079996,-7.804602E-05
0.2089996,-7.706506E-05
0.2099996,-7.605345E-05
0.2109996,-7.501119E-05
0.2119996,-7.396893E-05
0.2129996,-7.298797E-05
0.2139996,-7.203767E-05
0.2149996,-7.09341E-05
0.2159996,-6.99838E-05
0.2169996,-6.894153E-05
0.2179996,-6.792993E-05
0.2189996,-6.691832E-05
0.2199996,-6.578409E-05
0.2209996,-6.474183E-05
0.2219996,-6.373021E-05
0.2229996,-6.265729E-05
0.2239996,-6.167634E-05
0.2249996,-6.066473E-05
0.2259996,-5.962246E-05
0.2269996,-5.867217E-05
0.2279996,-5.762991E-05
0.2289996,-5.66183E-05
0.2299996,-5.563734E-05
0.2309996,-5.456442E-05
0.2319996,-5.34915E-05
0.2329996,-5.238793E-05
0.2339996,-5.128435E-05
0.2349996,-5.021143E-05
0.2359996,-4.913852E-05
0.2369996,-4.812691E-05
0.2379996,-4.702334E-05
0.2389996,-4.601172E-05
0.2399996,-4.500012E-05
0.2409996,-4.39272E-05
0.2419996,-4.282362E-05
0.2429996,-4.165874E-05
0.2439996,-4.043255E-05
0.2449996,-3.929832E-05
0.2459996,-3.825605E-05
0.2469996,-3.712183E-05
0.2479996,-3.604891E-05
0.2489996,-3.488402E-05
0.2499996,-3.356587E-05
0.2509996,-3.233967E-05
0.2519996,-3.117479E-05
0.2529996,-3.000991E-05
0.2539996,-2.884502E-05
0.2549996,-2.761883E-05
0.2559996,-2.636198E-05
0.2569996,-2.498252E-05
0.2579996,-2.360305E-05
0.2589996,-2.237685E-05
0.2599996,-2.099739E-05
0.2609996,-1.970989E-05
0.2619996,-1.839173E-05
0.2629996,-1.695095E-05
0.2639996,-1.560214E-05
0.2649996,-1.416136E-05
0.2659996,-1.253666E-05
0.2669996,-1.133297E-05
0.2679996,-9.864606E-06
0.2689996,-8.350257E-06
0.2699996,-6.87576E-06
0.2709996,-5.263316E-06
0.2719996,-3.653938E-06
0.2729996,-1.894351E-06
0.2739996,-1.347645E-07
0.2749996,1.551251E-06
0.2759996,3.402802E-06
0.2769996,5.107211E-06
0.2779996,6.866798E-06
0.2789996,8.761265E-06
0.2799996,1.064347E-05
0.2809996,1.272493E-05
0.2819996,1.48861E-05
0.2829996,1.682348E-05
0.2839996,1.91042E-05
0.2849996,2.125924E-05
0.2859996,2.332537E-05
0.2869996,2.605777E-05
0.2879996,2.832623E-05
0.2889996,3.068665E-05
0.2899996,3.329231E-05
0.2909996,3.577535E-05
0.2919996,3.850363E-05
0.2929996,4.126256E-05
0.2939996,4.414412E-05
0.2949996,4.708698E-05
0.2959996,4.999919E-05
0.2969996,5.312598E-05
0.2979996,5.628342E-05
0.2989996,5.956349E-05
0.2999996,6.305814E-05
0.3009996,6.649148E-05
0.3019996,7.013941E-05
0.3029996,7.403257E-05
0.3039996,7.792573E-05
0.3049996,8.209479E-05
0.3059996,8.644777E-05
0.3069996,9.101534E-05
0.3079996,9.573618E-05
0.3089996,0.0001005796
0.3099996,0.0001055151
0.3109996,0.0001109103
0.3119996,0.0001163669
0.3129996,0.000122222
0.3139996,0.0001284142
0.3149996,0.0001348211
0.3159996,0.0001418717
0.3169996,0.0001490756
0.3179996,0.0001568619
0.3189996,0.0001651387
0.3199996,0.0001738753
0.3209996,0.0001832557
0.3219996,0.0001933105
0.3229996,0.000204009
0.3239996,0.0002160564
0.3249996,0.0002287781
0.3259996,0.0002426035
0.3269996,0.0002582987
0.3279996,0.000274975
0.3289996,0.0002938583
0.3299996,0.0003182088
0.3309996,0.0003408933
0.3319996,0.0003672565
0.3329996,0.0003963786
0.3339996,0.0004294858
0.3349996,0.0004671912
0.3359996,0.0005091884
0.3369996,0.000557623
0.3379996,0.0006128017
0.3389996,0.000675031
0.3399996,0.0007464567
0.3409996,0.0008267724
0.3419996,0.0009178172
0.3429996,0.001021124
0.3439996,0.001136693
0.3449996,0.001267282
0.3459996,0.001413812
0.3469996,0.001577202
0.3479996,0.001760212
0.3489996,0.00196376
0.3499996,0.002189992
0.3509996,0.00243983
0.3519996,0.002713884
0.3529996,0.003012155
0.3539996,0.00335682
0.3549996,0.003690958
0.3559996,0.004046554
0.3569996,0.004405215
0.3579996,0.004773073
0.3589996,0.005147062
0.3599996,0.005511854
0.3609996,0.005882777
0.3619996,0.006250636
0.3629996,0.006606232
0.3639996,0.006964893
0.3649996,0.007320489
0.3659996,0.007666889
0.3669996,0.008013288
0.3679996,0.008353557
0.3689996,0.00869076
0.3699996,0.009024898
0.3709996,0.0093621
0.3719996,0.009687042
0.3729996,0.01001505
0.3739996,0.01033692
0.3749996,0.0106588
0.3759996,0.01097761
0.3769996,0.01129029
0.3779996,0.01160297
0.3789996,0.01190952
0.3799996,0.01221606
0.3809996,0.01251342
0.3819996,0.01281383
0.3829996,0.01310505
0.3839996,0.01339014
0.3849996,0.01368137
0.3859996,0.01395419
0.3869996,0.01423009
0.3879996,0.01450598
0.3889996,0.01476041
0.3899996,0.01502405
0.3909996,0.01527848
0.3919996,0.01552372
0.3929996,0.01577202
0.3939996,0.01600807
0.3949996,0.01624104
0.3959996,0.01647402
0.3969996,0.01669167
0.3979996,0.01690932
0.3989996,0.01713003
0.3999996,0.01733235
0.4009996,0.01753774
0.4019996,0.017737
0.4029996,0.01792399
0.4039996,0.01811712
0.4049996,0.01830411
0.4059996,0.01847271
0.4069996,0.01865051
0.4079996,0.01881911
0.4089996,0.01898465
0.4099996,0.01915632
0.4109996,0.01930959
0.4119996,0.01945367
0.4129996,0.01960081
0.4139996,0.01973263
0.4149996,0.01986138
0.4159996,0.01998093
0.4169996,0.02009436
0.4179996,0.02019552
0.4189996,0.02029974
0.4199996,0.02037944
0.4209996,0.02045915
0.4219996,0.02052659
0.4229996,0.02057257
0.4239996,0.02061242
0.4249996,0.02064001
0.4259996,0.02064308
0.4269996,0.02063695
0.4279996,0.02061242
0.4289996,0.02057257
0.4299996,0.0205082
0.4309996,0.02041623
0.4319996,0.02030894
0.4329996,0.02018019
0.4339996,0.02001772
0.4349996,0.01983992
0.4359996,0.01963453
0.4369996,0.01938316
0.4379996,0.01913792
0.4389996,0.01884977
0.4399996,0.01853402
0.4409996,0.01822441
0.4419996,0.01787188
0.4429996,0.01750096
0.4439996,0.0171239
0.4449996,0.01672539
0.4459996,0.01631768
0.4469996,0.0159161
0.4479996,0.01550533
0.4489996,0.01509149
0.4499996,0.01469604
0.4509996,0.01429446
0.4519996,0.01391434
0.4529996,0.01355875
0.4539996,0.01320621
0.4549996,0.01289354
0.4559996,0.01260231
0.4569996,0.01232949
0.4579996,0.01209958
0.4589996,0.01189419
0.4599996,0.01172252
0.4609996,0.01158764
0.4619996,0.01148035
0.4629996,0.01140984
0.4639996,0.01136693
0.4649996,0.0113516
0.4659996,0.01136693
0.4669996,0.01141597
0.4679996,0.01147728
0.4689996,0.01156925
0.4699996,0.01168574
0.4709996,0.01182062
0.4719996,0.01196776
0.4729996,0.01213943
0.4739996,0.01231416
0.4749996,0.01251035
0.4759996,0.0127188
0.4769996,0.01292419
0.4779996,0.0131541
0.4789996,0.01339934
0.4799996,0.01363538
0.4809996,0.01390208
0.4819996,0.01416571
0.4829996,0.01442628
0.4839996,0.01471443
0.4849996,0.01499033
0.4859996,0.01528155
0.4869996,0.0155789
0.4879996,0.01587318
0.4889996,0.0161828
0.4899996,0.01649241
0.4909996,0.01679896
0.4919996,0.01712697
0.4929996,0.01744884
0.4939996,0.01776765
0.4949996,0.01811099
0.4959996,0.01844206
0.4969996,0.0187762
0.4979996,0.0191226
0.4989996,0.01946286
0.4999996,0.01981233
0.5009996,0.02016179
0.5019996,0.02051126
0.5029996,0.02086992
0.5039996,0.02123165
0.5049996,0.02158725
0.5059996,0.0219551
0.5069996,0.02232296
0.5079996,0.02268469
0.5089996,0.02305868
0.5099996,0.02343573
0.5109996,0.02380052
0.5119996,0.02418371
0.5129996,0.02456996
0.5139996,0.02494701
0.5149996,0.025321
0.5159996,0.02571952
0.5169996,0.0260935
0.5179996,0.02648589
0.5189996,0.0268844
0.5199996,0.02726452
0.5209996,0.0276569
0.5219996,0.02805235
0.5229996,0.02844166
0.5239996,0.02884018
0.5249996,0.02924175
0.5259996,0.02964027
0.5269996,0.03004491
0.5279996,0.03120778
0.5289996,0.03160629
0.5299996,0.03200481
0.5309996,0.03240332
0.5319996,0.03283248
0.5329996,0.03326165
0.5339996,0.03366017
0.5349996,0.03408933
0.5359996,0.03448785
0.5369996,0.03491702
0.5379996,0.03531553
0.5389996,0.03574469
0.5399996,0.03617386
0.5409996,0.03660303
0.5419996,0.0370322
0.5429996,0.03743071
0.5439996,0.03785988
0.5449996,0.0383197
0.5459996,0.03874887
0.5469996,0.03914738
0.5479996,0.0396072
0.5489996,0.04000572
0.5499996,0.04046554
0.5509996,0.04089471
0.5519996,0.04132387
0.5529996,0.04175304
0.5539996,0.04221286
0.5549996,0.04261138
0.5559996,0.0430712
0.5569996,0.04350037
0.5579996,0.04392953
0.5589996,0.0443587
0.5599996,0.04481852
0.5609996,0.04524769
0.5619996,0.04570751
0.5629996,0.04613668
0.5639996,0.04656585
0.5649996,0.04702567
0.5659996,0.04745484
0.5669996,0.04791466
0.5679996,0.04834383
0.5689996,0.04880365
0.5699996,0.04923282
0.5709996,0.04969264
0.5719996,0.05012181
0.5729996,0.05055097
0.5739996,0.0510108
0.5749996,0.05143997
0.5759996,0.05189979
0.5769996,0.05235961
0.5779996,0.05278878
0.5789996,0.0532486
0.5799996,0.05370842
0.5809996,0.05416824
0.5819996,0.05462807
0.5829996,0.05508789
0.5839996,0.05551706
0.5849996,0.05597688
0.5859996,0.0564367
0.5869996,0.05686587
0.5879996,0.05732569
0.5889996,0.05778552
0.5899996,0.05821468
0.5909996,0.05870516
0.5919996,0.05913433
0.5929996,0.05959415
0.5939996,0.06005397
0.5949996,0.06051379
0.5959996,0.06097361
0.5969996,0.06143344
0.5979996,0.06186261
0.5989996,0.06232243
0.5999996,0.06278225
0.6009996,0.06324207
0.6019996,0.0637019
0.6029996,0.06416172
0.6039996,0.06462154
0.6049996,0.06508137
0.6059996,0.06554119
0.6069996,0.06597035
0.6079996,0.06646083
0.6089996,0.06692065
0.6099996,0.06738048
0.6109996,0.0678403
0.6119996,0.06830012
0.6129996,0.06875994
0.6139996,0.06921976
0.6149996,0.06971025
0.6159996,0.07017007
0.6169996,0.07062989
0.6179996,0.07108971
0.6189996,0.07154953
0.6199996,0.07204001
0.6209996,0.07246917
0.6219996,0.07295965
0.6229996,0.07341947
0.6239996,0.07387929
0.6249996,0.07433912
0.6259996,0.07479894
0.6269996,0.07525877
0.6279996,0.07574924
0.6289996,0.07620906
0.6299996,0.07666889
0.6309996,0.07712871
0.6319996,0.07758854
0.6329996,0.07807901
0.6339996,0.07853883
0.6349996,0.07899866
0.6359996,0.07945848
0.6369996,0.0799183
0.6379996,0.08037812
0.6389996,0.08083794
0.6399996,0.08132842
0.6409996,0.08178824
0.6419996,0.08224807
0.6429996,0.08273854
0.6439996,0.08319836
0.6449996,0.08365819
0.6459996,0.08414867
0.6469996,0.08457784
0.6479996,0.08506831
0.6489996,0.08555879
0.6499996,0.08601861
0.6509996,0.08647843
0.6519996,0.08693825
0.6529996,0.08739807
0.6539996,0.08788855
0.6549996,0.08837903
0.6559996,0.08883885
0.6569996,0.08932933
0.6579996,0.08978915
0.6589996,0.09024898
0.6599996,0.09073945
0.6609996,0.09119927
0.6619996,0.09168976
0.6629996,0.09214958
0.6639996,0.0926094
0.6649996,0.09309988
0.6659996,0.09359035
0.6669996,0.09405018
0.6679996,0.09454065
0.6689996,0.09503113
0.6699996,0.09549095
0.6709996,0.09598143
0.6719996,0.09641059
0.6729996,0.09690107
0.6739996,0.09739155
0.6749996,0.09785137
0.6759996,0.09831119
0.6769996,0.09880167
0.6779996,0.09926149
0.6789996,0.09975197
0.6799996,0.1002118
0.6809996,0.1007023
0.6819996,0.1011621
0.6829996,0.1016526
0.6839996,0.1021124
0.6849996,0.1026029
0.6859996,0.1030933
0.6869996,0.1035532
0.6879996,0.1040436
0.6889996,0.1045341
0.6899996,0.1049633
0.6909996,0.1054844
0.6919996,0.1059442
0.6929996,0.1064041
0.6939996,0.1068945
0.6949996,0.107385
0.6959996,0.1078448
0.6969996,0.108366
0.6979996,0.1088258
0.6989996,0.1093163
0.6999996,0.1094695
0.6990005,0.1089791
0.6980005,0.1085192
0.6970005,0.1080594
0.6960005,0.1075689
0.6950005,0.1071091
0.6940005,0.1066493
0.6930005,0.1061588
0.6920004,0.1056683
0.6910005,0.1052085
0.6900005,0.1047487
0.6890005,0.1042582
0.6880005,0.1037984
0.6870005,0.1033079
0.6860005,0.1028481
0.6850005,0.1023883
0.6840005,0.1019285
0.6830005,0.101438
0.6820005,0.1009782
0.6810005,0.1004877
0.6800005,0.09999721
0.6790005,0.09953739
0.6780005,0.09907757
0.6770005,0.09858709
0.6760005,0.09812727
0.6750005,0.09766745
0.6740005,0.09717696
0.6730005,0.09671714
0.6720005,0.09625732
0.6710005,0.09576684
0.6700005,0.09530702
0.6690005,0.09484719
0.6680005,0.09438737
0.6670005,0.09392755
0.6660005,0.09343708
0.6650005,0.09297726
0.6640005,0.09251743
0.6630005,0.09202696
0.6620005,0.09156714
0.6610005,0.09110731
0.6600005,0.09061684
0.6590005,0.09015701
0.6580005,0.08966654
0.6570005,0.08920672
0.6560005,0.08874689
0.6550004,0.08828707
0.6540005,0.08782724
0.6530005,0.08736742
0.6520005,0.08687695
0.6510005,0.08644778
0.6500005,0.0859573
0.6490005,0.08546682
0.6480005,0.08503766
0.6470005,0.08454718
0.6460005,0.08408736
0.6450005,0.08365819
0.6440005,0.08316771
0.6430005,0.08267724
0.6420005,0.08224807
0.6410004,0.08178824
0.6400005,0.08129777
0.6390005,0.08086859
0.6380005,0.08040877
0.6370005,0.0799183
0.6360005,0.07945848
0.6350005,0.07902931
0.6340005,0.07853883
0.6330005,0.07807901
0.6320005,0.07761919
0.6310005,0.07712871
0.6300005,0.07666889
0.6290005,0.07620906
0.6280005,0.07571859
0.6270005,0.07528942
0.6260005,0.0748296
0.6250005,0.07433912
0.6240005,0.07390995
0.6230005,0.07345013
0.6220005,0.07295965
0.6210005,0.07253049
0.6200005,0.07207067
0.6190005,0.07158019
0.6180004,0.07115102
0.6170005,0.0706912
0.6160005,0.07020072
0.6150005,0.06977155
0.6140005,0.06931173
0.6130005,0.06882125
0.6120005,0.06839209
0.6110005,0.06793226
0.6100005,0.06747244
0.6090005,0.06701262
0.6080005,0.0665528
0.6070005,0.06609298
0.6060005,0.06563315
0.6050005,0.06517333
0.6040004,0.06471351
0.6030005,0.06425368
0.6020005,0.06379386
0.6010005,0.06336469
0.6000005,0.06290487
0.5990005,0.06244505
0.5980005,0.06198522
0.5970005,0.06155606
0.5960005,0.06106558
0.5950005,0.06063641
0.5940005,0.06017659
0.5930005,0.05974742
0.5920005,0.0592876
0.5910005,0.05882778
0.5900005,0.05836796
0.5890005,0.05790814
0.5880005,0.05747896
0.5870005,0.0570498
0.5860005,0.05655932
0.5850005,0.05613015
0.5840005,0.05570099
0.5830005,0.05524116
0.5820005,0.054812
0.5810004,0.05435218
0.5800005,0.05389235
0.5790005,0.05346319
0.5780005,0.05300336
0.5770005,0.05254354
0.5760005,0.05211437
0.5750005,0.0516852
0.5740005,0.05122538
0.5730005,0.05079622
0.5720005,0.05033639
0.5710005,0.04987657
0.5700005,0.0494474
0.5690005,0.04898758
0.5680005,0.04855841
0.5670004,0.04809859
0.5660005,0.04766942
0.5650005,0.04724025
0.5640005,0.04681109
0.5630005,0.04635127
0.5620005,0.0459221
0.5610005,0.04546228
0.5600005,0.04503311
0.5590005,0.04460394
0.5580005,0.04417477
0.5570005,0.04371495
0.5560005,0.04328578
0.5550005,0.04285662
0.5540005,0.04242745
0.5530005,0.04199828
0.5520005,0.04153846
0.5510005,0.04110929
0.5500005,0.04068012
0.5490005,0.04025095
0.5480005,0.03982178
0.5470005,0.03939262
0.5460005,0.03896345
0.5450005,0.03853428
0.5440005,0.03810512
0.5430005,0.0376453
0.5420005,0.03724678
0.5410005,0.03681761
0.5400005,0.03638845
0.5390005,0.03595928
0.5380005,0.03556077
0.5370005,0.0351316
0.5360005,0.03470243
0.5350005,0.03430392
0.5340005,0.03387475
0.5330005,0.03344558
0.5320005,0.03304707
0.5310005,0.0326179
0.5300004,0.03221939
0.5290005,0.03179022
0.5280005,0.03139171
0.5270005,0.03096254
0.5260005,0.03056403
0.5250005,0.03013486
0.5240005,0.02970569
0.5230005,0.02930718
0.5220005,0.02887801
0.5210005,0.0284795
0.5200005,0.02808099
0.5190005,0.02768247
0.5180005,0.02725331
0.5170005,0.02688545
0.5160004,0.02645628
0.5150005,0.02605777
0.5140005,0.02565926
0.5130005,0.02526074
0.5120005,0.02486223
0.5110005,0.02446372
0.5100005,0.02406521
0.5090005,0.02366669
0.5080005,0.02329884
0.5070005,0.02290032
0.5060005,0.02250181
0.5050005,0.0221033
0.5040005,0.02173544
0.5030005,0.02133693
0.5020005,0.02096907
0.5010005,0.02057056
0.5000005,0.0202027
0.4990005,0.01980419
0.4980005,0.01943633
0.4970005,0.01906847
0.4960005,0.01870061
0.4950005,0.01833276
0.4940005,0.0179649
0.4930005,0.01759704
0.4920005,0.01722918
0.4910005,0.01686132
0.4900005,0.01649346
0.4890005,0.01615626
0.4880005,0.0157884
0.4870005,0.0154512
0.4860005,0.01508334
0.4850005,0.01474614
0.4840005,0.01437828
0.4830005,0.01404108
0.4820005,0.01370388
0.4810005,0.01333602
0.4800005,0.01252874
0.4790005,0.01219154
0.4780005,0.0118666
0.4770005,0.01154166
0.4760005,0.01121365
0.4750005,0.01090097
0.4740005,0.01058216
0.4730005,0.01026335
0.4720005,0.009956804
0.4710005,0.009647191
0.4700005,0.009337576
0.4690005,0.009040225
0.4680005,0.008739808
0.4670005,0.008442456
0.4660005,0.008151235
0.4650005,0.007866145
0.4640005,0.007581055
0.4630005,0.007299031
0.4620005,0.007023137
0.4610005,0.006744178
0.4600005,0.006474416
0.4590005,0.00621385
0.4580005,0.005947153
0.4570005,0.005692718
0.4560005,0.005441349
0.4550005,0.005189979
0.4540005,0.004947806
0.4530005,0.004708698
0.4520005,0.00446959
0.4510005,0.00424581
0.4500005,0.004015899
0.4490005,0.003792119
0.4480005,0.003577535
0.4470005,0.003362951
0.4460005,0.003157564
0.4450005,0.002955242
0.4440005,0.002755986
0.4430005,0.002565926
0.4420005,0.002375866
0.4410005,0.002191937
0.4400005,0.002017204
0.4390005,0.001839406
0.4380005,0.001676936
0.4370005,0.001514465
0.4360005,0.001351995
0.4350005,0.001201786
0.4340005,0.001021737
0.4330005,0.0008776594
0.4320005,0.0007421651
0.4310005,0.0006057511
0.4300005,0.0004770008
0.4290005,0.0003525422
0.4280005,0.0002311491
0.4270005,0.0001171131
0.4260005,4.303349E-06
0.4250005,-0.000106463
0.4240005,-0.0002072561
0.4230005,-0.0003087236
0.4220005,-0.0004018731
0.4210005,-0.0004910787
0.4200005,-0.0005796711
0.4190005,-0.0006602933
0.4180005,-0.0007427548
0.4170005,-0.0008193919
0.4160005,-0.0008917373
0.4150005,-0.0009643892
0.4140005,-0.001029991
0.4130005,-0.001094672
0.4120005,-0.001157515
0.4110005,-0.001215146
0.4100005,-0.001280134
0.4090005,-0.001339298
0.4080005,-0.0013862
0.4070005,-0.001438313
0.4060005,-0.001483682
0.4050005,-0.00153089
0.4040005,-0.001577179
0.4030005,-0.001617644
0.4020005,-0.001662706
0.4010005,-0.001704397
0.4000005,-0.001740876
0.3990005,-0.001781953
0.3980005,-0.001818433
0.3970005,-0.001856138
0.3960005,-0.001893844
0.3950005,-0.001926338
0.3940005,-0.001961897
0.3930005,-0.001996231
0.3920005,-0.002028725
0.3910005,-0.002063978
0.3900005,-0.002095859
0.3890005,-0.002128966
0.3880005,-0.002162687
0.3870005,-0.002192422
0.3860005,-0.002228288
0.3850005,-0.002259862
0.3840005,-0.002289904
0.3830005,-0.002327303
0.3820005,-0.002357345
0.3810005,-0.002390452
0.3800005,-0.00242877
0.3790005,-0.002458506
0.3780005,-0.002495291
0.3770005,-0.00253269
0.3760005,-0.002564571
0.3750005,-0.002604116
0.3740005,-0.002640902
0.3730005,-0.002676461
0.3720005,-0.002716006
0.3710005,-0.00275647
0.3700005,-0.002796015
0.3690005,-0.002835253
0.3680005,-0.002876331
0.3670005,-0.00291986
0.3660005,-0.002960632
0.3650005,-0.003007227
0.3640005,-0.003019383
0.3630005,-0.003059235
0.3620005,-0.003105217
0.3610005,-0.003154265
0.3600005,-0.003200247
0.3590005,-0.00325236
0.3580005,-0.003304473
0.3570005,-0.003353521
0.3560005,-0.0034087
0.3550005,-0.003457748
0.3540005,-0.003515992
0.3530005,-0.00357117
0.3520005,-0.003626349
0.3510005,-0.003687659
0.3500005,-0.003745903
0.3490005,-0.003807213
0.3480005,-0.003868522
0.3470005,-0.003929832
0.3460005,-0.003997272
0.3450005,-0.004064713
0.3440005,-0.004126023
0.3430005,-0.004199594
0.3420005,-0.004267035
0.3410005,-0.004334475
0.3400005,-0.004411113
0.3390005,-0.004481619
0.3380005,-0.00455519
0.3370005,-0.004634893
0.3360005,-0.004708464
0.3350005,-0.004788167
0.3340005,-0.004870935
0.3330005,-0.004950637
0.3320005,-0.005036471
0.3310005,-0.005119239
0.3300005,-0.005205072
0.3290005,-0.005290906
0.3280005,-0.00538287
0.3270005,-0.005474835
0.3260005,-0.005563734
0.3250005,-0.005661829
0.3240005,-0.00575686
0.3230005,-0.005851889
0.3220005,-0.005956116
0.3210005,-0.006054211
0.3200005,-0.006158438
0.3190005,-0.006262664
0.3180005,-0.00636689
0.3170005,-0.006474182
0.3160005,-0.00658454
0.3150005,-0.006694897
0.3140005,-0.00680832
0.3130005,-0.006924808
0.3120005,-0.007038231
0.3110005,-0.007160851
0.3100005,-0.007277339
0.3090005,-0.007399958
0.3080005,-0.007525643
0.3070005,-0.007651328
0.3060005,-0.007780078
0.3050005,-0.007908828
0.3040005,-0.008034512
0.3030005,-0.008172459
0.3020005,-0.008301211
0.3010005,-0.008436091
0.3000005,-0.008580169
0.2990005,-0.008711984
0.2980005,-0.008852997
0.2970005,-0.00900014
0.2960005,-0.009138087
0.2950005,-0.00928523
0.2940005,-0.009435439
0.2930005,-0.009579516
0.2920005,-0.009729725
0.2910005,-0.009882999
0.2900005,-0.01003627
0.2890005,-0.01018955
0.2880005,-0.01035202
0.2870005,-0.01050836
0.2860005,-0.01066776
0.2850005,-0.01082717
0.2840005,-0.01098964
0.2830005,-0.01115518
0.2820005,-0.01132071
0.2810005,-0.01148318
0.2800005,-0.01165178
0.2790005,-0.01182038
0.2780005,-0.01198899
0.2770005,-0.01216372
0.2760005,-0.01233232
0.2750005,-0.01250399
0.2740005,-0.01267872
0.2730005,-0.01285039
0.2720005,-0.01301899
0.2710005,-0.01319372
0.2700005,-0.01335926
0.2690005,-0.01353399
0.2680005,-0.01370259
0.2670005,-0.013862
0.2660005,-0.01402447
0.2650005,-0.01418387
0.2640005,-0.01433101
0.2630005,-0.01448735
0.2620005,-0.01462837
0.2610005,-0.01475712
0.2600005,-0.01488893
0.2590005,-0.01499622
0.2580005,-0.01509125
0.2570005,-0.01518015
0.2560005,-0.0152384
0.2550005,-0.01527212
0.2540005,-0.01528438
0.2530005,-0.01525066
0.2520005,-0.01519242
0.2510005,-0.01508819
0.2500005,-0.01495024
0.2490005,-0.01475099
0.2480005,-0.01449348
0.2470005,-0.01419307
0.2460005,-0.01382214
0.2450005,-0.01340217
0.2440005,-0.01296074
0.2430005,-0.01247027
0.2420005,-0.01197366
0.2410005,-0.01148931
0.2400005,-0.0110019
0.2390005,-0.01053288
0.2380005,-0.01010371
0.2370005,-0.009668415
0.2360005,-0.009260706
0.2350005,-0.008911241
0.2340005,-0.00855258
0.2330005,-0.008239901
0.2320005,-0.007964007
0.2310005,-0.007678917
0.2300005,-0.007452071
0.2290005,-0.007237487
0.2280005,-0.007004511
0.2270005,-0.006826713
0.2260005,-0.006664242
0.2250005,-0.006483379
0.2240005,-0.006345432
0.2230005,-0.006210551
0.2220005,-0.006063408
0.2210005,-0.00595305
0.2200005,-0.0058243
0.2190005,-0.005710877
0.2180005,-0.005615847
0.2170005,-0.00550549
0.2160005,-0.005413526
0.2150005,-0.005327692
0.2140005,-0.005229597
0.2130005,-0.005152959
0.2120005,-0.005082454
0.2110005,-0.004990489
0.2100005,-0.004923048
0.2090005,-0.004855608
0.2080005,-0.004775905
0.2070005,-0.004714595
0.2060005,-0.004653286
0.2050005,-0.004582779
0.2040005,-0.00452147
0.2030005,-0.004463226
0.2020005,-0.004398851
0.2010005,-0.004340607
0.2000005,-0.004282362
0.1990005,-0.004221053
0.1980005,-0.004165874
0.1970005,-0.004110695
0.1960005,-0.004052451
0.1950005,-0.003997272
0.1940005,-0.003945159
0.1930005,-0.003886915
0.1920005,-0.003834802
0.1910005,-0.003785754
0.1900005,-0.003730575
0.1890005,-0.003681528
0.1880005,-0.003635545
0.1870005,-0.003580367
0.1860005,-0.003540515
0.1850005,-0.003488402
0.1840005,-0.00344242
0.1830005,-0.003402569
0.1820005,-0.003350456
0.1810005,-0.003307539
0.1800005,-0.003267688
0.1790005,-0.003221706
0.1780005,-0.003181854
0.1770005,-0.003138937
0.1760005,-0.003096021
0.1750005,-0.003056169
0.1740005,-0.003016318
0.1730005,-0.002976467
0.1720005,-0.002939681
0.1710005,-0.002896764
0.1700005,-0.002863044
0.1690005,-0.002826258
0.1680005,-0.002786407
0.1670005,-0.002752687
0.1660005,-0.002715901
0.1650005,-0.002679115
0.1640005,-0.002645395
0.1630005,-0.002608609
0.1620005,-0.002568757
0.1610005,-0.002528906
0.1600005,-0.002489055
0.1590005,-0.002446138
0.1580005,-0.002406287
0.1570005,-0.002366436
0.1560005,-0.002326585
0.1550005,-0.002289799
0.1540005,-0.002253013
0.1530005,-0.002219293
0.1520005,-0.002188638
0.1510005,-0.002157983
0.1500005,-0.002127328
0.1490005,-0.002099739
0.1480005,-0.002069084
0.1470005,-0.002041495
0.1460005,-0.002016971
0.1450005,-0.001992447
0.1440005,-0.001964858
0.1430005,-0.001943399
0.1420005,-0.001918875
0.1410005,-0.001897417
0.1400005,-0.001875959
0.1390005,-0.0018545
0.1380005,-0.001833042
0.1370005,-0.001814649
0.1360005,-0.001796256
0.1350005,-0.001774798
0.1340005,-0.00175947
0.1330005,-0.001741077
0.1320005,-0.001722684
0.1310005,-0.001707357
0.1300005,-0.001688964
0.1290005,-0.001673637
0.1280005,-0.001658309
0.1270005,-0.001642982
0.1260005,-0.001627655
0.1250005,-0.001612327
0.1240005,-0.00163481
0.1230005,-0.001621322
0.1220005,-0.001607221
0.1210005,-0.001594039
0.1200005,-0.001581164
0.1190005,-0.001568596
0.1180005,-0.001555721
0.1170005,-0.001543459
0.1160005,-0.00153181
0.1150005,-0.001519548
0.1140005,-0.001507899
0.1130005,-0.001496864
0.1120005,-0.001485215
0.1110005,-0.001474179
0.1100005,-0.001463756
0.1090005,-0.001452721
0.1080005,-0.001442298
0.1070005,-0.001432489
0.1060005,-0.001421759
0.1050005,-0.00141195
0.1040005,-0.001402447
0.1030005,-0.001392637
0.1020005,-0.001383441
0.1010005,-0.001374244
0.1000005,-0.001364741
0.09900048,-0.001355851
0.09800047,-0.001346962
0.09700048,-0.001338072
0.09600048,-0.001329488
0.09500048,-0.001320905
0.09400047,-0.001312322
0.09300048,-0.001304045
0.09200048,-0.001295768
0.09100047,-0.001287798
0.09000048,-0.001279827
0.08900048,-0.001271857
0.08800048,-0.001263887
0.08700047,-0.00125653
0.08600048,-0.001248866
0.08500048,-0.001241509
0.08400048,-0.001234458
0.08300047,-0.001226795
0.08200048,-0.001219744
0.08100048,-0.001212693
0.08000048,-0.001205643
0.07900048,-0.001198592
0.07800048,-0.001192155
0.07700048,-0.001185104
0.07600047,-0.00117836
0.07500048,-0.001171922
0.07400048,-0.001165485
0.07300048,-0.001158741
0.07200047,-0.00115261
0.07100048,-0.001146479
0.07000048,-0.001140041
0.06900048,-0.00113391
0.06800048,-0.001128086
0.06700048,-0.001121955
0.06600048,-0.001116131
0.06500047,-0.001110613
0.06400048,-0.001104482
0.06300048,-0.001098657
0.06200048,-0.00109314
0.06100048,-0.001087315
0.06000048,-0.001081797
0.05900048,-0.001076279
0.05800048,-0.001070761
0.05700048,-0.00106555
0.05600048,-0.001060339
0.05500048,-0.001055128
0.05400048,-0.001049916
0.05300048,-0.001045318
0.05200048,-0.0010398
0.05100048,-0.001034895
0.05000048,-0.001029991
0.04900048,-0.001024779
0.04800048,-0.001019568
0.04700048,-0.00101497
0.04600048,-0.001010065
0.04500048,-0.00100516
0.04400048,-0.001000562
0.04300048,-0.0009956572
0.04200048,-0.0009910589
0.04100048,-0.0009867672
0.04000048,-0.0009821691
0.03900048,-0.0009775708
0.03800048,-0.0009729725
0.03700048,-0.0009686808
0.03600048,-0.0009643892
0.03500048,-0.000959791
0.03400048,-0.0009558058
0.03300048,-0.0009509011
0.03200048,-0.0009469159
0.03100048,-0.0009429308
0.03000048,-0.0009383326
0.02900048,-0.000934654
0.02800048,-0.0009306689
0.02700048,-0.0009263772
0.02600048,-0.0009223921
0.02500048,-0.0009184069
0.02400048,-0.0009144219
0.02300048,-0.0009107432
0.02200048,-0.0009067581
0.02100048,-0.000902773
0.02000048,-0.0008990944
0.01900048,-0.0008951093
0.01800048,-0.0008914307
0.01700048,-0.0008874455
0.01600048,-0.000883767
0.01500048,-0.0008800884
0.01400048,-0.0008764099
0.01300048,-0.0008727313
0.01200048,-0.0008693592
0.01100048,-0.0008656807
0.01000048,-0.0008620021
0.009000476,-0.0008583235
0.008000477,-0.0008549515
0.007000477,-0.0008515794
0.006000477,-0.0008482074
0.005000477,-0.0008448354
0.004000477,-0.0008411568
0.003000477,-0.0008377847
0.002000477,-0.0008344128
0.001000477,-0.0008310407
