EXPID. 0753
[电化学]: CV : -0.8 >> -0.8 >> -1.5 >> -0.8(V) @ 0.01(V/s) X 10(Seg)
起始电位 (V),-0.8
上限电位 (V),-0.8
下限电位 (V),-1.5
终止电位 (V),-0.8
扫速 (V/s),0.01
电解液 信息:
KOH,1
-0.8,-0.2988729
-0.801,-0.1434529
-0.802,-0.1002296
-0.803,-0.08521925
-0.804,-0.07657459
-0.805,-0.07071952
-0.806,-0.06630522
-0.807,-0.06293319
-0.808,-0.06002098
-0.809,-0.05762991
-0.81,-0.05554538
-0.811,-0.05358347
-0.812,-0.0518668
-0.813,-0.05027274
-0.814,-0.04864804
-0.815,-0.04720726
-0.816,-0.04588911
-0.817,-0.04466292
-0.818,-0.04358999
-0.819,-0.04254773
-0.82,-0.04156678
-0.821,-0.04064713
-0.822,-0.03975814
-0.823,-0.0388385
-0.824,-0.03794951
-0.825,-0.03715248
-0.826,-0.0363248
-0.827,-0.03555843
-0.828,-0.03482271
-0.829,-0.03414831
-0.83,-0.03350456
-0.831,-0.03289146
-0.832,-0.03224771
-0.833,-0.03166527
-0.834,-0.03108283
-0.835,-0.03046973
-0.836,-0.02988729
-0.837,-0.02930485
-0.838,-0.02872241
-0.839,-0.02813996
-0.84,-0.02758818
-0.841,-0.02697508
-0.842,-0.02642329
-0.843,-0.02584085
-0.844,-0.02525841
-0.845,-0.02467597
-0.846,-0.02409353
-0.847,-0.02354174
-0.848,-0.02298995
-0.849,-0.02243817
-0.85,-0.02188638
-0.851,-0.0213959
-0.852,-0.02087477
-0.853,-0.02032298
-0.854,-0.01986316
-0.855,-0.01934203
-0.856,-0.01885155
-0.857,-0.01839173
-0.858,-0.01793191
-0.859,-0.01747208
-0.86,-0.01701226
-0.861,-0.01658309
-0.862,-0.01615393
-0.863,-0.01572476
-0.864,-0.01543152
-0.865,-0.01504221
-0.866,-0.01465289
-0.867,-0.01425438
-0.868,-0.01388652
-0.869,-0.01352479
-0.87,-0.01315693
-0.871,-0.01282893
-0.872,-0.01249173
-0.873,-0.01216372
-0.874,-0.0118541
-0.875,-0.01154449
-0.876,-0.01124714
-0.877,-0.01096818
-0.878,-0.01068616
-0.879,-0.01041333
-0.88,-0.01015276
-0.881,-0.009898326
-0.882,-0.009650022
-0.883,-0.00941398
-0.884,-0.009181003
-0.885,-0.008954158
-0.886,-0.008736508
-0.887,-0.00852499
-0.888,-0.008316537
-0.889,-0.008120347
-0.89,-0.007927221
-0.891,-0.007734096
-0.892,-0.007556298
-0.893,-0.007381565
-0.894,-0.007206833
-0.895,-0.007047428
-0.896,-0.006888022
-0.897,-0.006728617
-0.898,-0.00658454
-0.899,-0.006443528
-0.9,-0.00630558
-0.901,-0.006173765
-0.902,-0.006041949
-0.903,-0.00591933
-0.904,-0.005802842
-0.905,-0.005686353
-0.906,-0.005579061
-0.907,-0.005471769
-0.908,-0.005370609
-0.909,-0.005272513
-0.91,-0.005180549
-0.911,-0.005088584
-0.912,-0.005002751
-0.913,-0.004926114
-0.914,-0.00484028
-0.915,-0.004766709
-0.916,-0.004696202
-0.917,-0.004619565
-0.918,-0.004558256
-0.919,-0.004496946
-0.92,-0.004429505
-0.921,-0.004380458
-0.922,-0.004322214
-0.923,-0.00426397
-0.924,-0.004217987
-0.925,-0.004168939
-0.926,-0.004116826
-0.927,-0.004076975
-0.928,-0.004034058
-0.929,-0.003994207
-0.93,-0.003957421
-0.931,-0.003920636
-0.932,-0.00388385
-0.933,-0.00385626
-0.934,-0.00382254
-0.935,-0.00378882
-0.936,-0.003770427
-0.937,-0.003736707
-0.938,-0.003712183
-0.939,-0.003690724
-0.94,-0.0036662
-0.941,-0.003641677
-0.942,-0.003626349
-0.943,-0.00359876
-0.944,-0.003580367
-0.945,-0.003568105
-0.946,-0.003546647
-0.947,-0.003528254
-0.948,-0.003515992
-0.949,-0.003494533
-0.95,-0.003485337
-0.951,-0.003473075
-0.952,-0.003451617
-0.953,-0.003445486
-0.954,-0.003433224
-0.955,-0.003417896
-0.956,-0.003411765
-0.957,-0.003399503
-0.958,-0.003387242
-0.959,-0.003378045
-0.96,-0.003371914
-0.961,-0.003359652
-0.962,-0.003353521
-0.963,-0.00334739
-0.964,-0.003338194
-0.965,-0.003332063
-0.966,-0.003322866
-0.967,-0.003316735
-0.968,-0.003310604
-0.969,-0.003301408
-0.97,-0.003298342
-0.971,-0.003292212
-0.972,-0.003286081
-0.973,-0.003283015
-0.974,-0.003276884
-0.975,-0.003273819
-0.976,-0.003267688
-0.977,-0.003267688
-0.978,-0.003258491
-0.979,-0.003255426
-0.98,-0.003255426
-0.981,-0.00325236
-0.982,-0.003246229
-0.983,-0.003246229
-0.984,-0.003243164
-0.985,-0.003237033
-0.986,-0.003240098
-0.987,-0.003233967
-0.988,-0.003233967
-0.989,-0.003233967
-0.99,-0.003227836
-0.991,-0.003227836
-0.992,-0.003224771
-0.993,-0.003224771
-0.994,-0.003224771
-0.995,-0.003224771
-0.996,-0.00321864
-0.997,-0.003221706
-0.998,-0.003221706
-0.999,-0.00321864
-1,-0.00321864
-1.001,-0.003221706
-1.002,-0.00321864
-1.003,-0.00321864
-1.004,-0.003221706
-1.005,-0.00321864
-1.006,-0.003224771
-1.007,-0.003224771
-1.008,-0.003224771
-1.009,-0.003227836
-1.01,-0.003224771
-1.011,-0.003230902
-1.012,-0.003233967
-1.013,-0.003230902
-1.014,-0.003233967
-1.015,-0.003240098
-1.016,-0.003240098
-1.017,-0.003240098
-1.018,-0.003246229
-1.019,-0.003243164
-1.02,-0.00325236
-1.021,-0.003258491
-1.022,-0.00325236
-1.023,-0.003261557
-1.024,-0.003264622
-1.025,-0.003261557
-1.026,-0.003270753
-1.027,-0.003270753
-1.028,-0.003270753
-1.029,-0.003276884
-1.03,-0.003283015
-1.031,-0.003283015
-1.032,-0.003286081
-1.033,-0.003292212
-1.034,-0.003292212
-1.035,-0.003295277
-1.036,-0.003301408
-1.037,-0.003301408
-1.038,-0.003307539
-1.039,-0.003310604
-1.04,-0.00331367
-1.041,-0.003319801
-1.042,-0.003322866
-1.043,-0.003322866
-1.044,-0.003328997
-1.045,-0.003332063
-1.046,-0.003335128
-1.047,-0.003341259
-1.048,-0.003344325
-1.049,-0.00334739
-1.05,-0.003353521
-1.051,-0.003359652
-1.052,-0.003362718
-1.053,-0.003368848
-1.054,-0.003368848
-1.055,-0.003371914
-1.056,-0.003378045
-1.057,-0.00338111
-1.058,-0.003387242
-1.059,-0.003393373
-1.06,-0.003393373
-1.061,-0.003399503
-1.062,-0.003405634
-1.063,-0.0034087
-1.064,-0.003414831
-1.065,-0.003420962
-1.066,-0.003420962
-1.067,-0.003430158
-1.068,-0.003433224
-1.069,-0.003433224
-1.07,-0.00344242
-1.071,-0.003448551
-1.072,-0.003451617
-1.073,-0.003460813
-1.074,-0.003463879
-1.075,-0.003466944
-1.076,-0.00347614
-1.077,-0.00347614
-1.078,-0.003485337
-1.079,-0.003491468
-1.08,-0.003494533
-1.081,-0.003500664
-1.082,-0.003506796
-1.083,-0.003509861
-1.084,-0.003519057
-1.085,-0.003522123
-1.086,-0.003525188
-1.087,-0.003534385
-1.088,-0.00353745
-1.089,-0.003540515
-1.09,-0.003549712
-1.091,-0.003552777
-1.092,-0.003555843
-1.093,-0.003565039
-1.094,-0.003568105
-1.095,-0.00357117
-1.096,-0.003577302
-1.097,-0.003580367
-1.098,-0.003583432
-1.099,-0.003589563
-1.1,-0.003592629
-1.101,-0.003595694
-1.102,-0.003604891
-1.103,-0.003601825
-1.104,-0.003607956
-1.105,-0.003611021
-1.106,-0.003611021
-1.107,-0.003617153
-1.108,-0.003623284
-1.109,-0.003620218
-1.11,-0.003629415
-1.111,-0.00363248
-1.112,-0.003629415
-1.113,-0.003638611
-1.114,-0.003641677
-1.115,-0.003641677
-1.116,-0.003647808
-1.117,-0.003647808
-1.118,-0.003647808
-1.119,-0.003653938
-1.12,-0.003657004
-1.121,-0.003657004
-1.122,-0.003663135
-1.123,-0.0036662
-1.124,-0.0036662
-1.125,-0.003669266
-1.126,-0.003672331
-1.127,-0.003672331
-1.128,-0.003675397
-1.129,-0.003678462
-1.13,-0.003678462
-1.131,-0.003681528
-1.132,-0.003687659
-1.133,-0.003687659
-1.134,-0.003690724
-1.135,-0.003690724
-1.136,-0.00369379
-1.137,-0.00369379
-1.138,-0.003699921
-1.139,-0.003699921
-1.14,-0.003702986
-1.141,-0.003702986
-1.142,-0.003706052
-1.143,-0.003709117
-1.144,-0.003709117
-1.145,-0.003712183
-1.146,-0.003715248
-1.147,-0.003715248
-1.148,-0.003718314
-1.149,-0.003718314
-1.15,-0.003721379
-1.151,-0.003724444
-1.152,-0.003724444
-1.153,-0.00372751
-1.154,-0.00372751
-1.155,-0.00372751
-1.156,-0.003730575
-1.157,-0.003730575
-1.158,-0.003733641
-1.159,-0.003733641
-1.16,-0.003736707
-1.161,-0.003739772
-1.162,-0.003739772
-1.163,-0.003739772
-1.164,-0.003742838
-1.165,-0.003745903
-1.166,-0.003745903
-1.167,-0.003745903
-1.168,-0.003745903
-1.169,-0.003748968
-1.17,-0.003748968
-1.171,-0.003752034
-1.172,-0.003748968
-1.173,-0.003752034
-1.174,-0.003755099
-1.175,-0.003755099
-1.176,-0.003755099
-1.177,-0.003755099
-1.178,-0.003758165
-1.179,-0.003758165
-1.18,-0.003758165
-1.181,-0.003758165
-1.182,-0.00376123
-1.183,-0.00376123
-1.184,-0.00376123
-1.185,-0.00376123
-1.186,-0.00376123
-1.187,-0.00376123
-1.188,-0.00376123
-1.189,-0.00376123
-1.19,-0.00376123
-1.191,-0.003764296
-1.192,-0.00376123
-1.193,-0.00376123
-1.194,-0.003764296
-1.195,-0.00376123
-1.196,-0.00376123
-1.197,-0.003764296
-1.198,-0.00376123
-1.199,-0.00376123
-1.2,-0.00376123
-1.201,-0.00376123
-1.202,-0.003758165
-1.203,-0.00376123
-1.204,-0.003758165
-1.205,-0.003755099
-1.206,-0.003758165
-1.207,-0.003758165
-1.208,-0.003755099
-1.209,-0.003755099
-1.21,-0.003755099
-1.211,-0.003752034
-1.212,-0.003755099
-1.213,-0.003752034
-1.214,-0.003752034
-1.215,-0.003752034
-1.216,-0.003748968
-1.217,-0.003748968
-1.218,-0.003752034
-1.219,-0.003745903
-1.22,-0.003745903
-1.221,-0.003748968
-1.222,-0.003742838
-1.223,-0.003742838
-1.224,-0.003745903
-1.225,-0.003739772
-1.226,-0.003742838
-1.227,-0.003742838
-1.228,-0.003736707
-1.229,-0.003742838
-1.23,-0.003742838
-1.231,-0.003739772
-1.232,-0.003739772
-1.233,-0.003739772
-1.234,-0.003736707
-1.235,-0.003736707
-1.236,-0.003739772
-1.237,-0.003736707
-1.238,-0.003733641
-1.239,-0.003736707
-1.24,-0.003730575
-1.241,-0.003733641
-1.242,-0.003733641
-1.243,-0.00372751
-1.244,-0.003733641
-1.245,-0.003733641
-1.246,-0.00372751
-1.247,-0.003733641
-1.248,-0.003730575
-1.249,-0.00372751
-1.25,-0.003730575
-1.251,-0.003730575
-1.252,-0.003724444
-1.253,-0.003730575
-1.254,-0.00372751
-1.255,-0.003724444
-1.256,-0.00372751
-1.257,-0.00372751
-1.258,-0.003724444
-1.259,-0.003724444
-1.26,-0.00372751
-1.261,-0.003724444
-1.262,-0.00372751
-1.263,-0.00372751
-1.264,-0.003724444
-1.265,-0.00372751
-1.266,-0.003724444
-1.267,-0.00372751
-1.268,-0.003730575
-1.269,-0.003724444
-1.27,-0.00372751
-1.271,-0.00372751
-1.272,-0.003721379
-1.273,-0.003730575
-1.274,-0.003730575
-1.275,-0.003724444
-1.276,-0.003730575
-1.277,-0.003730575
-1.278,-0.00372751
-1.279,-0.003730575
-1.28,-0.003730575
-1.281,-0.003730575
-1.282,-0.003733641
-1.283,-0.003730575
-1.284,-0.003733641
-1.285,-0.003733641
-1.286,-0.003730575
-1.287,-0.003736707
-1.288,-0.003736707
-1.289,-0.003733641
-1.29,-0.003733641
-1.291,-0.003739772
-1.292,-0.003736707
-1.293,-0.003733641
-1.294,-0.003742838
-1.295,-0.003733641
-1.296,-0.003739772
-1.297,-0.003742838
-1.298,-0.003739772
-1.299,-0.003742838
-1.3,-0.003742838
-1.301,-0.003739772
-1.302,-0.003745903
-1.303,-0.003745903
-1.304,-0.003745903
-1.305,-0.003745903
-1.306,-0.003748968
-1.307,-0.003748968
-1.308,-0.003752034
-1.309,-0.003755099
-1.31,-0.003748968
-1.311,-0.003758165
-1.312,-0.003758165
-1.313,-0.003755099
-1.314,-0.00376123
-1.315,-0.003758165
-1.316,-0.003758165
-1.317,-0.003764296
-1.318,-0.003764296
-1.319,-0.00376123
-1.32,-0.003767361
-1.321,-0.003767361
-1.322,-0.003764296
-1.323,-0.003770427
-1.324,-0.003770427
-1.325,-0.003770427
-1.326,-0.003773492
-1.327,-0.003773492
-1.328,-0.003776558
-1.329,-0.003779623
-1.33,-0.003779623
-1.331,-0.003779623
-1.332,-0.003785754
-1.333,-0.003785754
-1.334,-0.003785754
-1.335,-0.00378882
-1.336,-0.00378882
-1.337,-0.00378882
-1.338,-0.003794951
-1.339,-0.003798016
-1.34,-0.003794951
-1.341,-0.003798016
-1.342,-0.003804147
-1.343,-0.003801082
-1.344,-0.003804147
-1.345,-0.003810278
-1.346,-0.003804147
-1.347,-0.003816409
-1.348,-0.003813344
-1.349,-0.003810278
-1.35,-0.003819474
-1.351,-0.00382254
-1.352,-0.00382254
-1.353,-0.003825605
-1.354,-0.003828671
-1.355,-0.003828671
-1.356,-0.003834802
-1.357,-0.003831736
-1.358,-0.003837867
-1.359,-0.003840933
-1.36,-0.003840933
-1.361,-0.003843998
-1.362,-0.003850129
-1.363,-0.003847064
-1.364,-0.00385626
-1.365,-0.003862391
-1.366,-0.003853195
-1.367,-0.003862391
-1.368,-0.003865457
-1.369,-0.003862391
-1.37,-0.003868522
-1.371,-0.003877719
-1.372,-0.003874653
-1.373,-0.00388385
-1.374,-0.00388385
-1.375,-0.00388385
-1.376,-0.003893046
-1.377,-0.003896111
-1.378,-0.003899177
-1.379,-0.003905308
-1.38,-0.003911439
-1.381,-0.003911439
-1.382,-0.00391757
-1.383,-0.00391757
-1.384,-0.003926767
-1.385,-0.003935963
-1.386,-0.003932897
-1.387,-0.003942094
-1.388,-0.003954356
-1.389,-0.003948225
-1.39,-0.003960487
-1.391,-0.003966617
-1.392,-0.003966617
-1.393,-0.003975814
-1.394,-0.003985011
-1.395,-0.003988076
-1.396,-0.003997272
-1.397,-0.004003403
-1.398,-0.004009534
-1.399,-0.004015665
-1.4,-0.004027927
-1.401,-0.004034058
-1.402,-0.004043255
-1.403,-0.004052451
-1.404,-0.004058582
-1.405,-0.004070844
-1.406,-0.004083106
-1.407,-0.004089237
-1.408,-0.004101499
-1.409,-0.004110695
-1.41,-0.004119892
-1.411,-0.004135219
-1.412,-0.004147481
-1.413,-0.004159743
-1.414,-0.00417507
-1.415,-0.004187332
-1.416,-0.004196529
-1.417,-0.004217987
-1.418,-0.004227184
-1.419,-0.004242511
-1.42,-0.004267035
-1.421,-0.004279297
-1.422,-0.00429769
-1.423,-0.004316083
-1.424,-0.00433141
-1.425,-0.004349803
-1.426,-0.004377393
-1.427,-0.00439272
-1.428,-0.004417243
-1.429,-0.004441767
-1.43,-0.004466291
-1.431,-0.004484684
-1.432,-0.004515339
-1.433,-0.004539863
-1.434,-0.004567452
-1.435,-0.004601172
-1.436,-0.004625696
-1.437,-0.004656351
-1.438,-0.004693137
-1.439,-0.004723792
-1.44,-0.004760577
-1.441,-0.004797364
-1.442,-0.004828018
-1.443,-0.004874
-1.444,-0.004913852
-1.445,-0.004950637
-1.446,-0.004999685
-1.447,-0.005045668
-1.448,-0.005088584
-1.449,-0.005140697
-1.45,-0.005189745
-1.451,-0.005241858
-1.452,-0.005297037
-1.453,-0.005358347
-1.454,-0.005413526
-1.455,-0.005474835
-1.456,-0.005542276
-1.457,-0.00560665
-1.458,-0.005680223
-1.459,-0.005753794
-1.46,-0.0058243
-1.461,-0.005904003
-1.462,-0.005986771
-1.463,-0.006066473
-1.464,-0.006155372
-1.465,-0.006247337
-1.466,-0.006339301
-1.467,-0.006437397
-1.468,-0.006544688
-1.469,-0.006645849
-1.47,-0.006759272
-1.471,-0.006872695
-1.472,-0.006986118
-1.473,-0.007114868
-1.474,-0.007240553
-1.475,-0.007369304
-1.476,-0.007513381
-1.477,-0.007651328
-1.478,-0.007795405
-1.479,-0.007954811
-1.48,-0.00811115
-1.481,-0.008270555
-1.482,-0.008448353
-1.483,-0.00862002
-1.484,-0.008800884
-1.485,-0.008994009
-1.486,-0.009187134
-1.487,-0.009383325
-1.488,-0.009594844
-1.489,-0.009803296
-1.49,-0.01002708
-1.491,-0.01025392
-1.492,-0.01048383
-1.493,-0.01072601
-1.494,-0.01097738
-1.495,-0.01122875
-1.496,-0.01148931
-1.497,-0.01176214
-1.498,-0.0120319
-1.499,-0.01231699
-1.5,-0.01251318
-1.499,-0.01251318
-1.498,-0.01251625
-1.497,-0.01251625
-1.496,-0.01250092
-1.495,-0.01249786
-1.494,-0.01248559
-1.493,-0.01246414
-1.492,-0.01245494
-1.491,-0.01243348
-1.49,-0.01240283
-1.489,-0.0123783
-1.488,-0.01235378
-1.487,-0.01232006
-1.486,-0.01229553
-1.485,-0.01225568
-1.484,-0.01221277
-1.483,-0.01217598
-1.482,-0.01213306
-1.481,-0.01208402
-1.48,-0.01204417
-1.479,-0.01199205
-1.478,-0.01193994
-1.477,-0.01189089
-1.476,-0.01183571
-1.475,-0.01178053
-1.474,-0.01172842
-1.473,-0.01166711
-1.472,-0.01160274
-1.471,-0.01154756
-1.47,-0.01148012
-1.469,-0.01141881
-1.468,-0.0113575
-1.467,-0.01129006
-1.466,-0.01122261
-1.465,-0.01115824
-1.464,-0.01108773
-1.463,-0.01102029
-1.462,-0.01094979
-1.461,-0.01087315
-1.46,-0.01080571
-1.459,-0.01073214
-1.458,-0.0106555
-1.457,-0.010585
-1.456,-0.01051142
-1.455,-0.01042865
-1.454,-0.01035508
-1.453,-0.01028151
-1.452,-0.01020487
-1.451,-0.0101313
-1.45,-0.01005467
-1.449,-0.009974963
-1.448,-0.00989526
-1.447,-0.00982169
-1.446,-0.009741987
-1.445,-0.009662284
-1.444,-0.009585647
-1.443,-0.009505944
-1.442,-0.009426242
-1.441,-0.009349605
-1.44,-0.009266837
-1.439,-0.009187134
-1.438,-0.009110497
-1.437,-0.00902773
-1.436,-0.008951092
-1.435,-0.008874455
-1.434,-0.008791687
-1.433,-0.008711984
-1.432,-0.008635348
-1.431,-0.008549514
-1.43,-0.008472877
-1.429,-0.00839624
-1.428,-0.008310406
-1.427,-0.00823377
-1.426,-0.008157132
-1.425,-0.008074365
-1.424,-0.008003858
-1.423,-0.00792109
-1.422,-0.007841388
-1.421,-0.007767816
-1.42,-0.007688113
-1.419,-0.007611477
-1.418,-0.007537905
-1.417,-0.007467398
-1.416,-0.007393827
-1.415,-0.00731719
-1.414,-0.007246684
-1.413,-0.007170047
-1.412,-0.007096475
-1.411,-0.007029035
-1.41,-0.006955463
-1.409,-0.006888022
-1.408,-0.006820582
-1.407,-0.006750076
-1.406,-0.006682635
-1.405,-0.006615194
-1.404,-0.006544688
-1.403,-0.006480313
-1.402,-0.006412873
-1.401,-0.006348498
-1.4,-0.006284122
-1.399,-0.006216682
-1.398,-0.006158438
-1.397,-0.006097128
-1.396,-0.006029687
-1.395,-0.005974509
-1.394,-0.005913199
-1.393,-0.005851889
-1.392,-0.00579671
-1.391,-0.005738466
-1.39,-0.005680223
-1.389,-0.005628109
-1.388,-0.00557293
-1.387,-0.005514686
-1.386,-0.005465638
-1.385,-0.005413526
-1.384,-0.005361412
-1.383,-0.005312365
-1.382,-0.005263316
-1.381,-0.005211203
-1.38,-0.005165222
-1.379,-0.005119239
-1.378,-0.005067126
-1.377,-0.005027275
-1.376,-0.004981292
-1.375,-0.00493531
-1.374,-0.004892393
-1.373,-0.004852542
-1.372,-0.00480656
-1.371,-0.004766709
-1.37,-0.004726857
-1.369,-0.004687006
-1.368,-0.004647155
-1.367,-0.004613434
-1.366,-0.004573583
-1.365,-0.004536797
-1.364,-0.004506143
-1.363,-0.004466291
-1.362,-0.004432571
-1.361,-0.004398851
-1.36,-0.00436513
-1.359,-0.00433141
-1.358,-0.00430382
-1.357,-0.004267035
-1.356,-0.004239446
-1.355,-0.004208791
-1.354,-0.004178136
-1.353,-0.004150547
-1.352,-0.004122957
-1.351,-0.004092303
-1.35,-0.004067779
-1.349,-0.004037124
-1.348,-0.004009534
-1.347,-0.003985011
-1.346,-0.003960487
-1.345,-0.003932897
-1.344,-0.003908373
-1.343,-0.00388385
-1.342,-0.003859326
-1.341,-0.003837867
-1.34,-0.003816409
-1.339,-0.003791885
-1.338,-0.003773492
-1.337,-0.003745903
-1.336,-0.00372751
-1.335,-0.003709117
-1.334,-0.003681528
-1.333,-0.003663135
-1.332,-0.003644742
-1.331,-0.003620218
-1.33,-0.003607956
-1.329,-0.003583432
-1.328,-0.003561974
-1.327,-0.003549712
-1.326,-0.003528254
-1.325,-0.003509861
-1.324,-0.003494533
-1.323,-0.00347614
-1.322,-0.003457748
-1.321,-0.003445486
-1.32,-0.003427093
-1.319,-0.003411765
-1.318,-0.003399503
-1.317,-0.003378045
-1.316,-0.003365783
-1.315,-0.003350456
-1.314,-0.003332063
-1.313,-0.003316735
-1.312,-0.003304473
-1.311,-0.003286081
-1.31,-0.003270753
-1.309,-0.003261557
-1.308,-0.003243164
-1.307,-0.003227836
-1.306,-0.00321864
-1.305,-0.003200247
-1.304,-0.003187985
-1.303,-0.003178789
-1.302,-0.003163461
-1.301,-0.003148134
-1.3,-0.003135872
-1.299,-0.00312361
-1.298,-0.003108283
-1.297,-0.003102152
-1.296,-0.003086824
-1.295,-0.003074562
-1.294,-0.003065366
-1.293,-0.003050038
-1.292,-0.003037777
-1.291,-0.00302858
-1.29,-0.003016318
-1.289,-0.003004056
-1.288,-0.002997925
-1.287,-0.002982598
-1.286,-0.002970336
-1.285,-0.002961139
-1.284,-0.002948877
-1.283,-0.002939681
-1.282,-0.002930485
-1.281,-0.002918222
-1.28,-0.002905961
-1.279,-0.00289983
-1.278,-0.002887568
-1.277,-0.002878371
-1.276,-0.002869175
-1.275,-0.002856913
-1.274,-0.002847716
-1.273,-0.002841586
-1.272,-0.002826258
-1.271,-0.002823193
-1.27,-0.002813996
-1.269,-0.002798669
-1.268,-0.002792538
-1.267,-0.002783341
-1.266,-0.00277108
-1.265,-0.002768014
-1.264,-0.002755752
-1.263,-0.00274349
-1.262,-0.002740425
-1.261,-0.002728163
-1.26,-0.002715901
-1.259,-0.002712835
-1.258,-0.002703639
-1.257,-0.002688312
-1.256,-0.002688312
-1.255,-0.002676049
-1.254,-0.002666853
-1.253,-0.002663787
-1.252,-0.002651526
-1.251,-0.002639264
-1.25,-0.002636198
-1.249,-0.002623936
-1.248,-0.002617805
-1.247,-0.002611674
-1.246,-0.002602478
-1.245,-0.002596347
-1.244,-0.002590216
-1.243,-0.002577954
-1.242,-0.002571823
-1.241,-0.002565692
-1.24,-0.00255343
-1.239,-0.002547299
-1.238,-0.002544234
-1.237,-0.002531972
-1.236,-0.002528906
-1.235,-0.00251971
-1.234,-0.002507448
-1.233,-0.002504382
-1.232,-0.002495186
-1.231,-0.002489055
-1.23,-0.00248599
-1.229,-0.002473728
-1.228,-0.002467597
-1.227,-0.002461466
-1.226,-0.002449204
-1.225,-0.002446138
-1.224,-0.002440007
-1.223,-0.002430811
-1.222,-0.002427745
-1.221,-0.002421614
-1.22,-0.002409352
-1.219,-0.002403222
-1.218,-0.002400156
-1.217,-0.002387894
-1.216,-0.002384829
-1.215,-0.002381763
-1.214,-0.002366436
-1.213,-0.002366436
-1.212,-0.002360305
-1.211,-0.002351108
-1.21,-0.002348043
-1.209,-0.002338846
-1.208,-0.00232965
-1.207,-0.002326585
-1.206,-0.002317388
-1.205,-0.002314323
-1.204,-0.002308191
-1.203,-0.002298995
-1.202,-0.002292864
-1.201,-0.002289799
-1.2,-0.002283668
-1.199,-0.002274471
-1.198,-0.002271406
-1.197,-0.002265275
-1.196,-0.002259144
-1.195,-0.002253013
-1.194,-0.002246882
-1.193,-0.002240751
-1.192,-0.002237685
-1.191,-0.002228489
-1.19,-0.002222358
-1.189,-0.002219293
-1.188,-0.002210096
-1.187,-0.002203965
-1.186,-0.0022009
-1.185,-0.002191703
-1.184,-0.002185572
-1.183,-0.002182507
-1.182,-0.00217331
-1.181,-0.002170245
-1.18,-0.002164114
-1.179,-0.002157983
-1.178,-0.002154917
-1.177,-0.002148786
-1.176,-0.00213959
-1.175,-0.002136525
-1.174,-0.002133459
-1.173,-0.002124263
-1.172,-0.002121197
-1.171,-0.002112001
-1.17,-0.002108935
-1.169,-0.00210587
-1.168,-0.002099739
-1.167,-0.002090542
-1.166,-0.002090542
-1.165,-0.002081346
-1.164,-0.002075215
-1.163,-0.002075215
-1.162,-0.002062953
-1.161,-0.002056822
-1.16,-0.002056822
-1.159,-0.00204456
-1.158,-0.00204456
-1.157,-0.002041495
-1.156,-0.002029233
-1.155,-0.002029233
-1.154,-0.002026167
-1.153,-0.002016971
-1.152,-0.002013905
-1.151,-0.00201084
-1.15,-0.001998578
-1.149,-0.001998578
-1.148,-0.001992447
-1.147,-0.00198325
-1.146,-0.00198325
-1.145,-0.00197712
-1.144,-0.001967923
-1.143,-0.001967923
-1.142,-0.001961792
-1.141,-0.001952596
-1.14,-0.00194953
-1.139,-0.001943399
-1.138,-0.001934203
-1.137,-0.001934203
-1.136,-0.001928072
-1.135,-0.001921941
-1.134,-0.001918875
-1.133,-0.001909679
-1.132,-0.001906613
-1.131,-0.001900482
-1.13,-0.001894351
-1.129,-0.001891286
-1.128,-0.00188822
-1.127,-0.001879024
-1.126,-0.001875959
-1.125,-0.001872893
-1.124,-0.001863697
-1.123,-0.001860631
-1.122,-0.001857566
-1.121,-0.001848369
-1.12,-0.001845304
-1.119,-0.001842238
-1.118,-0.001836107
-1.117,-0.001833042
-1.116,-0.001823845
-1.115,-0.001817714
-1.114,-0.001817714
-1.113,-0.001811583
-1.112,-0.001805453
-1.111,-0.001799321
-1.11,-0.00179319
-1.109,-0.001790125
-1.108,-0.001783994
-1.107,-0.001777863
-1.106,-0.001774798
-1.105,-0.001768667
-1.104,-0.001762536
-1.103,-0.00175947
-1.102,-0.001756405
-1.101,-0.001750274
-1.1,-0.001747208
-1.099,-0.001741077
-1.098,-0.001731881
-1.097,-0.001731881
-1.096,-0.001728815
-1.095,-0.001719619
-1.094,-0.001716554
-1.093,-0.001713488
-1.092,-0.001704292
-1.091,-0.001701226
-1.09,-0.001698161
-1.089,-0.001688964
-1.088,-0.001688964
-1.087,-0.001682833
-1.086,-0.001676702
-1.085,-0.001673637
-1.084,-0.001667506
-1.083,-0.001661375
-1.082,-0.001658309
-1.081,-0.001652178
-1.08,-0.001649113
-1.079,-0.001642982
-1.078,-0.001636851
-1.077,-0.001633785
-1.076,-0.00163072
-1.075,-0.001624589
-1.074,-0.001618458
-1.073,-0.001615393
-1.072,-0.001609262
-1.071,-0.001641861
-1.07,-0.001639409
-1.069,-0.001632971
-1.068,-0.00162776
-1.067,-0.001625614
-1.066,-0.00161887
-1.065,-0.001613352
-1.064,-0.001610593
-1.063,-0.001604156
-1.062,-0.00160017
-1.061,-0.001597411
-1.06,-0.001590054
-1.059,-0.001585763
-1.058,-0.001583617
-1.057,-0.001576566
-1.056,-0.001571661
-1.055,-0.001568289
-1.054,-0.001562158
-1.053,-0.001558173
-1.052,-0.001554495
-1.051,-0.001547751
-1.05,-0.001544072
-1.049,-0.001540393
-1.048,-0.001533343
-1.047,-0.001530584
-1.046,-0.001526599
-1.045,-0.001517709
-1.044,-0.001516176
-1.043,-0.001510658
-1.042,-0.001504527
-1.041,-0.001500542
-1.04,-0.00149717
-1.039,-0.001490426
-1.038,-0.001487361
-1.037,-0.001482149
-1.036,-0.001476938
-1.035,-0.001472646
-1.034,-0.001468355
-1.033,-0.001462837
-1.032,-0.001457319
-1.031,-0.001453334
-1.03,-0.001447509
-1.029,-0.001442911
-1.028,-0.001439232
-1.027,-0.001434021
-1.026,-0.001427584
-1.025,-0.001425438
-1.024,-0.001418694
-1.023,-0.001412869
-1.022,-0.001410417
-1.021,-0.001404593
-1.02,-0.001398462
-1.019,-0.001395703
-1.018,-0.001388345
-1.017,-0.001385587
-1.016,-0.001381295
-1.015,-0.001374551
-1.014,-0.001371792
-1.013,-0.001366581
-1.012,-0.00136045
-1.011,-0.001356158
-1.01,-0.001351866
-1.009,-0.001346655
-1.008,-0.001342363
-1.007,-0.001337459
-1.006,-0.001331634
-1.005,-0.001327342
-1.004,-0.001323357
-1.003,-0.001317839
-1.002,-0.001313548
-1.001,-0.001309563
-1,-0.001303432
-0.9990003,-0.001298527
-0.9980002,-0.001294848
-0.9970002,-0.001288717
-0.9960002,-0.001282893
-0.9950002,-0.001281054
-0.9940003,-0.001275229
-0.9930002,-0.001269405
-0.9920002,-0.001266646
-0.9910002,-0.001259289
-0.9900002,-0.001254384
-0.9890002,-0.001251932
-0.9880002,-0.001244574
-0.9870002,-0.00123967
-0.9860002,-0.001235684
-0.9850003,-0.00122986
-0.9840002,-0.001227101
-0.9830002,-0.001221277
-0.9820002,-0.001215452
-0.9810002,-0.001212387
-0.9800002,-0.001206869
-0.9790002,-0.001200431
-0.9780002,-0.001197673
-0.9770002,-0.001189089
-0.9760002,-0.001186943
-0.9750002,-0.001183571
-0.9740002,-0.001174375
-0.9730002,-0.001172229
-0.9720002,-0.001168857
-0.9710003,-0.00116058
-0.9700002,-0.001158434
-0.9690002,-0.00115353
-0.9680002,-0.001146479
-0.9670002,-0.00114372
-0.9660002,-0.001138202
-0.9650002,-0.001130845
-0.9640002,-0.001129006
-0.9630002,-0.001122875
-0.9620003,-0.001116744
-0.9610002,-0.001114291
-0.9600002,-0.00110816
-0.9590002,-0.00110111
-0.9580002,-0.001097738
-0.9570003,-0.001092833
-0.9560002,-0.001086395
-0.9550002,-0.001083023
-0.9540002,-0.001077812
-0.9530002,-0.001071068
-0.9520002,-0.001068309
-0.9510002,-0.001062791
-0.9500002,-0.001056967
-0.9490002,-0.001053288
-0.9480003,-0.001048077
-0.9470002,-0.001041946
-0.9460002,-0.001037961
-0.9450002,-0.001032749
-0.9440002,-0.001026925
-0.9430002,-0.00102202
-0.9420002,-0.001018342
-0.9410002,-0.001011291
-0.9400002,-0.00100608
-0.9390002,-0.001003934
-0.9380002,-0.0009956572
-0.9370002,-0.0009925916
-0.9360002,-0.0009886065
-0.9350002,-0.0009815559
-0.9340003,-0.0009778773
-0.9330002,-0.0009732791
-0.9320002,-0.0009662285
-0.9310002,-0.0009634696
-0.9300002,-0.0009576452
-0.9290002,-0.0009512077
-0.9280002,-0.0009481421
-0.9270002,-0.0009413981
-0.9260002,-0.0009361868
-0.9250003,-0.0009334278
-0.9240002,-0.0009269903
-0.9230002,-0.0009214724
-0.9220002,-0.0009174873
-0.9210002,-0.000912276
-0.9200003,-0.0009058384
-0.9190002,-0.0009030796
-0.9180002,-0.0008969486
-0.9170002,-0.0008926569
-0.9160002,-0.0008883653
-0.9150002,-0.0008813146
-0.9140002,-0.0008773295
-0.9130002,-0.0008736509
-0.9120002,-0.0008669068
-0.9110003,-0.0008629217
-0.9100002,-0.0008583235
-0.9090002,-0.000852499
-0.9080002,-0.000848514
-0.9070002,-0.0008445288
-0.9060002,-0.0008390109
-0.9050002,-0.0008347193
-0.9040002,-0.0008313472
-0.9030002,-0.0008236835
-0.9020002,-0.0008206181
-0.9010002,-0.0008163264
-0.9000002,-0.0008089693
-0.8990002,-0.0008062103
-0.8980002,-0.0008022251
-0.8970003,-0.0007954811
-0.8960002,-0.0007939483
-0.8950002,-0.0007878174
-0.8940002,-0.0007813799
-0.8930002,-0.000779234
-0.8920002,-0.0007740227
-0.8910002,-0.0007688114
-0.8900002,-0.0007654394
-0.8890002,-0.0007608412
-0.8880002,-0.0007556298
-0.8870002,-0.0007513381
-0.8860002,-0.0007470464
-0.8850002,-0.0007424483
-0.8840002,-0.00073785
-0.8830003,-0.0007341714
-0.8820002,-0.0007289601
-0.8810002,-0.0007243619
-0.8800002,-0.0007212964
-0.8790002,-0.0007163917
-0.8780002,-0.0007121
-0.8770002,-0.0007084214
-0.8760002,-0.0007022904
-0.8750002,-0.000699838
-0.8740003,-0.0006955464
-0.8730002,-0.0006891088
-0.8720002,-0.000686963
-0.8710002,-0.0006823648
-0.8700002,-0.0006771535
-0.8690003,-0.000674088
-0.8680002,-0.0006697963
-0.8670002,-0.0006648915
-0.8660002,-0.0006618261
-0.8650002,-0.0006572278
-0.8640002,-0.0006538558
-0.8630002,-0.0006495641
-0.8620002,-0.0006452725
-0.8610002,-0.0006406742
-0.8600003,-0.0006376088
-0.8590002,-0.0006333171
-0.8580002,-0.0006277992
-0.8570002,-0.0006262665
-0.8560002,-0.0006207486
-0.8550002,-0.00061707
-0.8540002,-0.0006143111
-0.8530002,-0.000610326
-0.8520002,-0.0006045015
-0.8510002,-0.0006029688
-0.8500002,-0.0005968378
-0.8490002,-0.0005940789
-0.8480002,-0.0005916265
-0.8470002,-0.0005870283
-0.8460003,-0.0005830431
-0.8450002,-0.0005796711
-0.8440002,-0.0005750729
-0.8430002,-0.0005717009
-0.8420002,-0.0005683288
-0.8410002,-0.0005649568
-0.8400002,-0.0005609716
-0.8390002,-0.0005569865
-0.8380002,-0.000553308
-0.8370003,-0.0005490163
-0.8360002,-0.0005450312
-0.8350002,-0.0005428853
-0.8340002,-0.0005379805
-0.8330002,-0.000534302
-0.8320003,-0.0005312365
-0.8310002,-0.0005266382
-0.8300002,-0.0005244924
-0.8290002,-0.0005202008
-0.8280002,-0.0005162156
-0.8270002,-0.0005146828
-0.8260002,-0.0005094716
-0.8250002,-0.0005067126
-0.8240002,-0.0005039537
-0.8230003,-0.0004987424
-0.8220002,-0.0004965966
-0.8210002,-0.0004938376
-0.8200002,-0.0004883197
-0.8190002,-0.0004852542
-0.8180002,-0.0004821887
-0.8170002,-0.0004782036
-0.8160002,-0.0004763643
-0.8150002,-0.0004729923
-0.8140002,-0.000467781
-0.8130002,-0.0004665548
-0.8120002,-0.0004619566
-0.8110002,-0.0004588911
-0.8100002,-0.0004570518
-0.8090003,-0.0004524536
-0.8080002,-0.0004493881
-0.8070002,-0.0004469357
-0.8060002,-0.0004420309
-0.8050002,-0.0004408048
-0.8040002,-0.0004374327
-0.8030002,-0.0004325279
-0.8020002,-0.0004306886
-0.8010002,-0.0004279297
-0.8000003,-0.0004444833
-0.8009998,-0.000471153
-0.8019998,-0.0004889328
-0.8029998,-0.0005011947
-0.8039998,-0.0005174418
-0.8049998,-0.0005290906
-0.8059998,-0.0005385936
-0.8069998,-0.0005517752
-0.8079998,-0.0005618913
-0.8089998,-0.0005720074
-0.8099998,-0.0005842693
-0.8109998,-0.0005922396
-0.8119998,-0.000600823
-0.8129998,-0.0006109391
-0.8139998,-0.0006192158
-0.8149998,-0.0006271861
-0.8159998,-0.0006363826
-0.8169998,-0.0006449659
-0.8179998,-0.0006514034
-0.8189998,-0.0006609064
-0.8199998,-0.0006685701
-0.8209998,-0.0006747011
-0.8219998,-0.0006829779
-0.8229998,-0.0006897219
-0.8239998,-0.0006958529
-0.8249998,-0.0007041298
-0.8259998,-0.0007108737
-0.8269998,-0.0007170048
-0.8279998,-0.000724975
-0.8289998,-0.0007307994
-0.8299998,-0.0007369304
-0.8309998,-0.000743981
-0.8319998,-0.0007504185
-0.8329998,-0.0007556298
-0.8339998,-0.0007626804
-0.8349998,-0.0007678918
-0.8359998,-0.0007737162
-0.8369998,-0.0007807668
-0.8379998,-0.0007862847
-0.8389998,-0.000791496
-0.8399998,-0.0007982401
-0.8409998,-0.000804371
-0.8419998,-0.0008098889
-0.8429998,-0.0008151002
-0.8439998,-0.0008218443
-0.8449998,-0.0008261359
-0.8459998,-0.0008313472
-0.8469998,-0.000839624
-0.8479998,-0.000842383
-0.8489998,-0.000848514
-0.8499998,-0.000855258
-0.8509998,-0.0008592432
-0.8519998,-0.000864761
-0.8529998,-0.0008702789
-0.8539998,-0.0008761032
-0.8549998,-0.000881008
-0.8559998,-0.0008852997
-0.8569998,-0.0008917373
-0.8579998,-0.000896642
-0.8589998,-0.0009009338
-0.8599998,-0.0009064515
-0.8609998,-0.0009119695
-0.8619998,-0.0009159546
-0.8629998,-0.0009223921
-0.8639998,-0.0009285231
-0.8649998,-0.0009315885
-0.8659998,-0.0009377195
-0.8669998,-0.0009432373
-0.8679998,-0.000947529
-0.8689998,-0.0009521273
-0.8699998,-0.0009579517
-0.8709998,-0.0009622434
-0.8719998,-0.0009683743
-0.8729998,-0.0009723594
-0.8739998,-0.0009775708
-0.8749998,-0.0009824756
-0.8759998,-0.0009876869
-0.8769998,-0.0009919786
-0.8779998,-0.0009987226
-0.8789998,-0.001002401
-0.8799998,-0.001006999
-0.8809998,-0.001013131
-0.8819998,-0.001016196
-0.8829998,-0.001021407
-0.8839998,-0.001027538
-0.8849998,-0.001031523
-0.8859998,-0.001036735
-0.8869998,-0.001042253
-0.8879998,-0.001046238
-0.8889998,-0.001050836
-0.8899998,-0.001056967
-0.8909998,-0.001060952
-0.8919998,-0.00106555
-0.8929998,-0.001071068
-0.8939998,-0.001075053
-0.8949998,-0.001079958
-0.8959998,-0.001085476
-0.8969998,-0.001089154
-0.8979998,-0.001094979
-0.8989998,-0.00110019
-0.8999998,-0.001103562
-0.9009998,-0.001109693
-0.9019998,-0.001115824
-0.9029998,-0.001118277
-0.9039998,-0.001125634
-0.9049998,-0.001129925
-0.9059998,-0.001131765
-0.9069998,-0.001138509
-0.9079998,-0.00114372
-0.9089998,-0.001147398
-0.9099998,-0.001155062
-0.9109998,-0.001157821
-0.9119998,-0.001162419
-0.9129998,-0.001168857
-0.9139998,-0.001172536
-0.9149998,-0.001177747
-0.9159998,-0.001184797
-0.9169998,-0.001187556
-0.9179998,-0.001191848
-0.9189998,-0.001198286
-0.9199998,-0.001199512
-0.9209998,-0.001208095
-0.9219998,-0.001214226
-0.9229998,-0.001215759
-0.9239998,-0.001222503
-0.9249998,-0.001228327
-0.9259998,-0.00122986
-0.9269998,-0.001237217
-0.9279998,-0.001242735
-0.9289998,-0.001244574
-0.9299998,-0.001251012
-0.9309998,-0.00125653
-0.9319998,-0.001258982
-0.9329998,-0.001266646
-0.9339998,-0.001271551
-0.9349998,-0.001273696
-0.9359998,-0.001280134
-0.9369998,-0.001284732
-0.9379998,-0.001288717
-0.9389998,-0.001294235
-0.9399998,-0.00129914
-0.9409998,-0.001302512
-0.9419998,-0.001309256
-0.9429998,-0.001312322
-0.9439998,-0.001317533
-0.9449998,-0.001322131
-0.9459998,-0.001327036
-0.9469998,-0.001332247
-0.9479998,-0.001336539
-0.9489998,-0.001341444
-0.9499998,-0.001344203
-0.9509998,-0.001350027
-0.9519998,-0.001356158
-0.9529998,-0.001358917
-0.9539998,-0.001365661
-0.9549998,-0.001371792
-0.9559998,-0.001374244
-0.9569998,-0.001380069
-0.9579998,-0.001384667
-0.9589998,-0.001387119
-0.9599998,-0.00139417
-0.9609998,-0.001397849
-0.9619998,-0.001402447
-0.9629998,-0.001407045
-0.9639998,-0.001412869
-0.9649998,-0.001416241
-0.9659998,-0.001421453
-0.9669998,-0.001427277
-0.9679998,-0.00142973
-0.9689998,-0.001436167
-0.9699998,-0.001441072
-0.9709998,-0.001444444
-0.9719998,-0.001451801
-0.9729998,-0.001454253
-0.9739998,-0.001457932
-0.9749998,-0.001464983
-0.9759998,-0.001469274
-0.9769998,-0.001474179
-0.9779998,-0.00147939
-0.9789998,-0.001483376
-0.9799998,-0.0014892
-0.9809998,-0.001495331
-0.9819998,-0.001497783
-0.9829998,-0.001504221
-0.9839998,-0.001507286
-0.9849998,-0.001510658
-0.9859998,-0.001517402
-0.9869998,-0.001521387
-0.9879998,-0.001525986
-0.9889998,-0.001532423
-0.9899998,-0.001535795
-0.9909998,-0.001540393
-0.9919998,-0.001547138
-0.9929998,-0.001550203
-0.9939998,-0.001556027
-0.9949998,-0.001561545
-0.9959998,-0.001565837
-0.9969998,-0.001568596
-0.9979998,-0.00157626
-0.9989998,-0.001579632
-0.9999998,-0.001583617
-1.001,-0.001591587
-1.002,-0.001592813
-1.003,-0.001600477
-1.004,-0.001607834
-1.005,-0.00160998
-1.006,-0.001617031
-1.007,-0.001621322
-1.008,-0.001623161
-1.009,-0.001632051
-1.01,-0.00163573
-1.011,-0.001639409
-1.012,-0.001646459
-1.013,-0.001650138
-1.014,-0.001656269
-1.015,-0.001662706
-1.016,-0.001665159
-1.017,-0.001670983
-1.018,-0.001677114
-1.019,-0.001679566
-1.02,-0.001686004
-1.021,-0.001692748
-1.022,-0.0016952
-1.023,-0.001701638
-1.024,-0.001708075
-1.025,-0.001710834
-1.026,-0.001717885
-1.027,-0.001723096
-1.028,-0.001724935
-1.029,-0.001734132
-1.03,-0.001737811
-1.031,-0.001741796
-1.032,-0.00174854
-1.033,-0.001753445
-1.034,-0.00175651
-1.035,-0.00176448
-1.036,-0.001769385
-1.037,-0.001771837
-1.038,-0.001778888
-1.039,-0.001785325
-1.04,-0.001788391
-1.041,-0.001795135
-1.042,-0.001800346
-1.043,-0.001804025
-1.044,-0.001811382
-1.045,-0.001815674
-1.046,-0.001818126
-1.047,-0.001827629
-1.048,-0.001831001
-1.049,-0.0018356
-1.05,-0.001843263
-1.051,-0.001846329
-1.052,-0.00185246
-1.053,-0.001859204
-1.054,-0.001861043
-1.055,-0.00186748
-1.056,-0.001875144
-1.057,-0.00187821
-1.058,-0.001883421
-1.059,-0.001889859
-1.06,-0.001891391
-1.061,-0.001900281
-1.062,-0.001907638
-1.063,-0.001907025
-1.064,-0.001916528
-1.065,-0.001922966
-1.066,-0.001924498
-1.067,-0.001933082
-1.068,-0.001937374
-1.069,-0.001939519
-1.07,-0.001947796
-1.071,-0.001951781
-1.072,-0.001955766
-1.073,-0.00196343
-1.074,-0.001967415
-1.075,-0.001972013
-1.076,-0.001979371
-1.077,-0.001981516
-1.078,-0.001988261
-1.079,-0.001994085
-1.08,-0.001995924
-1.081,-0.002002668
-1.082,-0.002009412
-1.083,-0.002013397
-1.084,-0.002019528
-1.085,-0.00202474
-1.086,-0.002029338
-1.087,-0.002033323
-1.088,-0.002042519
-1.089,-0.002044052
-1.09,-0.002050796
-1.091,-0.002057234
-1.092,-0.00205846
-1.093,-0.002065817
-1.094,-0.002070415
-1.095,-0.002076853
-1.096,-0.002082984
-1.097,-0.002086356
-1.098,-0.002091567
-1.099,-0.002098311
-1.1,-0.00210199
-1.101,-0.002106895
-1.102,-0.002114865
-1.103,-0.00211885
-1.104,-0.002122222
-1.105,-0.002130499
-1.106,-0.002132951
-1.107,-0.002138776
-1.108,-0.002145826
-1.109,-0.002149505
-1.11,-0.002155329
-1.111,-0.002161154
-1.112,-0.002164526
-1.113,-0.002170044
-1.114,-0.002176787
-1.115,-0.002180466
-1.116,-0.002186903
-1.117,-0.002193648
-1.118,-0.002197633
-1.119,-0.002203457
-1.12,-0.002209895
-1.121,-0.002213573
-1.122,-0.002219704
-1.123,-0.002226142
-1.124,-0.002231047
-1.125,-0.002236258
-1.126,-0.002243309
-1.127,-0.002249133
-1.128,-0.002254344
-1.129,-0.002261395
-1.13,-0.002263234
-1.131,-0.002272737
-1.132,-0.002276416
-1.133,-0.002279788
-1.134,-0.002288984
-1.135,-0.002294196
-1.136,-0.002297874
-1.137,-0.002306151
-1.138,-0.002309216
-1.139,-0.002313815
-1.14,-0.002322091
-1.141,-0.002325157
-1.142,-0.002331594
-1.143,-0.002338645
-1.144,-0.002341097
-1.145,-0.002348455
-1.146,-0.002354586
-1.147,-0.002357651
-1.148,-0.002364089
-1.149,-0.002369606
-1.15,-0.002374818
-1.151,-0.002381868
-1.152,-0.002389532
-1.153,-0.002389226
-1.154,-0.002398728
-1.155,-0.002401181
-1.156,-0.002404246
-1.157,-0.002412217
-1.158,-0.002416815
-1.159,-0.0024208
-1.16,-0.002428464
-1.161,-0.002431529
-1.162,-0.002435821
-1.163,-0.002440112
-1.164,-0.002449616
-1.165,-0.002451455
-1.166,-0.002456973
-1.167,-0.00246433
-1.168,-0.002464023
-1.169,-0.002471687
-1.17,-0.002477512
-1.171,-0.002479964
-1.172,-0.002487934
-1.173,-0.00249008
-1.174,-0.002493758
-1.175,-0.002500502
-1.176,-0.002503261
-1.177,-0.002510619
-1.178,-0.002515217
-1.179,-0.00251675
-1.18,-0.002522881
-1.181,-0.002527172
-1.182,-0.002527479
-1.183,-0.002535756
-1.184,-0.002540047
-1.185,-0.002540047
-1.186,-0.002546791
-1.187,-0.002553229
-1.188,-0.002551696
-1.189,-0.002557214
-1.19,-0.002561812
-1.191,-0.002561812
-1.192,-0.002569782
-1.193,-0.002574381
-1.194,-0.002576526
-1.195,-0.002581431
-1.196,-0.002587562
-1.197,-0.002587869
-1.198,-0.002593693
-1.199,-0.002600437
-1.2,-0.002600744
-1.201,-0.002609021
-1.202,-0.002614845
-1.203,-0.002615151
-1.204,-0.002622509
-1.205,-0.002628333
-1.206,-0.002629866
-1.207,-0.002638143
-1.208,-0.002641208
-1.209,-0.002646419
-1.21,-0.002653164
-1.211,-0.002655922
-1.212,-0.002659908
-1.213,-0.002668184
-1.214,-0.002671863
-1.215,-0.002676768
-1.216,-0.002682286
-1.217,-0.00268811
-1.218,-0.002692402
-1.219,-0.002699759
-1.22,-0.00270497
-1.221,-0.002708649
-1.222,-0.002716313
-1.223,-0.002720604
-1.224,-0.002725202
-1.225,-0.002733173
-1.226,-0.002739304
-1.227,-0.002742369
-1.228,-0.002750646
-1.229,-0.002757084
-1.23,-0.002761375
-1.231,-0.002771185
-1.232,-0.002775476
-1.233,-0.002777622
-1.234,-0.002789884
-1.235,-0.002793563
-1.236,-0.002798468
-1.237,-0.002810116
-1.238,-0.002811342
-1.239,-0.00281778
-1.24,-0.002828203
-1.241,-0.002830042
-1.242,-0.002838932
-1.243,-0.002848128
-1.244,-0.00285242
-1.245,-0.002861003
-1.246,-0.002872959
-1.247,-0.002875105
-1.248,-0.002884301
-1.249,-0.002894417
-1.25,-0.002895643
-1.251,-0.002906373
-1.252,-0.002917715
-1.253,-0.002921087
-1.254,-0.002931816
-1.255,-0.002942545
-1.256,-0.002946224
-1.257,-0.00295634
-1.258,-0.002967989
-1.259,-0.002971667
-1.26,-0.002982396
-1.261,-0.002994045
-1.262,-0.00299895
-1.263,-0.003009986
-1.264,-0.003022554
-1.265,-0.00299486
-1.266,-0.003004056
-1.267,-0.003010187
-1.268,-0.003022449
-1.269,-0.00302858
-1.27,-0.003043907
-1.271,-0.003050038
-1.272,-0.0030623
-1.273,-0.003074562
-1.274,-0.003083759
-1.275,-0.003096021
-1.276,-0.003105217
-1.277,-0.003117479
-1.278,-0.003129741
-1.279,-0.003142003
-1.28,-0.003151199
-1.281,-0.003163461
-1.282,-0.003175723
-1.283,-0.003187985
-1.284,-0.003200247
-1.285,-0.003212509
-1.286,-0.003224771
-1.287,-0.003237033
-1.288,-0.003255426
-1.289,-0.003261557
-1.29,-0.00327995
-1.291,-0.003295277
-1.292,-0.003301408
-1.293,-0.003322866
-1.294,-0.003335128
-1.295,-0.003350456
-1.296,-0.003368848
-1.297,-0.00338111
-1.298,-0.003393373
-1.299,-0.003414831
-1.3,-0.003430158
-1.301,-0.00344242
-1.302,-0.003463879
-1.303,-0.003482271
-1.304,-0.003497599
-1.305,-0.003509861
-1.306,-0.003531319
-1.307,-0.003546647
-1.308,-0.003568105
-1.309,-0.003583432
-1.31,-0.003604891
-1.311,-0.003626349
-1.312,-0.003644742
-1.313,-0.003663135
-1.314,-0.003684593
-1.315,-0.003706052
-1.316,-0.003730575
-1.317,-0.003748968
-1.318,-0.003767361
-1.319,-0.003794951
-1.32,-0.003816409
-1.321,-0.003843998
-1.322,-0.003868522
-1.323,-0.00388998
-1.324,-0.003911439
-1.325,-0.003942094
-1.326,-0.003966617
-1.327,-0.003994207
-1.328,-0.004027927
-1.329,-0.004052451
-1.33,-0.00408004
-1.331,-0.004116826
-1.332,-0.00414135
-1.333,-0.004172005
-1.334,-0.004208791
-1.335,-0.00423638
-1.336,-0.004273166
-1.337,-0.004306886
-1.338,-0.004340607
-1.339,-0.004377393
-1.34,-0.004417243
-1.341,-0.004450964
-1.342,-0.004490815
-1.343,-0.004530666
-1.344,-0.004570518
-1.345,-0.004613434
-1.346,-0.004659417
-1.347,-0.004699268
-1.348,-0.00474525
-1.349,-0.004794298
-1.35,-0.00484028
-1.351,-0.004892393
-1.352,-0.004941441
-1.353,-0.004993554
-1.354,-0.005048733
-1.355,-0.005103912
-1.356,-0.005156024
-1.357,-0.005217335
-1.358,-0.005278645
-1.359,-0.005336888
-1.36,-0.005401264
-1.361,-0.005468704
-1.362,-0.005530014
-1.363,-0.00560665
-1.364,-0.005677157
-1.365,-0.005750729
-1.366,-0.005830431
-1.367,-0.005907068
-1.368,-0.00598064
-1.369,-0.006069539
-1.37,-0.006155372
-1.371,-0.00623814
-1.372,-0.00633317
-1.373,-0.0064282
-1.374,-0.006520165
-1.375,-0.006624391
-1.376,-0.006719421
-1.377,-0.006826713
-1.378,-0.006934005
-1.379,-0.007041297
-1.38,-0.007157785
-1.381,-0.007277339
-1.382,-0.007393827
-1.383,-0.007522577
-1.384,-0.007648262
-1.385,-0.007773947
-1.386,-0.007911894
-1.387,-0.00804984
-1.388,-0.008184722
-1.389,-0.00833493
-1.39,-0.008485138
-1.391,-0.008632282
-1.392,-0.008791687
-1.393,-0.008951092
-1.394,-0.009113563
-1.395,-0.009279099
-1.396,-0.009453831
-1.397,-0.009622433
-1.398,-0.009809428
-1.399,-0.009990291
-1.4,-0.01017422
-1.401,-0.01036735
-1.402,-0.01055741
-1.403,-0.0107536
-1.404,-0.01096205
-1.405,-0.01116437
-1.406,-0.01137589
-1.407,-0.01159354
-1.408,-0.01180506
-1.409,-0.01202577
-1.41,-0.01225568
-1.411,-0.01247946
-1.412,-0.01271244
-1.413,-0.01295155
-1.414,-0.01318759
-1.415,-0.01343283
-1.416,-0.01368113
-1.417,-0.01392637
-1.418,-0.01418387
-1.419,-0.01444444
-1.42,-0.01470194
-1.421,-0.0149717
-1.422,-0.0152384
-1.423,-0.01550816
-1.424,-0.01578405
-1.425,-0.01606301
-1.426,-0.01633584
-1.427,-0.01662706
-1.428,-0.01691522
-1.429,-0.01720031
-1.43,-0.01749766
-1.431,-0.01779501
-1.432,-0.0180893
-1.433,-0.01838665
-1.434,-0.01869013
-1.435,-0.01899055
-1.436,-0.01930016
-1.437,-0.01960671
-1.438,-0.01991939
-1.439,-0.02023207
-1.44,-0.02054475
-1.441,-0.02086049
-1.442,-0.02118237
-1.443,-0.02150118
-1.444,-0.02182305
-1.445,-0.02215106
-1.446,-0.02247293
-1.447,-0.02279788
-1.448,-0.02313508
-1.449,-0.02345389
-1.45,-0.02379109
-1.451,-0.0241283
-1.452,-0.02445017
-1.453,-0.02479044
-1.454,-0.02512764
-1.455,-0.02545871
-1.456,-0.02579592
-1.457,-0.02613619
-1.458,-0.02646419
-1.459,-0.02680446
-1.46,-0.0271478
-1.461,-0.02748193
-1.462,-0.0278222
-1.463,-0.02815327
-1.464,-0.02848741
-1.465,-0.02882768
-1.466,-0.02915875
-1.467,-0.02948982
-1.468,-0.02983622
-1.469,-0.03017036
-1.47,-0.030623
-1.471,-0.03096021
-1.472,-0.03129741
-1.473,-0.03163461
-1.474,-0.03197182
-1.475,-0.03230902
-1.476,-0.03267688
-1.477,-0.03301408
-1.478,-0.03335128
-1.479,-0.03368849
-1.48,-0.03402569
-1.481,-0.03439355
-1.482,-0.0347001
-1.483,-0.0350373
-1.484,-0.03540516
-1.485,-0.03574236
-1.486,-0.03607956
-1.487,-0.03641677
-1.488,-0.03675397
-1.489,-0.03709117
-1.49,-0.03742838
-1.491,-0.03779623
-1.492,-0.03813344
-1.493,-0.03847064
-1.494,-0.03880784
-1.495,-0.0391757
-1.496,-0.0395129
-1.497,-0.03985011
-1.498,-0.04021796
-1.499,-0.04055517
-1.5,-0.04067779
-1.499,-0.04037124
-1.498,-0.04000338
-1.497,-0.03969683
-1.496,-0.03935963
-1.495,-0.03902243
-1.494,-0.03868522
-1.493,-0.03837867
-1.492,-0.03801082
-1.491,-0.03770427
-1.49,-0.03733641
-1.489,-0.03699921
-1.488,-0.036662
-1.487,-0.0363248
-1.486,-0.0359876
-1.485,-0.0356504
-1.484,-0.03531319
-1.483,-0.03497599
-1.482,-0.03463879
-1.481,-0.03430158
-1.48,-0.03399504
-1.479,-0.03365783
-1.478,-0.03332063
-1.477,-0.03298343
-1.476,-0.03267688
-1.475001,-0.03233967
-1.474,-0.03203313
-1.473,-0.03169592
-1.472,-0.03135872
-1.471,-0.03105217
-1.47,-0.03074562
-1.469,-0.03043908
-1.468,-0.03013253
-1.467,-0.02979532
-1.466,-0.02948878
-1.465,-0.02918223
-1.464,-0.02887568
-1.463,-0.02856913
-1.462,-0.02826258
-1.461,-0.02795603
-1.46,-0.02764949
-1.459,-0.02734294
-1.458,-0.02703639
-1.457,-0.02672984
-1.456,-0.02645395
-1.455,-0.0261474
-1.454,-0.02587151
-1.453,-0.02556496
-1.452,-0.02525841
-1.451,-0.02498252
-1.45,-0.02467597
-1.449,-0.02436942
-1.448,-0.02409353
-1.447,-0.02378698
-1.446,-0.02351108
-1.445,-0.02323519
-1.444,-0.0229593
-1.443,-0.0226834
-1.442,-0.02240751
-1.441,-0.02213162
-1.44,-0.02185572
-1.439,-0.02157983
-1.438,-0.02133459
-1.437,-0.0210587
-1.436,-0.0207828
-1.435,-0.02050691
-1.434,-0.02026167
-1.433,-0.01998578
-1.432,-0.01974054
-1.431,-0.01946465
-1.43,-0.01921941
-1.429,-0.01897417
-1.428,-0.01872893
-1.427,-0.01845304
-1.426,-0.0182078
-1.425,-0.01799322
-1.424,-0.01771732
-1.423,-0.01747208
-1.422,-0.01722685
-1.421,-0.01698161
-1.42,-0.01676702
-1.419,-0.01652178
-1.418,-0.01627655
-1.417,-0.01606196
-1.416,-0.01593426
-1.415,-0.01570435
-1.414,-0.0154867
-1.413,-0.01527212
-1.412,-0.01504834
-1.411,-0.01483988
-1.41,-0.01462837
-1.409,-0.01441685
-1.408,-0.01421453
-1.407,-0.0140122
-1.406,-0.01380988
-1.405,-0.0136045
-1.404,-0.01340524
-1.403,-0.01320905
-1.402,-0.01300979
-1.401,-0.0128228
-1.4,-0.01263274
-1.399,-0.01244574
-1.398,-0.01226181
-1.397,-0.01207789
-1.396,-0.01189702
-1.395,-0.01172229
-1.394,-0.01155062
-1.393,-0.01138202
-1.392,-0.01121035
-1.391,-0.01104175
-1.39,-0.01088235
-1.389,-0.01071681
-1.388,-0.01055741
-1.387,-0.01040413
-1.386,-0.01024473
-1.385,-0.01009145
-1.384,-0.009947374
-1.383,-0.009794099
-1.382,-0.009650022
-1.381,-0.00950901
-1.38,-0.009361867
-1.379,-0.009226986
-1.378,-0.00909517
-1.377,-0.008960289
-1.376,-0.008831538
-1.375,-0.008702789
-1.374,-0.008570973
-1.373,-0.008451419
-1.372,-0.008331865
-1.371,-0.008209245
-1.37,-0.008092757
-1.369,-0.007979334
-1.368,-0.007862846
-1.367,-0.007755554
-1.366,-0.007648262
-1.365,-0.00754097
-1.364,-0.007439809
-1.363,-0.007338648
-1.362,-0.007237487
-1.361,-0.007142458
-1.36,-0.007047428
-1.359,-0.006952398
-1.358,-0.006863499
-1.357,-0.006777665
-1.356,-0.006685701
-1.355,-0.006599867
-1.354,-0.006520165
-1.353,-0.006434331
-1.352,-0.006354629
-1.351,-0.006277991
-1.350001,-0.006198289
-1.349,-0.006124718
-1.348,-0.006051145
-1.347,-0.005977574
-1.346,-0.005907068
-1.345,-0.005839627
-1.344,-0.005772187
-1.343,-0.005707812
-1.342,-0.005643437
-1.341,-0.005575996
-1.34,-0.005517752
-1.339,-0.005453377
-1.338,-0.005395133
-1.337,-0.005339954
-1.336,-0.005278645
-1.335,-0.0052204
-1.334,-0.005168287
-1.333,-0.005116174
-1.332,-0.00506406
-1.331,-0.005011947
-1.33,-0.004956769
-1.329,-0.004910786
-1.328,-0.004864804
-1.327,-0.004815756
-1.326,-0.004769774
-1.325,-0.004726857
-1.324,-0.00467781
-1.323,-0.004634893
-1.322,-0.004595041
-1.321,-0.00454906
-1.32,-0.004512274
-1.319,-0.004472422
-1.318,-0.004429505
-1.317,-0.004395785
-1.316,-0.004352869
-1.315,-0.004316083
-1.314,-0.004285428
-1.313,-0.004248642
-1.312,-0.004211857
-1.311,-0.004178136
-1.31,-0.00414135
-1.309,-0.004110695
-1.308,-0.004076975
-1.307,-0.004043255
-1.306,-0.0040126
-1.305,-0.003981945
-1.304,-0.00395129
-1.303,-0.003920636
-1.302,-0.003893046
-1.301,-0.003859326
-1.3,-0.003837867
-1.299,-0.003810278
-1.298,-0.003776558
-1.297,-0.003758165
-1.296,-0.003730575
-1.295,-0.003699921
-1.294,-0.003678462
-1.293,-0.003650873
-1.292,-0.003623284
-1.291,-0.003601825
-1.29,-0.003577302
-1.289,-0.003552777
-1.288,-0.003531319
-1.287,-0.003506796
-1.286,-0.003485337
-1.285,-0.003463879
-1.284,-0.003439354
-1.283,-0.003420962
-1.282,-0.003399503
-1.281,-0.003374979
-1.28,-0.003362718
-1.279,-0.003338194
-1.278,-0.003310604
-1.277,-0.003298342
-1.276,-0.003276884
-1.275,-0.003255426
-1.274,-0.003243164
-1.273,-0.00321864
-1.272,-0.003200247
-1.271,-0.003184919
-1.27,-0.003163461
-1.269,-0.003148134
-1.268,-0.003132806
-1.267,-0.003111348
-1.266,-0.003096021
-1.265,-0.003080693
-1.264,-0.0030623
-1.263,-0.003046973
-1.262,-0.003031645
-1.261,-0.003010187
-1.26,-0.00299486
-1.259,-0.002985663
-1.258,-0.002964205
-1.257,-0.002951943
-1.256,-0.002939681
-1.255,-0.002921288
-1.254,-0.002905961
-1.253,-0.002893699
-1.252,-0.002875306
-1.251,-0.002863044
-1.25,-0.002847716
-1.249,-0.002835455
-1.248,-0.002820127
-1.247,-0.002807865
-1.246,-0.002792538
-1.245,-0.002783341
-1.244,-0.002768014
-1.243,-0.002752687
-1.242,-0.002740425
-1.241,-0.002728163
-1.24,-0.002715901
-1.239,-0.002703639
-1.238,-0.002694442
-1.237,-0.002676049
-1.236,-0.002666853
-1.235,-0.002654591
-1.234,-0.002639264
-1.233,-0.002633133
-1.232,-0.002620871
-1.231,-0.002605543
-1.23,-0.002596347
-1.229,-0.002584085
-1.228,-0.002568757
-1.227,-0.002562626
-1.226,-0.002550365
-1.225001,-0.002538103
-1.224,-0.002531972
-1.223,-0.002516645
-1.222,-0.002504382
-1.221,-0.002498251
-1.22,-0.002482924
-1.219,-0.002473728
-1.218,-0.002467597
-1.217,-0.002452269
-1.216,-0.002443073
-1.215,-0.002433876
-1.214,-0.002421614
-1.213,-0.002415484
-1.212,-0.002406287
-1.211,-0.00239096
-1.21,-0.002387894
-1.209,-0.002375632
-1.208,-0.00236337
-1.207,-0.002357239
-1.206,-0.002351108
-1.205,-0.002338846
-1.204,-0.002326585
-1.203,-0.002323519
-1.202,-0.002311257
-1.201,-0.002302061
-1.2,-0.002292864
-1.199,-0.002286733
-1.198,-0.002274471
-1.197,-0.00226834
-1.196,-0.002259144
-1.195,-0.002249948
-1.194,-0.002240751
-1.193,-0.00223462
-1.192,-0.002225423
-1.191,-0.002216227
-1.19,-0.002210096
-1.189,-0.0022009
-1.188,-0.002191703
-1.187,-0.002185572
-1.186,-0.002179441
-1.185,-0.002167179
-1.184,-0.002161048
-1.183,-0.002154917
-1.182,-0.002145721
-1.181,-0.00213959
-1.18,-0.002133459
-1.179,-0.002124263
-1.178,-0.002115066
-1.177,-0.002108935
-1.176,-0.002099739
-1.175,-0.002093608
-1.174,-0.002087477
-1.173,-0.00207828
-1.172,-0.002072149
-1.171,-0.002069084
-1.17,-0.002056822
-1.169,-0.002053756
-1.168,-0.00204456
-1.167,-0.002038429
-1.166,-0.002029233
-1.165,-0.002026167
-1.164,-0.002016971
-1.163,-0.00201084
-1.162,-0.002004709
-1.161,-0.001995512
-1.16,-0.001992447
-1.159,-0.001986316
-1.158,-0.00197712
-1.157,-0.001970988
-1.156,-0.001964858
-1.155,-0.001955661
-1.154,-0.001952596
-1.153,-0.001946465
-1.152,-0.001937268
-1.151,-0.001931137
-1.15,-0.001928072
-1.149,-0.00191581
-1.148,-0.00191581
-1.147,-0.001906613
-1.146,-0.001897417
-1.145,-0.001894351
-1.144,-0.00188822
-1.143,-0.00188209
-1.142,-0.001879024
-1.141,-0.001869828
-1.14,-0.001863697
-1.139,-0.001857566
-1.138,-0.001848369
-1.137,-0.001845304
-1.136,-0.001839173
-1.135,-0.001833042
-1.134,-0.001829976
-1.133,-0.001826911
-1.132,-0.001817714
-1.131,-0.001808518
-1.13,-0.001805453
-1.129,-0.001796256
-1.128,-0.00179319
-1.127,-0.00178706
-1.126,-0.001780929
-1.125,-0.001774798
-1.124,-0.001771732
-1.123,-0.001762536
-1.122,-0.001756405
-1.121,-0.001750274
-1.12,-0.001747208
-1.119,-0.001741077
-1.118,-0.001734946
-1.117,-0.001728815
-1.116,-0.001722684
-1.115,-0.001719619
-1.114,-0.001710422
-1.113,-0.001707357
-1.112,-0.001701226
-1.111,-0.00169203
-1.11,-0.001688964
-1.109,-0.001682833
-1.108,-0.001676702
-1.107,-0.001673637
-1.106,-0.00166444
-1.105,-0.001658309
-1.104,-0.001655244
-1.103,-0.001649113
-1.102,-0.001642982
-1.101,-0.001642982
-1.100001,-0.001633785
-1.099,-0.001627655
-1.098,-0.001624589
-1.097,-0.001615393
-1.096,-0.001648605
-1.095,-0.001644007
-1.094,-0.00163481
-1.093,-0.001632051
-1.092,-0.001628066
-1.091,-0.001620403
-1.09,-0.001618257
-1.089,-0.001612432
-1.088,-0.001604156
-1.087,-0.001600477
-1.086,-0.001597411
-1.085,-0.001590361
-1.084,-0.001587908
-1.083,-0.001583923
-1.082,-0.00157534
-1.081,-0.001573807
-1.08,-0.001567676
-1.079,-0.001562465
-1.078,-0.001558786
-1.077,-0.001552962
-1.076,-0.001548977
-1.075,-0.001544379
-1.074,-0.001537328
-1.073,-0.001533649
-1.072,-0.00153089
-1.071,-0.001524146
-1.07,-0.001521694
-1.069,-0.00151495
-1.068,-0.001510352
-1.067,-0.001508206
-1.066,-0.001502995
-1.065,-0.001495637
-1.064,-0.001495637
-1.063,-0.00148828
-1.062,-0.001484295
-1.061,-0.001482762
-1.06,-0.001474792
-1.059,-0.001471114
-1.058,-0.001468661
-1.057,-0.001463143
-1.056,-0.001458852
-1.055,-0.001455173
-1.054,-0.001447816
-1.053,-0.00144475
-1.052,-0.001442605
-1.051,-0.001434328
-1.05,-0.001432795
-1.049,-0.001430343
-1.048,-0.001422679
-1.047,-0.001420227
-1.046,-0.001415322
-1.045,-0.001407658
-1.044,-0.001406125
-1.043,-0.001400914
-1.042,-0.001396009
-1.041,-0.001392024
-1.04,-0.001388959
-1.039,-0.001382828
-1.038,-0.001377616
-1.037,-0.001374551
-1.036,-0.001367807
-1.035,-0.001363515
-1.034,-0.001361369
-1.033,-0.001352173
-1.032,-0.001352786
-1.031,-0.001346962
-1.03,-0.001341137
-1.029,-0.001338378
-1.028,-0.001331021
-1.027,-0.001327649
-1.026,-0.001323357
-1.025,-0.001318453
-1.024,-0.00131508
-1.023,-0.001310789
-1.022,-0.001303432
-1.021,-0.001300979
-1.02,-0.001296688
-1.019,-0.00129025
-1.018,-0.001287185
-1.017,-0.001281973
-1.016,-0.001277375
-1.015,-0.00127431
-1.014,-0.001269098
-1.013,-0.001262967
-1.012,-0.001261128
-1.011,-0.001254077
-1.01,-0.001250092
-1.009,-0.00124672
-1.008,-0.001241509
-1.007,-0.001235684
-1.006,-0.001232926
-1.005,-0.001224955
-1.004,-0.001223116
-1.003,-0.001219437
-1.002,-0.001212693
-1.001,-0.001208402
-1,-0.001204723
-0.9990004,-0.001198592
-0.9980004,-0.0011943
-0.9970005,-0.001190009
-0.9960005,-0.001183571
-0.9950004,-0.001180506
-0.9940004,-0.001175294
-0.9930004,-0.00117039
-0.9920005,-0.001166098
-0.9910004,-0.001160887
-0.9900004,-0.001157208
-0.9890004,-0.001150771
-0.9880005,-0.001146479
-0.9870005,-0.001140961
-0.9860004,-0.001136363
-0.9850004,-0.001133297
-0.9840004,-0.001125021
-0.9830005,-0.001123181
-0.9820005,-0.00111889
-0.9810004,-0.001112145
-0.9800004,-0.00110908
-0.9790004,-0.001103256
-0.9780005,-0.001096205
-0.9770004,-0.001091913
-0.9760004,-0.001090074
-0.9750004,-0.001083637
-0.9740005,-0.001079345
-0.9730005,-0.00107536
-0.9720004,-0.001068922
-0.9710004,-0.001063404
-0.9700004,-0.001060032
-0.9690005,-0.001054208
-0.9680004,-0.001051756
-0.9670004,-0.001045931
-0.9660004,-0.00104072
-0.9650005,-0.001035815
-0.9640005,-0.001028151
-0.9630004,-0.00102386
-0.9620004,-0.001019568
-0.9610004,-0.001012824
-0.9600005,-0.001010678
-0.9590005,-0.00100424
-0.9580004,-0.0009981095
-0.9570004,-0.0009953505
-0.9560004,-0.0009904457
-0.9550005,-0.0009840083
-0.9540004,-0.0009797165
-0.9530004,-0.0009751184
-0.9520004,-0.0009683743
-0.9510005,-0.0009643892
-0.9500005,-0.0009600975
-0.9490004,-0.00095366
-0.9480004,-0.0009490618
-0.9470004,-0.000944157
-0.9460005,-0.0009383326
-0.9450005,-0.0009340409
-0.9440004,-0.0009285231
-0.9430004,-0.0009226986
-0.9420004,-0.0009193266
-0.9410005,-0.0009125826
-0.9400004,-0.0009079843
-0.9390004,-0.0009052254
-0.9380004,-0.0008981748
-0.9370005,-0.0008917373
-0.9360005,-0.0008902045
-0.9350004,-0.0008825408
-0.9340004,-0.0008773295
-0.9330004,-0.0008748771
-0.9320005,-0.0008678265
-0.9310004,-0.0008623086
-0.9300004,-0.0008592432
-0.9290004,-0.0008531122
-0.9280005,-0.0008475943
-0.9270005,-0.0008442223
-0.9260004,-0.0008377847
-0.9250004,-0.0008322669
-0.9240004,-0.0008285883
-0.9230005,-0.0008227639
-0.9220005,-0.0008166329
-0.9210004,-0.0008141805
-0.9200004,-0.0008068234
-0.9190004,-0.0008034513
-0.9180005,-0.0007991597
-0.9170004,-0.0007930287
-0.9160004,-0.000788737
-0.9150004,-0.0007847519
-0.9140005,-0.0007777013
-0.9130005,-0.0007737162
-0.9120004,-0.0007712637
-0.9110004,-0.0007632935
-0.9100004,-0.0007583887
-0.9090005,-0.0007556298
-0.9080005,-0.0007464333
-0.9070004,-0.0007458202
-0.9060004,-0.0007418352
-0.9050004,-0.0007341714
-0.9040005,-0.0007314125
-0.9030004,-0.0007265077
-0.9020004,-0.0007197637
-0.9010004,-0.0007176179
-0.9000005,-0.0007114868
-0.8990005,-0.0007062756
-0.8980004,-0.0007019839
-0.8970004,-0.0006976922
-0.8960004,-0.0006924809
-0.8950005,-0.0006891088
-0.8940005,-0.000684204
-0.8930004,-0.0006786863
-0.8920004,-0.0006747011
-0.8910004,-0.0006694898
-0.8900005,-0.0006651981
-0.8890004,-0.0006618261
-0.8880004,-0.0006553886
-0.8870004,-0.0006507903
-0.8860005,-0.0006477248
-0.8850005,-0.00064282
-0.8840004,-0.0006388349
-0.8830004,-0.0006342367
-0.8820004,-0.0006277992
-0.8810005,-0.0006256534
-0.8800004,-0.0006201355
-0.8790004,-0.000613698
-0.8780004,-0.0006115522
-0.8770005,-0.0006063408
-0.8760005,-0.0006002099
-0.8750004,-0.0005983706
-0.8740004,-0.0005928527
-0.8730004,-0.0005873349
-0.8720005,-0.000585189
-0.8710005,-0.0005781384
-0.8700004,-0.0005735401
-0.8690004,-0.0005723139
-0.8680004,-0.0005652634
-0.8670005,-0.0005597455
-0.8660004,-0.0005588258
-0.8650004,-0.0005511622
-0.8640004,-0.000547177
-0.8630005,-0.0005447246
-0.8620005,-0.0005385936
-0.8610004,-0.0005349151
-0.8600004,-0.0005303168
-0.8590004,-0.000525412
-0.8580005,-0.000521427
-0.8570005,-0.0005165222
-0.8560004,-0.0005119239
-0.8550004,-0.0005088585
-0.8540004,-0.0005033406
-0.8530005,-0.0004987424
-0.8520004,-0.0004944507
-0.8510004,-0.0004895459
-0.8500004,-0.0004840281
-0.8490005,-0.0004818822
-0.8480005,-0.0004769774
-0.8470004,-0.0004705399
-0.8460004,-0.0004680876
-0.8450004,-0.0004628762
-0.8440005,-0.0004579714
-0.8430004,-0.0004552125
-0.8420004,-0.0004493881
-0.8410004,-0.0004444833
-0.8400005,-0.0004417244
-0.8390005,-0.000436513
-0.8380004,-0.0004319148
-0.8370004,-0.0004279297
-0.8360004,-0.0004233315
-0.8350005,-0.0004187333
-0.8340005,-0.0004144416
-0.8330004,-0.0004098434
-0.8320004,-0.0004049386
-0.8310004,-0.00040126
-0.8300005,-0.0003963552
-0.8290004,-0.0003923701
-0.8280004,-0.0003871588
-0.8270004,-0.0003819475
-0.8260005,-0.000378882
-0.8250005,-0.0003739772
-0.8240004,-0.0003684594
-0.8230004,-0.0003663135
-0.8220004,-0.0003601825
-0.8210005,-0.000356504
-0.8200005,-0.0003525188
-0.8190004,-0.0003460813
-0.8180004,-0.0003427093
-0.8170004,-0.0003390307
-0.8160005,-0.0003332063
-0.8150004,-0.0003301408
-0.8140004,-0.0003258491
-0.8130004,-0.0003206378
-0.8120005,-0.0003172658
-0.8110005,-0.0003129741
-0.8100004,-0.0003080693
-0.8090004,-0.000302858
-0.8080004,-0.0002997925
-0.8070005,-0.0002955009
-0.8060004,-0.0002905961
-0.8050004,-0.0002872241
-0.8040004,-0.0002823193
-0.8030005,-0.0002780276
-0.8020005,-0.0002749621
-0.8010004,-0.0002694443
-0.8000004,-0.0002915157
-0.8009996,-0.000321864
-0.8019996,-0.0003420962
-0.8029996,-0.0003604891
-0.8039996,-0.0003773492
-0.8049996,-0.000391757
-0.8059996,-0.0004067779
-0.8069996,-0.0004205726
-0.8079996,-0.0004319148
-0.8089996,-0.0004447899
-0.8099996,-0.0004576649
-0.8109996,-0.0004674745
-0.8119996,-0.0004782036
-0.8129996,-0.0004907721
-0.8139996,-0.0004984358
-0.8149996,-0.0005103912
-0.8159996,-0.0005211204
-0.8169996,-0.0005287841
-0.8179996,-0.0005392068
-0.8189996,-0.0005493228
-0.8199996,-0.0005563734
-0.8209996,-0.0005674092
-0.8219996,-0.0005753795
-0.8229996,-0.0005830431
-0.8239996,-0.000591933
-0.8249996,-0.0005999033
-0.8259996,-0.0006072604
-0.8269996,-0.0006167634
-0.8279996,-0.0006244272
-0.8289996,-0.0006302515
-0.8299996,-0.0006397546
-0.8309996,-0.0006471117
-0.8319996,-0.0006532427
-0.8329996,-0.0006624392
-0.8339996,-0.0006691832
-0.8349996,-0.0006750076
-0.8359996,-0.0006838975
-0.8369996,-0.0006909482
-0.8379996,-0.000696466
-0.8389996,-0.0007050494
-0.8399996,-0.0007114868
-0.8409996,-0.0007157786
-0.8419996,-0.0007255881
-0.8429996,-0.000731106
-0.8439996,-0.00073785
-0.8449996,-0.0007458202
-0.8459996,-0.0007504185
-0.8469996,-0.0007565495
-0.8479996,-0.0007642132
-0.8489996,-0.0007700376
-0.8499996,-0.0007773947
-0.8509996,-0.0007835258
-0.8519996,-0.0007884305
-0.8529996,-0.0007957877
-0.8539996,-0.0008019186
-0.8549996,-0.0008074365
-0.8559996,-0.000813874
-0.8569996,-0.0008203115
-0.8579996,-0.0008252163
-0.8589996,-0.0008313472
-0.8599996,-0.0008383978
-0.8609996,-0.0008426895
-0.8619996,-0.000849127
-0.8629996,-0.0008558711
-0.8639996,-0.0008604693
-0.8649996,-0.0008666003
-0.8659996,-0.0008739574
-0.8669996,-0.0008776361
-0.8679996,-0.0008840736
-0.8689996,-0.0008908176
-0.8699996,-0.0008957224
-0.8709996,-0.0009009338
-0.8719996,-0.000908904
-0.8729996,-0.0009125826
-0.8739996,-0.0009187135
-0.8749996,-0.000925151
-0.8759996,-0.0009282165
-0.8769996,-0.0009355737
-0.8779996,-0.0009410915
-0.8789996,-0.0009453832
-0.8799996,-0.0009530469
-0.8809996,-0.0009564189
-0.8819996,-0.0009625499
-0.8829996,-0.000969294
-0.8839996,-0.0009732791
-0.8849996,-0.0009791035
-0.8859996,-0.0009867672
-0.8869996,-0.0009898327
-0.8879996,-0.000995044
-0.8889996,-0.001002708
-0.8899996,-0.00100608
-0.8909996,-0.001010371
-0.8919996,-0.001019261
-0.8929996,-0.001020794
-0.8939996,-0.001027538
-0.8949996,-0.001035202
-0.8959996,-0.001037041
-0.8969996,-0.001043479
-0.8979996,-0.001049916
-0.8989996,-0.001052675
-0.8999996,-0.001059726
-0.9009996,-0.001065244
-0.9019996,-0.001068922
-0.9029996,-0.00107536
-0.9039996,-0.001080571
-0.9049996,-0.001084556
-0.9059996,-0.001091913
-0.9069996,-0.001095592
-0.9079996,-0.001101416
-0.9089996,-0.001106628
-0.9099996,-0.00111
-0.9109996,-0.001116131
-0.9119996,-0.001122262
-0.9129996,-0.001125634
-0.9139996,-0.001131765
-0.9149996,-0.001137282
-0.9159996,-0.001140961
-0.9169996,-0.001146479
-0.9179996,-0.001151997
-0.9189996,-0.001155982
-0.9199996,-0.0011615
-0.9209996,-0.001167324
-0.9219996,-0.001171309
-0.9229996,-0.001177747
-0.9239996,-0.001182038
-0.9249996,-0.001186024
-0.9259996,-0.001193381
-0.9269996,-0.001197673
-0.9279996,-0.001201658
-0.9289996,-0.001206869
-0.9299996,-0.00121208
-0.9309996,-0.001215452
-0.9319996,-0.001222196
-0.9329996,-0.001224955
-0.9339996,-0.001229247
-0.9349996,-0.001236298
-0.9359996,-0.001239057
-0.9369996,-0.001244881
-0.9379996,-0.001252238
-0.9389996,-0.001253771
-0.9399996,-0.001260208
-0.9409996,-0.001265113
-0.9419996,-0.001266952
-0.9429996,-0.00127247
-0.9439996,-0.001279521
-0.9449996,-0.001281667
-0.9459996,-0.001287798
-0.9469996,-0.001293929
-0.9479996,-0.001295155
-0.9489996,-0.001301592
-0.9499996,-0.001307723
-0.9509996,-0.001309869
-0.9519996,-0.00131508
-0.9529996,-0.001320905
-0.9539996,-0.00132397
-0.9549996,-0.001328875
-0.9559996,-0.001335313
-0.9569996,-0.001337765
-0.9579996,-0.001342057
-0.9589996,-0.001348494
-0.9599996,-0.00135156
-0.9609996,-0.001356158
-0.9619996,-0.001362595
-0.9629996,-0.001365048
-0.9639996,-0.001370872
-0.9649996,-0.00137639
-0.9659996,-0.001379149
-0.9669996,-0.001383747
-0.9679996,-0.001390185
-0.9689996,-0.00139325
-0.9699996,-0.001398155
-0.9709996,-0.001404286
-0.9719996,-0.001407045
-0.9729996,-0.00141103
-0.9739996,-0.001418081
-0.9749996,-0.00142084
-0.9759996,-0.001423599
-0.9769996,-0.001431262
-0.9779996,-0.001434021
-0.9789996,-0.001438926
-0.9799996,-0.001443524
-0.9809996,-0.001449042
-0.9819996,-0.001453334
-0.9829996,-0.001457012
-0.9839996,-0.001461304
-0.9849996,-0.001466822
-0.9859996,-0.0014705
-0.9869996,-0.001476631
-0.9879996,-0.001482762
-0.9889996,-0.001483682
-0.9899996,-0.001491346
-0.9909996,-0.001495331
-0.9919996,-0.001497477
-0.9929996,-0.001504221
-0.9939996,-0.001510658
-0.9949996,-0.001511578
-0.9959996,-0.001520468
-0.9969996,-0.00152384
-0.9979996,-0.001526599
-0.9989996,-0.001533649
-0.9999996,-0.001538248
-1.001,-0.00154162
-1.002,-0.001547751
-1.003,-0.001552962
-1.004,-0.001556947
-1.005,-0.001562465
-1.006,-0.001568289
-1.007,-0.001571968
-1.008,-0.001576873
-1.009,-0.001582391
-1.01,-0.001585763
-1.011,-0.001591587
-1.012,-0.001596492
-1.013,-0.001600477
-1.014,-0.001606914
-1.015,-0.0016109
-1.016,-0.001615498
-1.017,-0.001621935
-1.018,-0.001624081
-1.019,-0.001629906
-1.02,-0.00163665
-1.021,-0.001638795
-1.022,-0.00164554
-1.023,-0.00165259
-1.024,-0.001653203
-1.025,-0.0016624
-1.026,-0.001667304
-1.027,-0.001669757
-1.028,-0.001677727
-1.029,-0.001681712
-1.03,-0.001683858
-1.031,-0.001692135
-1.032,-0.00169704
-1.033,-0.001700105
-1.034,-0.001707156
-1.035,-0.001711141
-1.036,-0.001714513
-1.037,-0.001719724
-1.038,-0.001726162
-1.039,-0.001730147
-1.04,-0.001735971
-1.041,-0.001742715
-1.042,-0.001745474
-1.043,-0.001750992
-1.044,-0.00175651
-1.045,-0.001760188
-1.046,-0.001766626
-1.047,-0.001771531
-1.048,-0.001774903
-1.049,-0.001781034
-1.05,-0.001786552
-1.051,-0.001791763
-1.052,-0.001795442
-1.053,-0.001803105
-1.054,-0.001804332
-1.055,-0.001813528
-1.056,-0.001818739
-1.057,-0.001819352
-1.058,-0.001829162
-1.059,-0.001831308
-1.06,-0.001836826
-1.061,-0.001844183
-1.062,-0.001846022
-1.063,-0.001852153
-1.064,-0.001857977
-1.065,-0.00186043
-1.066,-0.0018684
-1.067,-0.001873305
-1.068,-0.001876064
-1.069,-0.001883114
-1.07,-0.001887406
-1.071,-0.001892004
-1.072,-0.001898748
-1.073,-0.001903653
-1.074,-0.001907332
-1.075,-0.00191285
-1.076,-0.001918674
-1.077,-0.001923272
-1.078,-0.001929097
-1.079,-0.001934308
-1.08,-0.001937987
-1.081,-0.001943811
-1.082,-0.001949942
-1.083,-0.001954234
-1.084,-0.001960978
-1.085,-0.001965882
-1.086,-0.001970174
-1.087,-0.001976305
-1.088,-0.001981516
-1.089,-0.001985501
-1.09,-0.001992552
-1.091,-0.001997764
-1.092,-0.002002362
-1.093,-0.002009106
-1.094,-0.002012478
-1.095,-0.002017995
-1.096,-0.002024127
-1.097,-0.002028725
-1.098,-0.002033936
-1.099,-0.00204068
-1.1,-0.002044665
-1.101,-0.002051716
-1.102,-0.00205846
-1.103,-0.002061832
-1.104,-0.00206735
-1.105,-0.002074094
-1.106,-0.002078079
-1.107,-0.002082064
-1.108,-0.002090648
-1.109,-0.002094326
-1.11,-0.002099538
-1.111,-0.00210996
-1.112,-0.002109654
-1.113,-0.002119463
-1.114,-0.002126514
-1.115,-0.002129886
-1.116,-0.002138469
-1.117,-0.002143067
-1.118,-0.002147052
-1.119,-0.002155636
-1.12,-0.002158701
-1.121,-0.002163913
-1.122,-0.002172803
-1.123,-0.002176787
-1.124,-0.002184758
-1.125,-0.002190582
-1.126,-0.002193341
-1.127,-0.00220407
-1.128,-0.002209588
-1.129,-0.002210508
-1.13,-0.002220624
-1.131,-0.002225835
-1.132,-0.002229207
-1.133,-0.002238097
-1.134,-0.002244535
-1.135,-0.002246987
-1.136,-0.002255264
-1.137,-0.002262008
-1.138,-0.002265073
-1.139,-0.002272737
-1.14,-0.002279481
-1.141,-0.002283467
-1.142,-0.002289904
-1.143,-0.002297261
-1.144,-0.002298487
-1.145,-0.002306151
-1.146,-0.002311975
-1.147,-0.002314121
-1.148,-0.002322398
-1.149,-0.002329448
-1.15,-0.002331901
-1.151,-0.002340178
-1.152,-0.00234263
-1.153,-0.002348148
-1.154,-0.002354586
-1.155,-0.002357957
-1.156,-0.002361943
-1.157,-0.002370832
-1.158,-0.002373898
-1.159,-0.002377883
-1.16,-0.00238616
-1.161,-0.002385241
-1.162,-0.00239505
-1.163,-0.002402714
-1.164,-0.002401794
-1.165,-0.002409764
-1.166,-0.002418654
-1.167,-0.002417122
-1.168,-0.002426624
-1.169,-0.002432142
-1.17,-0.002431836
-1.171,-0.002440726
-1.172,-0.002445937
-1.173,-0.00244655
-1.174,-0.00245544
-1.175,-0.002459732
-1.176,-0.002460651
-1.177,-0.002470461
-1.178,-0.002472913
-1.179,-0.002474752
-1.18,-0.002481803
-1.181,-0.002486095
-1.182,-0.002487015
-1.183,-0.002495904
-1.184,-0.00249897
-1.185,-0.002500196
-1.186,-0.002510619
-1.187,-0.002512765
-1.188,-0.002516443
-1.189,-0.00252472
-1.19,-0.002527479
-1.191,-0.002530851
-1.192,-0.002538821
-1.193,-0.002542806
-1.194,-0.002546178
-1.195,-0.002556601
-1.196,-0.00255936
-1.197,-0.002564265
-1.198,-0.002573767
-1.199,-0.002579592
-1.2,-0.002582657
-1.201,-0.002594613
-1.202,-0.002596759
-1.203,-0.002606262
-1.204,-0.002614539
-1.205,-0.002617297
-1.206,-0.002626494
-1.207,-0.002635077
-1.208,-0.002640289
-1.209,-0.002647952
-1.21,-0.002657149
-1.211,-0.002664199
-1.212,-0.002672476
-1.213,-0.002682899
-1.214,-0.002688723
-1.215,-0.002696387
-1.216,-0.002707729
-1.217,-0.00271386
-1.218,-0.002722444
-1.219,-0.002733786
-1.22,-0.00274053
-1.221,-0.00274758
-1.222,-0.002761375
-1.223,-0.002770572
-1.224,-0.002778542
-1.225,-0.002792643
-1.226,-0.002798774
-1.227,-0.002810116
-1.228,-0.002821765
-1.229,-0.002828509
-1.23,-0.002840464
-1.231,-0.002853033
-1.232,-0.002859164
-1.233,-0.002875105
-1.234,-0.002883075
-1.235,-0.002892884
-1.236,-0.002910358
-1.237,-0.002918941
-1.238,-0.002929977
-1.239,-0.002945917
-1.24,-0.002953887
-1.241,-0.002967989
-1.242,-0.002983623
-1.243,-0.002991899
-1.244,-0.003009373
-1.245,-0.002985663
-1.246,-0.002991794
-1.247,-0.003010187
-1.248,-0.003025514
-1.249,-0.003034711
-1.25,-0.003053104
-1.251,-0.003068431
-1.252,-0.003077628
-1.253,-0.003099086
-1.254,-0.003111348
-1.255,-0.003126675
-1.256,-0.003145068
-1.257,-0.003160396
-1.258,-0.003169592
-1.259,-0.003191051
-1.26,-0.003206378
-1.261,-0.003221706
-1.262,-0.003243164
-1.263,-0.003258491
-1.264,-0.003273819
-1.265,-0.003295277
-1.266,-0.00331367
-1.267,-0.003332063
-1.268,-0.003353521
-1.269,-0.003368848
-1.27,-0.003390307
-1.271,-0.0034087
-1.272,-0.003424027
-1.273,-0.003448551
-1.274,-0.003470009
-1.275,-0.003485337
-1.276,-0.003509861
-1.277,-0.003528254
-1.278,-0.003549712
-1.279,-0.003574236
-1.28,-0.00359876
-1.281,-0.003617153
-1.282,-0.003638611
-1.283,-0.0036662
-1.284,-0.003684593
-1.285,-0.003709117
-1.286,-0.003736707
-1.287,-0.003758165
-1.288,-0.003782689
-1.289,-0.003810278
-1.29,-0.003831736
-1.291,-0.003859326
-1.292,-0.003886915
-1.293,-0.003911439
-1.294,-0.003939028
-1.295,-0.003969683
-1.296,-0.003994207
-1.297,-0.004024862
-1.298,-0.004058582
-1.299,-0.00408004
-1.3,-0.004116826
-1.301,-0.004147481
-1.302,-0.004172005
-1.303,-0.004211857
-1.304,-0.004239446
-1.305,-0.004270101
-1.306,-0.004309952
-1.307,-0.004340607
-1.308,-0.004371261
-1.309,-0.004411113
-1.31,-0.004447898
-1.311,-0.004481619
-1.312,-0.004524535
-1.313,-0.004561321
-1.314,-0.004598107
-1.315,-0.004644089
-1.316,-0.004680875
-1.317,-0.004723792
-1.318,-0.004769774
-1.319,-0.004812691
-1.32,-0.004858673
-1.321,-0.004907721
-1.322,-0.004950637
-1.323,-0.005002751
-1.324,-0.005054864
-1.325,-0.005100846
-1.326,-0.005152959
-1.327,-0.005211203
-1.328,-0.005257186
-1.329,-0.005321561
-1.33,-0.005379805
-1.331,-0.005434984
-1.332,-0.005499359
-1.333,-0.005560669
-1.334,-0.005621978
-1.335,-0.005689419
-1.336,-0.005753794
-1.337,-0.005827365
-1.338,-0.005894806
-1.339,-0.005965312
-1.34,-0.006041949
-1.341,-0.006121652
-1.342,-0.006192158
-1.343,-0.006277991
-1.344,-0.006357694
-1.345,-0.006440463
-1.346,-0.006529361
-1.347,-0.006621325
-1.348,-0.006710225
-1.349,-0.006799124
-1.35,-0.006897219
-1.351,-0.006989183
-1.352,-0.00709341
-1.353,-0.007194571
-1.354,-0.007301863
-1.355,-0.00741222
-1.356,-0.007522577
-1.357,-0.007632935
-1.358,-0.007752489
-1.359,-0.007868977
-1.36,-0.007991596
-1.361,-0.008123412
-1.362,-0.008246032
-1.363,-0.008374781
-1.364,-0.008518859
-1.365,-0.00864761
-1.366,-0.008794753
-1.367,-0.00893883
-1.368,-0.009082908
-1.369,-0.009236182
-1.37,-0.009389456
-1.371,-0.009542731
-1.372,-0.009708267
-1.373,-0.009870737
-1.374,-0.01003627
-1.375,-0.01021101
-1.376,-0.01038267
-1.377,-0.01055741
-1.378,-0.01074134
-1.379,-0.01093139
-1.38,-0.01111532
-1.381,-0.01131151
-1.382,-0.01150464
-1.383,-0.0117039
-1.384,-0.01190928
-1.385,-0.01211161
-1.386,-0.01232006
-1.387,-0.01253771
-1.388,-0.01274923
-1.389,-0.01296994
-1.39,-0.01319372
-1.391,-0.0134175
-1.392,-0.01365048
-1.393,-0.01388345
-1.394,-0.0141103
-1.395,-0.0143586
-1.396,-0.01459771
-1.397,-0.01483682
-1.398,-0.01509125
-1.399,-0.01533343
-1.4,-0.01558786
-1.401,-0.0158423
-1.402,-0.01609367
-1.403,-0.01636036
-1.404,-0.01662706
-1.405,-0.01688456
-1.406,-0.01716045
-1.407,-0.01743328
-1.408,-0.01770305
-1.409,-0.01798507
-1.41,-0.0182671
-1.411,-0.01854299
-1.412,-0.01883421
-1.413,-0.01912543
-1.414,-0.01940439
-1.415,-0.01970481
-1.416,-0.01999296
-1.417,-0.02028111
-1.418,-0.0205846
-1.419,-0.02088501
-1.42,-0.02118543
-1.421,-0.02149505
-1.422,-0.02180159
-1.423,-0.02211121
-1.424,-0.02242389
-1.425,-0.02273044
-1.426,-0.02304311
-1.427,-0.02336193
-1.428,-0.0236746
-1.429,-0.02399648
-1.43,-0.02431529
-1.431,-0.0246341
-1.432,-0.02496824
-1.433,-0.02530238
-1.434,-0.02562732
-1.435,-0.02596145
-1.436,-0.02629559
-1.437,-0.0266236
-1.438,-0.02695774
-1.439,-0.027298
-1.44,-0.02762908
-1.441,-0.02796628
-1.442,-0.02830961
-1.443,-0.02864069
-1.444,-0.02899322
-1.445,-0.02933349
-1.446,-0.02967069
-1.447,-0.03003241
-1.448,-0.03037268
-1.449,-0.03083759
-1.45,-0.03117479
-1.451,-0.03154265
-1.452,-0.03187985
-1.453,-0.03224771
-1.454,-0.03261557
-1.455,-0.03295277
-1.456,-0.03335128
-1.457,-0.03368849
-1.458,-0.03405635
-1.459,-0.0344242
-1.46,-0.03479206
-1.461,-0.03515992
-1.462,-0.03552778
-1.463,-0.03589563
-1.464,-0.03626349
-1.465,-0.03663135
-1.466,-0.03699921
-1.467,-0.03739772
-1.468,-0.03776558
-1.469,-0.03810278
-1.47,-0.03850129
-1.471,-0.03886915
-1.472,-0.03923701
-1.473,-0.03963552
-1.474,-0.04000338
-1.475,-0.04037124
-1.476,-0.04076975
-1.477,-0.04116827
-1.478,-0.04153612
-1.479,-0.04193464
-1.48,-0.04230249
-1.481,-0.04270101
-1.482,-0.04309952
-1.483,-0.04346738
-1.484,-0.04386589
-1.485,-0.0442644
-1.486,-0.04463226
-1.487,-0.04503077
-1.488,-0.04542929
-1.489,-0.04579714
-1.49,-0.04619566
-1.491,-0.04656351
-1.492,-0.04696203
-1.493,-0.04736054
-1.494,-0.04775905
-1.495,-0.04815757
-1.496,-0.04855608
-1.497,-0.04898525
-1.498,-0.0493531
-1.499,-0.04975162
-1.5,-0.04990489
-1.499001,-0.04956769
-1.498001,-0.04923048
-1.497001,-0.04889328
-1.496001,-0.04852542
-1.495001,-0.04815757
-1.494001,-0.04782036
-1.493001,-0.04745251
-1.492001,-0.04708464
-1.491001,-0.04674744
-1.490001,-0.04634893
-1.489001,-0.04601173
-1.488001,-0.04564387
-1.487001,-0.04527601
-1.486001,-0.04490815
-1.485001,-0.0445403
-1.484001,-0.04420309
-1.483001,-0.04383523
-1.482001,-0.04346738
-1.481001,-0.04313017
-1.480001,-0.04273166
-1.479001,-0.04239446
-1.478001,-0.0420266
-1.477001,-0.04165874
-1.476001,-0.04129088
-1.475001,-0.04095368
-1.474001,-0.04058582
-1.473001,-0.04021796
-1.472001,-0.03985011
-1.471001,-0.03948225
-1.470001,-0.03914505
-1.469001,-0.03877719
-1.468001,-0.03843999
-1.467001,-0.03807213
-1.466001,-0.03773492
-1.465001,-0.03736707
-1.464001,-0.03702986
-1.463001,-0.03669266
-1.462001,-0.03629415
-1.461001,-0.03595695
-1.460001,-0.03561974
-1.459001,-0.03528254
-1.458001,-0.03491468
-1.457001,-0.03457748
-1.456001,-0.03424027
-1.455001,-0.03390307
-1.454001,-0.03356587
-1.453001,-0.03322866
-1.452001,-0.03286081
-1.451001,-0.03255426
-1.450001,-0.0321864
-1.449001,-0.0318492
-1.448001,-0.03151199
-1.447001,-0.03120545
-1.446001,-0.03086824
-1.445001,-0.03053104
-1.444001,-0.03022449
-1.443001,-0.02988729
-1.442001,-0.02955008
-1.441001,-0.02924354
-1.440001,-0.02890633
-1.439001,-0.02856913
-1.438001,-0.02826258
-1.437001,-0.02795603
-1.436001,-0.02761883
-1.435001,-0.02731228
-1.434001,-0.02700574
-1.433001,-0.02666853
-1.432001,-0.02636199
-1.431001,-0.02605543
-1.430001,-0.02574889
-1.429001,-0.02544234
-1.428001,-0.02513579
-1.427001,-0.02482924
-1.426001,-0.02452269
-1.425001,-0.02421615
-1.424001,-0.02394025
-1.423001,-0.0236337
-1.422001,-0.02332716
-1.421001,-0.02305126
-1.420001,-0.02274471
-1.419001,-0.02246882
-1.418001,-0.02216227
-1.417001,-0.02188638
-1.416001,-0.02161049
-1.415001,-0.02130394
-1.414001,-0.02102804
-1.413001,-0.02075215
-1.412001,-0.02047626
-1.411001,-0.02020036
-1.410001,-0.01992447
-1.409001,-0.01964858
-1.408001,-0.01940334
-1.407001,-0.01912744
-1.406001,-0.01888221
-1.405001,-0.01860631
-1.404001,-0.01836107
-1.403001,-0.01811584
-1.402001,-0.01783994
-1.401001,-0.0175947
-1.400001,-0.01734946
-1.399001,-0.01707357
-1.398001,-0.01682833
-1.397001,-0.01658309
-1.396001,-0.01633785
-1.395001,-0.01612327
-1.394001,-0.01598638
-1.393001,-0.01575646
-1.392001,-0.01553268
-1.391001,-0.0153089
-1.390001,-0.01508206
-1.389001,-0.01486441
-1.388001,-0.01464676
-1.387001,-0.01443218
-1.386001,-0.01422372
-1.385001,-0.01400914
-1.384001,-0.01380375
-1.383001,-0.01360143
-1.382001,-0.01339298
-1.381001,-0.01319372
-1.380001,-0.01299753
-1.379001,-0.01279827
-1.378001,-0.01261128
-1.377001,-0.01242122
-1.376001,-0.01223116
-1.375001,-0.01205336
-1.374001,-0.0118725
-1.373001,-0.01169163
-1.372001,-0.01151997
-1.371001,-0.0113483
-1.370001,-0.01117663
-1.369001,-0.01101416
-1.368001,-0.01084863
-1.367001,-0.01068309
-1.366001,-0.01052982
-1.365001,-0.01037348
-1.364001,-0.01021407
-1.363001,-0.01006386
-1.362001,-0.009913653
-1.361001,-0.009763445
-1.360001,-0.009619367
-1.359001,-0.009481421
-1.358001,-0.009337342
-1.357001,-0.009202462
-1.356001,-0.009070646
-1.355001,-0.008935764
-1.354001,-0.008807015
-1.353001,-0.008678264
-1.352001,-0.008555645
-1.351001,-0.00842996
-1.350001,-0.008307341
-1.349001,-0.008193919
-1.348001,-0.00807743
-1.347001,-0.007957876
-1.346001,-0.007850585
-1.345001,-0.007743292
-1.344001,-0.007632935
-1.343001,-0.007528708
-1.342001,-0.007427548
-1.341001,-0.007326386
-1.340001,-0.007228291
-1.339001,-0.007133261
-1.338001,-0.007035166
-1.337001,-0.006946267
-1.336001,-0.006854302
-1.335001,-0.006765403
-1.334001,-0.00667957
-1.333001,-0.006590671
-1.332001,-0.006507902
-1.331001,-0.0064282
-1.330001,-0.006351563
-1.329001,-0.00626573
-1.328001,-0.006198289
-1.327001,-0.006118587
-1.326001,-0.006045015
-1.325001,-0.005974509
-1.324001,-0.005900937
-1.323001,-0.005833496
-1.322001,-0.005769121
-1.321001,-0.00569555
-1.320001,-0.00563424
-1.319001,-0.005569865
-1.318001,-0.005502424
-1.317001,-0.00544418
-1.316001,-0.00538287
-1.315001,-0.005324626
-1.314001,-0.005269447
-1.313001,-0.005214269
-1.312001,-0.005152959
-1.311001,-0.005103912
-1.310001,-0.005051799
-1.309001,-0.004999685
-1.308001,-0.004950637
-1.307001,-0.004895459
-1.306001,-0.004852542
-1.305001,-0.004800429
-1.304001,-0.004754446
-1.303001,-0.004708464
-1.302001,-0.004662482
-1.301001,-0.0046165
-1.300001,-0.004573583
-1.299001,-0.004533732
-1.298001,-0.004490815
-1.297001,-0.004447898
-1.296001,-0.004411113
-1.295001,-0.004371261
-1.294001,-0.00433141
-1.293001,-0.004294624
-1.292001,-0.004254773
-1.291001,-0.004217987
-1.290001,-0.004184267
-1.289001,-0.004147481
-1.288001,-0.004110695
-1.287001,-0.004076975
-1.286001,-0.004043255
-1.285001,-0.004009534
-1.284001,-0.00397888
-1.283001,-0.003945159
-1.282001,-0.003911439
-1.281001,-0.00388385
-1.280001,-0.003853195
-1.279001,-0.00382254
-1.278001,-0.003798016
-1.277001,-0.003764296
-1.276001,-0.003736707
-1.275001,-0.003709117
-1.274001,-0.003681528
-1.273001,-0.003650873
-1.272001,-0.003629415
-1.271001,-0.00359876
-1.270001,-0.003574236
-1.269001,-0.003552777
-1.268001,-0.003522123
-1.267001,-0.003500664
-1.266001,-0.00347614
-1.265001,-0.003448551
-1.264001,-0.003430158
-1.263001,-0.003405634
-1.262001,-0.003378045
-1.261001,-0.003359652
-1.260001,-0.003338194
-1.259001,-0.00331367
-1.258001,-0.003292212
-1.257001,-0.003273819
-1.256001,-0.003249295
-1.255001,-0.003227836
-1.254001,-0.003209443
-1.253001,-0.003187985
-1.252001,-0.003169592
-1.251001,-0.003148134
-1.250001,-0.00312361
-1.249001,-0.003108283
-1.248001,-0.003089889
-1.247001,-0.003068431
-1.246001,-0.003053104
-1.245001,-0.003034711
-1.244001,-0.003013253
-1.243001,-0.002997925
-1.242001,-0.002979532
-1.241001,-0.002961139
-1.240001,-0.002945812
-1.239001,-0.002927419
-1.238001,-0.002909026
-1.237001,-0.002896764
-1.236001,-0.002875306
-1.235001,-0.002859978
-1.234001,-0.002847716
-1.233001,-0.002829324
-1.232001,-0.002817062
-1.231001,-0.002801734
-1.230001,-0.002780276
-1.229001,-0.00277108
-1.228001,-0.002752687
-1.227001,-0.002734293
-1.226001,-0.002725097
-1.225001,-0.00270977
-1.224001,-0.002691377
-1.223001,-0.00268218
-1.222001,-0.002666853
-1.221001,-0.00264846
-1.220001,-0.002639264
-1.219001,-0.002623936
-1.218001,-0.002611674
-1.217001,-0.002599412
-1.216001,-0.002584085
-1.215001,-0.002568757
-1.214001,-0.002559561
-1.213001,-0.002544234
-1.212001,-0.002535037
-1.211001,-0.002525841
-1.210001,-0.002510513
-1.209001,-0.002495186
-1.208001,-0.00248599
-1.207001,-0.002473728
-1.206001,-0.002461466
-1.205001,-0.002449204
-1.204001,-0.002433876
-1.203001,-0.002421614
-1.202001,-0.002415484
-1.201001,-0.002400156
-1.200001,-0.00239096
-1.199001,-0.002384829
-1.198001,-0.002366436
-1.197001,-0.002360305
-1.196001,-0.002348043
-1.195001,-0.002335781
-1.194001,-0.002326585
-1.193001,-0.002317388
-1.192001,-0.002305126
-1.191001,-0.00229593
-1.190001,-0.002283668
-1.189001,-0.002271406
-1.188001,-0.002265275
-1.187001,-0.002253013
-1.186001,-0.002240751
-1.185001,-0.00223462
-1.184001,-0.002225423
-1.183001,-0.002213162
-1.182001,-0.002207031
-1.181001,-0.002194769
-1.180001,-0.002188638
-1.179001,-0.002179441
-1.178001,-0.002170245
-1.177001,-0.002161048
-1.176001,-0.002154917
-1.175001,-0.002142655
-1.174001,-0.002136525
-1.173001,-0.002127328
-1.172001,-0.002115066
-1.171001,-0.002108935
-1.170001,-0.002099739
-1.169001,-0.002090542
-1.168001,-0.002084411
-1.167001,-0.002075215
-1.166001,-0.002062953
-1.165001,-0.002056822
-1.164001,-0.002050691
-1.163001,-0.002038429
-1.162001,-0.002032298
-1.161001,-0.002026167
-1.160001,-0.002013905
-1.159001,-0.00201084
-1.158001,-0.002001643
-1.157001,-0.001989381
-1.156001,-0.001986316
-1.155001,-0.001980185
-1.154001,-0.001964858
-1.153001,-0.001961792
-1.152001,-0.001955661
-1.151001,-0.001946465
-1.150001,-0.001940334
-1.149001,-0.001931137
-1.148001,-0.001921941
-1.147001,-0.001918875
-1.146001,-0.001909679
-1.145001,-0.001903548
-1.144001,-0.001897417
-1.143001,-0.001891286
-1.142001,-0.00188209
-1.141001,-0.001879024
-1.140001,-0.001869828
-1.139001,-0.001860631
-1.138001,-0.001857566
-1.137001,-0.001848369
-1.136001,-0.001839173
-1.135001,-0.001836107
-1.134001,-0.001823845
-1.133001,-0.00182078
-1.132001,-0.001814649
-1.131001,-0.001805453
-1.130001,-0.001799321
-1.129001,-0.00179319
-1.128001,-0.001783994
-1.127001,-0.001780929
-1.126001,-0.001774798
-1.125001,-0.001765601
-1.124001,-0.00175947
-1.123001,-0.001753339
-1.122001,-0.001744143
-1.121001,-0.001741077
-1.120001,-0.001734946
-1.119001,-0.001722684
-1.118001,-0.001722684
-1.117001,-0.001716554
-1.116001,-0.001704292
-1.115001,-0.001701226
-1.114001,-0.001695095
-1.113001,-0.001685899
-1.112001,-0.001682833
-1.111001,-0.001676702
-1.110001,-0.001667506
-1.109001,-0.00166444
-1.108001,-0.001658309
-1.107001,-0.001649113
-1.106001,-0.001646047
-1.105001,-0.001636851
-1.104001,-0.00163072
-1.103001,-0.00163072
-1.102001,-0.001618458
-1.101001,-0.001615393
-1.100001,-0.001609262
-1.099001,-0.00163481
-1.098001,-0.001632358
-1.097001,-0.001626227
-1.096001,-0.001616724
-1.095001,-0.001614272
-1.094001,-0.001609367
-1.093001,-0.001601703
-1.092001,-0.001598331
-1.091001,-0.001589135
-1.090001,-0.001583923
-1.089001,-0.001581164
-1.088001,-0.001575033
-1.087001,-0.001568902
-1.086001,-0.00156553
-1.085001,-0.001558786
-1.084001,-0.001553269
-1.083001,-0.001548977
-1.082001,-0.001543766
-1.081001,-0.001537328
-1.080001,-0.001533649
-1.079001,-0.001529664
-1.078001,-0.001520774
-1.077001,-0.001519242
-1.076001,-0.00151587
-1.075001,-0.001509126
-1.074001,-0.001504221
-1.073001,-0.001498703
-1.072001,-0.001493492
-1.071001,-0.001490426
-1.070001,-0.001484602
-1.069001,-0.001479697
-1.068001,-0.001476325
-1.067001,-0.001470194
-1.066001,-0.001465596
-1.065001,-0.001463143
-1.064001,-0.001456706
-1.063001,-0.001452414
-1.062001,-0.001448429
-1.061001,-0.001442911
-1.060001,-0.001438313
-1.059001,-0.001436167
-1.058001,-0.001430343
-1.057001,-0.001426051
-1.056001,-0.001421759
-1.055001,-0.001415935
-1.054001,-0.001413176
-1.053001,-0.001408271
-1.052001,-0.001401527
-1.051001,-0.001399075
-1.050001,-0.001394783
-1.049001,-0.001387732
-1.048001,-0.001386506
-1.047001,-0.001382828
-1.046001,-0.001372712
-1.045001,-0.001374244
-1.044001,-0.001367807
-1.043001,-0.001361369
-1.042001,-0.001360143
-1.041001,-0.001353092
-1.040001,-0.001349107
-1.039001,-0.001345122
-1.038001,-0.001338072
-1.037001,-0.001334087
-1.036001,-0.001329488
-1.035001,-0.001323357
-1.034001,-0.001322131
-1.033001,-0.001314774
-1.032001,-0.001310176
-1.031001,-0.001307723
-1.030001,-0.001301592
-1.029001,-0.001295461
-1.028001,-0.001293929
-1.027001,-0.001288717
-1.026001,-0.00128228
-1.025001,-0.001280134
-1.024001,-0.001275842
-1.023001,-0.001271551
-1.022001,-0.001266339
-1.021001,-0.001260208
-1.020001,-0.001254384
-1.019001,-0.001250399
-1.018001,-0.001245801
-1.017001,-0.001241202
-1.016001,-0.001237524
-1.015001,-0.001231699
-1.014001,-0.001226181
-1.013001,-0.001223729
-1.012001,-0.001216065
-1.011001,-0.001213
-1.010001,-0.001210548
-1.009001,-0.001200431
-1.008001,-0.001200431
-1.007001,-0.001194914
-1.006001,-0.001189702
-1.005001,-0.001186637
-1.004001,-0.001180199
-1.003001,-0.001174068
-1.002001,-0.001171003
-1.001001,-0.001163952
-1.000001,-0.001161806
-0.9990007,-0.001156288
-0.9980007,-0.001149238
-0.9970006,-0.001147092
-0.9960006,-0.001141574
-0.9950007,-0.001134524
-0.9940007,-0.001132071
-0.9930006,-0.001127473
-0.9920006,-0.001120422
-0.9910007,-0.001117357
-0.9900007,-0.001113985
-0.9890007,-0.001108774
-0.9880006,-0.001102949
-0.9870006,-0.001096818
-0.9860007,-0.001091913
-0.9850007,-0.001088541
-0.9840007,-0.001083637
-0.9830006,-0.001078732
-0.9820006,-0.001071681
-0.9810007,-0.001070148
-0.9800007,-0.001062178
-0.9790006,-0.001059113
-0.9780006,-0.001052982
-0.9770007,-0.001047157
-0.9760007,-0.001044705
-0.9750007,-0.001037348
-0.9740006,-0.001034589
-0.9730006,-0.00103091
-0.9720007,-0.001024166
-0.9710007,-0.001020488
-0.9700007,-0.00101497
-0.9690006,-0.001008226
-0.9680007,-0.001005467
-0.9670007,-0.0009996422
-0.9660007,-0.000994431
-0.9650006,-0.0009901392
-0.9640006,-0.0009837018
-0.9630007,-0.0009797165
-0.9620007,-0.000976038
-0.9610007,-0.000969294
-0.9600006,-0.0009643892
-0.9590006,-0.0009600975
-0.9580007,-0.0009533535
-0.9570007,-0.0009484487
-0.9560006,-0.0009453832
-0.9550006,-0.0009380261
-0.9540007,-0.0009340409
-0.9530007,-0.0009297492
-0.9520007,-0.0009230052
-0.9510006,-0.0009193266
-0.9500006,-0.0009144219
-0.9490007,-0.0009082909
-0.9480007,-0.0009043057
-0.9470007,-0.0008987879
-0.9460006,-0.0008935765
-0.9450006,-0.0008889784
-0.9440007,-0.0008834605
-0.9430007,-0.0008785557
-0.9420006,-0.0008736509
-0.9410006,-0.0008669068
-0.9400007,-0.0008635348
-0.9390007,-0.0008589366
-0.9380007,-0.0008528056
-0.9370006,-0.0008479009
-0.9360006,-0.0008433026
-0.9350007,-0.0008374782
-0.9340007,-0.0008319604
-0.9330007,-0.0008285883
-0.9320006,-0.0008221508
-0.9310006,-0.0008169395
-0.9300007,-0.0008135674
-0.9290007,-0.0008074365
-0.9280006,-0.0008022251
-0.9270006,-0.0007985466
-0.9260007,-0.0007918025
-0.9250007,-0.0007881239
-0.9240007,-0.0007835258
-0.9230006,-0.0007773947
-0.9220006,-0.00077249
-0.9210007,-0.000769731
-0.9200007,-0.0007623739
-0.9190007,-0.000756856
-0.9180006,-0.0007544036
-0.9170007,-0.0007461268
-0.9160007,-0.000743981
-0.9150007,-0.0007396893
-0.9140006,-0.0007329452
-0.9130006,-0.0007286536
-0.9120007,-0.0007246684
-0.9110007,-0.000718231
-0.9100007,-0.0007148589
-0.9090006,-0.0007099541
-0.9080006,-0.0007044363
-0.9070007,-0.0007004511
-0.9060007,-0.0006961594
-0.9050006,-0.0006894154
-0.9040006,-0.0006875761
-0.9030007,-0.0006817517
-0.9020007,-0.0006753142
-0.9010007,-0.000671329
-0.9000006,-0.0006676505
-0.8990006,-0.0006642784
-0.8980007,-0.0006596802
-0.8970007,-0.0006538558
-0.8960007,-0.0006492576
-0.8950006,-0.0006458855
-0.8940006,-0.0006403677
-0.8930007,-0.0006351563
-0.8920007,-0.0006314777
-0.8910006,-0.0006262665
-0.8900006,-0.0006222813
-0.8890007,-0.0006186027
-0.8880007,-0.0006124718
-0.8870007,-0.0006084866
-0.8860006,-0.0006051146
-0.8850006,-0.0005989837
-0.8840007,-0.0005949985
-0.8830007,-0.0005907068
-0.8820007,-0.0005858021
-0.8810006,-0.00058243
-0.8800007,-0.0005778318
-0.8790007,-0.0005735401
-0.8780007,-0.0005680223
-0.8770006,-0.0005649568
-0.8760006,-0.0005594389
-0.8750007,-0.0005548407
-0.8740007,-0.0005511622
-0.8730007,-0.0005453377
-0.8720006,-0.0005425788
-0.8710006,-0.0005385936
-0.8700007,-0.0005318496
-0.8690007,-0.0005300103
-0.8680006,-0.0005229597
-0.8670006,-0.0005189746
-0.8660007,-0.0005165222
-0.8650007,-0.0005106977
-0.8640007,-0.0005067126
-0.8630006,-0.0005027275
-0.8620006,-0.0004965966
-0.8610007,-0.0004944507
-0.8600007,-0.0004895459
-0.8590007,-0.0004834149
-0.8580006,-0.000480656
-0.8570006,-0.0004760578
-0.8560007,-0.0004702334
-0.8550007,-0.0004674745
-0.8540006,-0.0004641024
-0.8530006,-0.0004576649
-0.8520007,-0.0004545994
-0.8510007,-0.0004490816
-0.8500007,-0.0004444833
-0.8490006,-0.0004408048
-0.8480006,-0.0004349803
-0.8470007,-0.0004306886
-0.8460007,-0.0004276232
-0.8450007,-0.0004217988
-0.8440006,-0.0004172005
-0.8430007,-0.0004135219
-0.8420007,-0.000407391
-0.8410007,-0.0004043255
-0.8400006,-0.0003994207
-0.8390006,-0.0003935963
-0.8380007,-0.0003905308
-0.8370007,-0.0003865457
-0.8360007,-0.0003798016
-0.8350006,-0.0003761231
-0.8340006,-0.0003724445
-0.8330007,-0.0003660069
-0.8320007,-0.0003626349
-0.8310006,-0.0003589563
-0.8300006,-0.0003522123
-0.8290007,-0.0003491468
-0.8280007,-0.0003439355
-0.8270007,-0.0003381111
-0.8260006,-0.000334739
-0.8250006,-0.0003292212
-0.8240007,-0.0003240099
-0.8230007,-0.0003197182
-0.8220007,-0.0003157331
-0.8210006,-0.0003102152
-0.8200006,-0.000305617
-0.8190007,-0.0003007122
-0.8180007,-0.0002945812
-0.8170006,-0.0002912092
-0.8160006,-0.000286611
-0.8150007,-0.0002810931
-0.8140007,-0.0002780276
-0.8130007,-0.0002725097
-0.8120006,-0.000268218
-0.8110006,-0.0002642329
-0.8100007,-0.000258102
-0.8090007,-0.0002541168
-0.8080007,-0.0002501317
-0.8070006,-0.0002443073
-0.8060006,-0.0002406287
-0.8050007,-0.0002360305
-0.8040007,-0.0002302061
-0.8030006,-0.0002271406
-0.8020006,-0.0002219293
-0.8010007,-0.0002167179
-0.8000007,-0.0002403222
-0.8009993,-0.0002740425
-0.8019994,-0.0002970336
-0.8029994,-0.0003191051
-0.8039994,-0.000337498
-0.8049994,-0.0003531319
-0.8059993,-0.0003706052
-0.8069994,-0.0003843998
-0.8079994,-0.0003985011
-0.8089994,-0.0004138285
-0.8099993,-0.0004251708
-0.8109994,-0.0004383524
-0.8119994,-0.0004509208
-0.8129994,-0.00046165
-0.8139994,-0.0004745251
-0.8149993,-0.0004858673
-0.8159994,-0.0004944507
-0.8169994,-0.0005064061
-0.8179994,-0.0005165222
-0.8189994,-0.0005263317
-0.8199994,-0.0005367543
-0.8209994,-0.0005468705
-0.8219994,-0.0005545341
-0.8229994,-0.0005658764
-0.8239993,-0.0005741533
-0.8249994,-0.0005818169
-0.8259994,-0.0005928527
-0.8269994,-0.0006002099
-0.8279994,-0.0006081801
-0.8289993,-0.0006179896
-0.8299994,-0.0006256534
-0.8309994,-0.0006330105
-0.8319994,-0.0006419004
-0.8329993,-0.0006486445
-0.8339994,-0.0006569213
-0.8349994,-0.0006658112
-0.8359994,-0.0006725552
-0.8369994,-0.0006799124
-0.8379993,-0.0006884958
-0.8389994,-0.0006955464
-0.8399994,-0.0007029035
-0.8409994,-0.0007099541
-0.8419994,-0.000715472
-0.8429993,-0.0007237488
-0.8439994,-0.0007314125
-0.8449994,-0.0007363172
-0.8459994,-0.000743981
-0.8469993,-0.0007516447
-0.8479994,-0.000756856
-0.8489994,-0.0007642132
-0.8499994,-0.0007712637
-0.8509994,-0.0007770882
-0.8519993,-0.0007841389
-0.8529994,-0.0007911894
-0.8539994,-0.0007970139
-0.8549994,-0.0008028382
-0.8559994,-0.0008108085
-0.8569994,-0.0008154067
-0.8579994,-0.000823377
-0.8589994,-0.0008301211
-0.8599994,-0.0008347193
-0.8609993,-0.0008417699
-0.8619994,-0.0008482074
-0.8629994,-0.0008531122
-0.8639994,-0.0008601628
-0.8649994,-0.0008669068
-0.8659993,-0.0008711985
-0.8669994,-0.0008782492
-0.8679994,-0.0008849932
-0.8689994,-0.0008892849
-0.8699993,-0.0008960289
-0.8709994,-0.0009030796
-0.8719994,-0.0009064515
-0.8729994,-0.0009135022
-0.8739994,-0.0009199397
-0.8749993,-0.0009239248
-0.8759994,-0.0009315885
-0.8769994,-0.0009371064
-0.8779994,-0.0009410915
-0.8789994,-0.0009487552
-0.8799993,-0.0009551927
-0.8809994,-0.0009588713
-0.8819994,-0.0009662285
-0.8829994,-0.0009720529
-0.8839993,-0.0009751184
-0.8849994,-0.0009840083
-0.8859994,-0.0009879934
-0.8869994,-0.0009932048
-0.8879994,-0.001000562
-0.8889993,-0.001004547
-0.8899994,-0.001009145
-0.8909994,-0.001015583
-0.8919994,-0.001021101
-0.8929994,-0.001027232
-0.8939994,-0.001032443
-0.8949994,-0.001036428
-0.8959994,-0.001042866
-0.8969994,-0.00104869
-0.8979993,-0.001053595
-0.8989994,-0.001059113
-0.8999994,-0.00106555
-0.9009994,-0.001068922
-0.9019994,-0.001074747
-0.9029993,-0.001080878
-0.9039994,-0.001083943
-0.9049994,-0.001090994
-0.9059994,-0.001095592
-0.9069993,-0.00110019
-0.9079994,-0.001107854
-0.9089994,-0.00111
-0.9099994,-0.001116744
-0.9109994,-0.001123488
-0.9119993,-0.001125634
-0.9129994,-0.001132378
-0.9139994,-0.001138815
-0.9149994,-0.001140961
-0.9159994,-0.001147092
-0.9169993,-0.001154143
-0.9179994,-0.001156288
-0.9189994,-0.001162726
-0.9199994,-0.001168857
-0.9209993,-0.001171616
-0.9219994,-0.00117744
-0.9229994,-0.001183265
-0.9239994,-0.001186943
-0.9249994,-0.001192461
-0.9259993,-0.001198592
-0.9269994,-0.001201658
-0.9279994,-0.001206869
-0.9289994,-0.001213
-0.9299994,-0.001215759
-0.9309993,-0.001220357
-0.9319994,-0.001228327
-0.9329994,-0.001230473
-0.9339994,-0.001235378
-0.9349993,-0.001243042
-0.9359994,-0.001244268
-0.9369994,-0.001249786
-0.9379994,-0.001256836
-0.9389994,-0.001258982
-0.9399993,-0.001264807
-0.9409994,-0.001270631
-0.9419994,-0.001273696
-0.9429994,-0.001278601
-0.9439994,-0.001284426
-0.9449994,-0.001288411
-0.9459994,-0.00129117
-0.9469994,-0.00129822
-0.9479994,-0.001302205
-0.9489993,-0.001306804
-0.9499994,-0.001313241
-0.9509994,-0.001316
-0.9519994,-0.001320292
-0.9529994,-0.001327036
-0.9539993,-0.001330101
-0.9549994,-0.001335313
-0.9559994,-0.00134175
-0.9569994,-0.001344203
-0.9579993,-0.001348801
-0.9589994,-0.001355851
-0.9599994,-0.001357997
-0.9609994,-0.001361676
-0.9619994,-0.001370566
-0.9629993,-0.001370566
-0.9639994,-0.001378843
-0.9649994,-0.001384667
-0.9659994,-0.001386813
-0.9669994,-0.00139325
-0.9679993,-0.001396929
-0.9689994,-0.001399688
-0.9699994,-0.001407658
-0.9709994,-0.001410417
-0.9719993,-0.001414402
-0.9729994,-0.001420227
-0.9739994,-0.001423292
-0.9749994,-0.001430036
-0.9759994,-0.001436167
-0.9769993,-0.00143678
-0.9779994,-0.001444137
-0.9789994,-0.001449349
-0.9799994,-0.001449962
-0.9809994,-0.001457625
-0.9819994,-0.001464369
-0.9829994,-0.001465289
-0.9839994,-0.001473566
-0.9849994,-0.001476938
-0.9859993,-0.001478777
-0.9869994,-0.001487361
-0.9879994,-0.001491346
-0.9889994,-0.001495331
-0.9899994,-0.001502382
-0.9909993,-0.00150606
-0.9919994,-0.001510965
-0.9929994,-0.001517096
-0.9939994,-0.001519855
-0.9949993,-0.001525373
-0.9959994,-0.001531504
-0.9969994,-0.001534262
-0.9979994,-0.001539167
-0.9989994,-0.001546524
-0.9999993,-0.00154867
-1.000999,-0.001554188
-1.001999,-0.001561545
-1.002999,-0.001563078
-1.003999,-0.001570129
-1.004999,-0.00157626
-1.005999,-0.001578405
-1.006999,-0.001585456
-1.007999,-0.001590974
-1.008999,-0.001594039
-1.009999,-0.001598944
-1.010999,-0.001605075
-1.011999,-0.001607528
-1.012999,-0.001613352
-1.013999,-0.001620096
-1.014999,-0.001621016
-1.015999,-0.001629906
-1.016999,-0.00163481
-1.017999,-0.001638182
-1.018999,-0.001644926
-1.019999,-0.001646766
-1.020999,-0.00165259
-1.021999,-0.001659334
-1.022999,-0.0016624
-1.023999,-0.001669757
-1.024999,-0.001675275
-1.025999,-0.001676194
-1.026999,-0.001683245
-1.027999,-0.001689376
-1.028999,-0.001692748
-1.029999,-0.001698266
-1.030999,-0.001704397
-1.031999,-0.001707462
-1.032999,-0.001713287
-1.033999,-0.001718805
-1.034999,-0.001722483
-1.035999,-0.001727695
-1.036999,-0.001734745
-1.037999,-0.001737504
-1.038999,-0.001743941
-1.039999,-0.001749766
-1.040999,-0.001752525
-1.041999,-0.001759882
-1.042999,-0.001765093
-1.043999,-0.001767239
-1.044999,-0.001775822
-1.045999,-0.001779808
-1.046999,-0.001780727
-1.047999,-0.001789924
-1.048999,-0.001794522
-1.049999,-0.001797894
-1.050999,-0.001807397
-1.051999,-0.001809849
-1.052999,-0.001814448
-1.053999,-0.001821498
-1.054999,-0.001824257
-1.055999,-0.001830695
-1.056999,-0.001838052
-1.057999,-0.001841117
-1.058999,-0.001847555
-1.059999,-0.001852766
-1.060999,-0.001856445
-1.061999,-0.001862576
-1.062999,-0.001869013
-1.063999,-0.001872385
-1.064999,-0.00187729
-1.065999,-0.001884034
-1.066999,-0.001888326
-1.067999,-0.001893844
-1.068999,-0.001900588
-1.069999,-0.001903347
-1.070999,-0.001909784
-1.071999,-0.001916222
-1.072999,-0.001919287
-1.073999,-0.001925418
-1.074999,-0.001931856
-1.075999,-0.001935534
-1.076999,-0.001941359
-1.077999,-0.001948716
-1.078999,-0.001949635
-1.079999,-0.001957912
-1.080999,-0.00196343
-1.081999,-0.001965576
-1.082999,-0.001973546
-1.083999,-0.001979984
-1.084999,-0.00198213
-1.085999,-0.001988874
-1.086999,-0.001995004
-1.087999,-0.001998683
-1.088999,-0.002003894
-1.089999,-0.002010945
-1.090999,-0.002013397
-1.091999,-0.002021368
-1.092999,-0.002028418
-1.093999,-0.002029644
-1.094999,-0.00203976
-1.095999,-0.002042213
-1.096999,-0.002048037
-1.097999,-0.002056927
-1.098999,-0.002057847
-1.099999,-0.002065204
-1.100999,-0.002072254
-1.101999,-0.00207532
-1.102999,-0.002083597
-1.103999,-0.002089115
-1.104999,-0.00209218
-1.105999,-0.00210015
-1.106999,-0.002105362
-1.107999,-0.002110573
-1.108999,-0.002117011
-1.109999,-0.002124061
-1.110999,-0.002128046
-1.111999,-0.002134484
-1.112999,-0.002141228
-1.113999,-0.0021446
-1.114999,-0.002151957
-1.115999,-0.002158395
-1.116999,-0.002163299
-1.117999,-0.002170044
-1.118999,-0.002176174
-1.119999,-0.002180773
-1.120999,-0.002188436
-1.121999,-0.002193035
-1.122999,-0.002199166
-1.123999,-0.00220499
-1.124999,-0.002211121
-1.125999,-0.002216639
-1.126999,-0.002223996
-1.127999,-0.002228901
-1.128999,-0.002233806
-1.129999,-0.002241163
-1.130999,-0.002245761
-1.131999,-0.002251892
-1.132999,-0.002257716
-1.133999,-0.002263234
-1.134999,-0.002267526
-1.135999,-0.002275496
-1.136999,-0.002279788
-1.137999,-0.002284999
-1.138999,-0.002290823
-1.139999,-0.002298794
-1.140999,-0.00230094
-1.141999,-0.002309216
-1.142999,-0.002315654
-1.143999,-0.002316267
-1.144999,-0.002327303
-1.145999,-0.00232669
-1.146999,-0.00233558
-1.147999,-0.00234355
-1.148999,-0.002346922
-1.149999,-0.002353666
-1.150999,-0.002359184
-1.151999,-0.00235949
-1.152999,-0.0023693
-1.153999,-0.002375124
-1.154999,-0.00237727
-1.155999,-0.002385241
-1.156999,-0.002389532
-1.157999,-0.002395357
-1.158999,-0.002403327
-1.159999,-0.002406699
-1.160999,-0.002409764
-1.161999,-0.00241988
-1.162999,-0.002420493
-1.163999,-0.002427851
-1.164999,-0.002436127
-1.165999,-0.002436434
-1.166999,-0.002443791
-1.167999,-0.002449922
-1.168999,-0.002451455
-1.169999,-0.002461571
-1.170999,-0.002466782
-1.171999,-0.002467396
-1.172999,-0.002475979
-1.173999,-0.002479964
-1.174999,-0.00248211
-1.175999,-0.002492226
-1.176999,-0.002494678
-1.177999,-0.002498663
-1.178999,-0.00250694
-1.179999,-0.002510925
-1.180999,-0.002512765
-1.181999,-0.002522574
-1.182999,-0.002526559
-1.183999,-0.002529012
-1.184999,-0.002536369
-1.185999,-0.0025425
-1.186999,-0.002545259
-1.187999,-0.002553842
-1.188999,-0.00255936
-1.189999,-0.002563651
-1.190999,-0.002571928
-1.191999,-0.002576833
-1.192999,-0.002582351
-1.193999,-0.002590321
-1.194999,-0.002597372
-1.195999,-0.002603503
-1.196999,-0.002611166
-1.197999,-0.002622815
-1.198999,-0.002624961
-1.199999,-0.002636303
-1.200999,-0.002645806
-1.201999,-0.002648259
-1.202999,-0.002663586
-1.203999,-0.002669717
-1.204999,-0.0026783
-1.205999,-0.002691176
-1.206999,-0.002697306
-1.207999,-0.002706809
-1.208999,-0.002719378
-1.209999,-0.002724896
-1.210999,-0.002735931
-1.211999,-0.00274942
-1.212999,-0.00275647
-1.213999,-0.0027672
-1.214999,-0.002780688
-1.215999,-0.002790497
-1.216999,-0.002799387
-1.217999,-0.00281686
-1.218999,-0.002823911
-1.219999,-0.002833721
-1.220999,-0.002849354
-1.221999,-0.00285947
-1.222999,-0.002872652
-1.223999,-0.002884914
-1.224999,-0.00289595
-1.225999,-0.002910664
-1.226999,-0.002923846
-1.227999,-0.002936721
-1.228999,-0.002952355
-1.229999,-0.002965843
-1.230999,-0.002980557
-1.231999,-0.002994352
-1.232999,-0.003009066
-1.233999,-0.002985663
-1.234999,-0.003000991
-1.235999,-0.003019383
-1.236999,-0.003031645
-1.237999,-0.003050038
-1.238999,-0.0030623
-1.239999,-0.003077628
-1.240999,-0.003096021
-1.241999,-0.003111348
-1.242999,-0.003129741
-1.243999,-0.003148134
-1.244999,-0.003160396
-1.245999,-0.003181854
-1.246999,-0.003203312
-1.247999,-0.003215575
-1.248999,-0.003237033
-1.249999,-0.003255426
-1.250999,-0.003270753
-1.251999,-0.003292212
-1.252999,-0.003316735
-1.253999,-0.003335128
-1.254999,-0.003356587
-1.255999,-0.003374979
-1.256999,-0.003396438
-1.257999,-0.003417896
-1.258999,-0.003436289
-1.259999,-0.003460813
-1.260999,-0.003485337
-1.261999,-0.00350373
-1.262999,-0.003528254
-1.263999,-0.003552777
-1.264999,-0.00357117
-1.265999,-0.00359876
-1.266999,-0.003623284
-1.267999,-0.003644742
-1.268999,-0.003669266
-1.269999,-0.003696855
-1.270999,-0.003721379
-1.271999,-0.003748968
-1.272999,-0.003776558
-1.273999,-0.003798016
-1.274999,-0.003831736
-1.275999,-0.00385626
-1.276999,-0.003880784
-1.277999,-0.003914505
-1.278999,-0.003942094
-1.279999,-0.003966617
-1.280999,-0.004000338
-1.281999,-0.004030993
-1.282999,-0.004061648
-1.283999,-0.004092303
-1.284999,-0.004126023
-1.285999,-0.004153612
-1.286999,-0.004190398
-1.287999,-0.004221053
-1.288999,-0.004251707
-1.289999,-0.004288493
-1.290999,-0.004322214
-1.291999,-0.004355934
-1.292999,-0.004395785
-1.293999,-0.004429505
-1.294999,-0.004463226
-1.295999,-0.004503077
-1.296999,-0.004542928
-1.297999,-0.004582779
-1.298999,-0.004625696
-1.299999,-0.004659417
-1.300999,-0.004705399
-1.301999,-0.00474525
-1.302999,-0.004785101
-1.303999,-0.004834149
-1.304999,-0.004880131
-1.305999,-0.004923048
-1.306999,-0.004975162
-1.307999,-0.005018078
-1.308999,-0.005067126
-1.309999,-0.005122304
-1.310999,-0.005168287
-1.311999,-0.005223466
-1.312999,-0.005278645
-1.313999,-0.005330757
-1.314999,-0.005385936
-1.315999,-0.005447246
-1.316999,-0.005502424
-1.317999,-0.005563734
-1.318999,-0.005628109
-1.319999,-0.005689419
-1.320999,-0.00575686
-1.321999,-0.0058243
-1.322999,-0.005888675
-1.323999,-0.005959181
-1.324999,-0.006035818
-1.325999,-0.006103259
-1.326999,-0.00617683
-1.327999,-0.006253468
-1.328999,-0.006330105
-1.329999,-0.006412873
-1.330999,-0.006498706
-1.331999,-0.006581475
-1.332999,-0.006664242
-1.333999,-0.006756207
-1.334999,-0.006845106
-1.335999,-0.00693707
-1.336999,-0.007032101
-1.337999,-0.007130195
-1.338999,-0.007228291
-1.339999,-0.007332517
-1.340999,-0.007436744
-1.341999,-0.00754097
-1.342999,-0.007654393
-1.343999,-0.007764751
-1.344999,-0.007875108
-1.345999,-0.008000793
-1.346999,-0.008117281
-1.347999,-0.008239901
-1.348999,-0.00836865
-1.349999,-0.008497401
-1.350999,-0.008626151
-1.351999,-0.008764098
-1.352999,-0.008895914
-1.353999,-0.009039992
-1.354999,-0.009187134
-1.355999,-0.009328146
-1.356999,-0.00947529
-1.357999,-0.009628564
-1.358999,-0.009781837
-1.359999,-0.009941244
-1.360999,-0.01010371
-1.361999,-0.01026618
-1.362999,-0.01043785
-1.363999,-0.01060952
-1.364999,-0.01077812
-1.365999,-0.01095592
-1.366999,-0.01113678
-1.367999,-0.01132071
-1.368999,-0.01151077
-1.369999,-0.01170083
-1.370999,-0.01189396
-1.371999,-0.01209321
-1.372999,-0.01229247
-1.373999,-0.01249786
-1.374999,-0.01270324
-1.375999,-0.01291476
-1.376999,-0.01312628
-1.377999,-0.0133378
-1.378999,-0.01356464
-1.379999,-0.01378229
-1.380999,-0.01400301
-1.381999,-0.01423292
-1.382999,-0.01446283
-1.383999,-0.01469581
-1.384999,-0.01493798
-1.385999,-0.01517402
-1.386999,-0.01541006
-1.387999,-0.01566143
-1.388999,-0.01590361
-1.389999,-0.01616111
-1.390999,-0.01642474
-1.391999,-0.01666998
-1.392999,-0.01693361
-1.393999,-0.01719724
-1.394999,-0.01745474
-1.395999,-0.01773063
-1.396999,-0.01799427
-1.397999,-0.01826403
-1.398999,-0.01854299
-1.399999,-0.01881582
-1.400999,-0.01909477
-1.401999,-0.01937987
-1.402999,-0.01966189
-1.403999,-0.01995004
-1.404999,-0.0202382
-1.405999,-0.02052942
-1.406999,-0.02082984
-1.407999,-0.02112719
-1.408999,-0.02142454
-1.409999,-0.02171883
-1.410999,-0.02202537
-1.411999,-0.02232273
-1.412999,-0.02263234
-1.413999,-0.02295115
-1.414999,-0.02325463
-1.415999,-0.02356118
-1.416999,-0.02387999
-1.417999,-0.02418348
-1.418999,-0.02449922
-1.419999,-0.0248211
-1.420999,-0.02513991
-1.421999,-0.02546178
-1.422999,-0.02578365
-1.423999,-0.02610247
-1.424999,-0.0264366
-1.425999,-0.02675541
-1.426999,-0.02708036
-1.427999,-0.02742676
-1.428999,-0.02774557
-1.429999,-0.02807664
-1.430999,-0.0284261
-1.431999,-0.02876024
-1.432999,-0.02910051
-1.433999,-0.02944691
-1.434999,-0.02978105
-1.435999,-0.03011825
-1.436999,-0.03059235
-1.437999,-0.03092955
-1.438999,-0.03126676
-1.439999,-0.03160396
-1.440999,-0.03197182
-1.441999,-0.03230902
-1.442999,-0.03270753
-1.443999,-0.03304474
-1.444999,-0.03341259
-1.445999,-0.03378045
-1.446999,-0.03411765
-1.447999,-0.03448552
-1.448999,-0.03485337
-1.449999,-0.03519057
-1.450999,-0.03558908
-1.451999,-0.03595695
-1.452999,-0.03629415
-1.453999,-0.03669266
-1.454999,-0.03706052
-1.455999,-0.03742838
-1.456999,-0.03779623
-1.457999,-0.03816409
-1.458999,-0.03853195
-1.459999,-0.03893046
-1.460999,-0.03929832
-1.461999,-0.03966618
-1.462999,-0.04003404
-1.463999,-0.04043255
-1.464999,-0.04083106
-1.465999,-0.04119892
-1.466999,-0.04156678
-1.467999,-0.04196529
-1.468999,-0.04233315
-1.469999,-0.04273166
-1.470999,-0.04309952
-1.471999,-0.04349803
-1.472999,-0.04389654
-1.473999,-0.0442644
-1.474999,-0.04466292
-1.475999,-0.04503077
-1.476999,-0.04542929
-1.477999,-0.04585845
-1.478999,-0.04622631
-1.479999,-0.04662482
-1.480999,-0.04702334
-1.481999,-0.04739119
-1.482999,-0.04782036
-1.483999,-0.04821887
-1.484999,-0.04858673
-1.485999,-0.04898525
-1.486999,-0.04941441
-1.487999,-0.04981292
-1.488999,-0.05021144
-1.489999,-0.05060995
-1.490999,-0.05100846
-1.491999,-0.05140698
-1.492999,-0.05180549
-1.493999,-0.052204
-1.494999,-0.05260251
-1.495999,-0.05300103
-1.496999,-0.0534302
-1.497999,-0.05382871
-1.498999,-0.05422722
-1.499999,-0.0543805
-1.499001,-0.05404329
-1.498001,-0.05367543
-1.497001,-0.05330757
-1.496001,-0.05297038
-1.495001,-0.05257186
-1.494001,-0.052204
-1.493001,-0.05183614
-1.492001,-0.05146828
-1.491001,-0.05110043
-1.490001,-0.05073257
-1.489001,-0.05033405
-1.488001,-0.0499662
-1.487001,-0.04959834
-1.486001,-0.04919983
-1.485001,-0.04883197
-1.484001,-0.04846412
-1.483001,-0.04803495
-1.482001,-0.04766709
-1.481001,-0.04729923
-1.480001,-0.04693137
-1.479001,-0.04656351
-1.478001,-0.046165
-1.477001,-0.04576649
-1.476001,-0.04539863
-1.475001,-0.04503077
-1.474001,-0.04466292
-1.473001,-0.04429505
-1.472001,-0.0439272
-1.471001,-0.04355934
-1.470001,-0.04319149
-1.469001,-0.04282362
-1.468001,-0.04242511
-1.467001,-0.04208791
-1.466001,-0.04172005
-1.465001,-0.04132154
-1.464001,-0.04095368
-1.463001,-0.04058582
-1.462001,-0.04021796
-1.461001,-0.03985011
-1.460001,-0.03948225
-1.459001,-0.03911439
-1.458001,-0.03877719
-1.457001,-0.03837867
-1.456001,-0.03804147
-1.455001,-0.03767361
-1.454001,-0.03730575
-1.453001,-0.0369379
-1.452001,-0.03660069
-1.451001,-0.03623284
-1.450001,-0.03589563
-1.449001,-0.03552778
-1.448001,-0.03519057
-1.447001,-0.03485337
-1.446001,-0.03448552
-1.445001,-0.03414831
-1.444001,-0.03378045
-1.443001,-0.03341259
-1.442001,-0.03307539
-1.441001,-0.03273819
-1.440001,-0.03240098
-1.439001,-0.03203313
-1.438001,-0.03169592
-1.437001,-0.03135872
-1.436001,-0.03102152
-1.435001,-0.03068431
-1.434001,-0.03034711
-1.433001,-0.03000991
-1.432001,-0.0296727
-1.431001,-0.0293355
-1.430001,-0.02902895
-1.429001,-0.02869175
-1.428001,-0.0283852
-1.427001,-0.028048
-1.426001,-0.02774145
-1.425001,-0.02740425
-1.424001,-0.0270977
-1.423001,-0.02679115
-1.422001,-0.02645395
-1.421001,-0.0261474
-1.420001,-0.0258102
-1.419001,-0.02550365
-1.418001,-0.0251971
-1.417001,-0.02489055
-1.416001,-0.024584
-1.415001,-0.02427745
-1.414001,-0.02397091
-1.413001,-0.02366436
-1.412001,-0.02338847
-1.411001,-0.02308192
-1.410001,-0.02277537
-1.409001,-0.02249948
-1.408001,-0.02222358
-1.407001,-0.02191703
-1.406001,-0.02164114
-1.405001,-0.02133459
-1.404001,-0.0210587
-1.403001,-0.0207828
-1.402001,-0.02050691
-1.401001,-0.02023102
-1.400001,-0.01995512
-1.399001,-0.01967923
-1.398001,-0.01940334
-1.397001,-0.01912744
-1.396001,-0.01885155
-1.395001,-0.01860631
-1.394001,-0.01836107
-1.393001,-0.01808518
-1.392001,-0.01783994
-1.391001,-0.0175947
-1.390001,-0.01734946
-1.389001,-0.01710423
-1.388001,-0.01682833
-1.387001,-0.01658309
-1.386001,-0.01633785
-1.385001,-0.01609262
-1.384001,-0.01598331
-1.383001,-0.0157534
-1.382001,-0.01552349
-1.381001,-0.01529664
-1.380001,-0.0150698
-1.379001,-0.01484908
-1.378001,-0.01462837
-1.377001,-0.01441685
-1.376001,-0.0141992
-1.375001,-0.01398768
-1.374001,-0.01378842
-1.373001,-0.01357691
-1.372001,-0.01337152
-1.371001,-0.01317839
-1.370001,-0.01297607
-1.369001,-0.01278295
-1.368001,-0.01259595
-1.367001,-0.01240283
-1.366001,-0.01221583
-1.365001,-0.01203803
-1.364001,-0.0118541
-1.363001,-0.01167631
-1.362001,-0.01150464
-1.361001,-0.01132684
-1.360001,-0.01116437
-1.359001,-0.0109927
-1.358001,-0.01082717
-1.357001,-0.01066776
-1.356001,-0.01051142
-1.355001,-0.01035202
-1.354001,-0.01020181
-1.353001,-0.01004547
-1.352001,-0.009898326
-1.351001,-0.009754249
-1.350001,-0.009610171
-1.349001,-0.009463028
-1.348001,-0.009328146
-1.347001,-0.009193265
-1.346001,-0.009055318
-1.345001,-0.008926569
-1.344001,-0.008794753
-1.343001,-0.008666002
-1.342001,-0.008543383
-1.341001,-0.008420764
-1.340001,-0.008298145
-1.339001,-0.008184722
-1.338001,-0.008065168
-1.337001,-0.007951745
-1.336001,-0.007844454
-1.335001,-0.007734096
-1.334001,-0.007626804
-1.333001,-0.007525643
-1.332001,-0.007418351
-1.331001,-0.00731719
-1.330001,-0.00722216
-1.329001,-0.007120999
-1.328001,-0.007032101
-1.327001,-0.00693707
-1.326001,-0.006848171
-1.325001,-0.006759272
-1.324001,-0.006670373
-1.323001,-0.006587605
-1.322001,-0.006504837
-1.321001,-0.006419003
-1.320001,-0.006339301
-1.319001,-0.006262664
-1.318001,-0.006182961
-1.317001,-0.00610939
-1.316001,-0.006035818
-1.315001,-0.005962247
-1.314001,-0.005891741
-1.313001,-0.0058243
-1.312001,-0.005753794
-1.311001,-0.005686353
-1.310001,-0.005621978
-1.309001,-0.005557603
-1.308001,-0.005496293
-1.307001,-0.005434984
-1.306001,-0.005373674
-1.305001,-0.005318495
-1.304001,-0.005263316
-1.303001,-0.005198942
-1.302001,-0.005149893
-1.301001,-0.00509165
-1.300001,-0.005039536
-1.299001,-0.004990489
-1.298001,-0.00493531
-1.297001,-0.004883197
-1.296001,-0.004837214
-1.295001,-0.004788167
-1.294001,-0.004742185
-1.293001,-0.004696202
-1.292001,-0.004644089
-1.291001,-0.004604238
-1.290001,-0.004561321
-1.289001,-0.004515339
-1.288001,-0.004478553
-1.287001,-0.004432571
-1.286001,-0.004389654
-1.285001,-0.004355934
-1.284001,-0.004316083
-1.283001,-0.004273166
-1.282001,-0.004242511
-1.281001,-0.00420266
-1.280001,-0.004162808
-1.279001,-0.004132153
-1.278001,-0.004095368
-1.277001,-0.004058582
-1.276001,-0.004027927
-1.275001,-0.003988076
-1.274001,-0.003957421
-1.273001,-0.003929832
-1.272001,-0.003893046
-1.271001,-0.003865457
-1.270001,-0.003834802
-1.269001,-0.003801082
-1.268001,-0.003773492
-1.267001,-0.003742838
-1.266001,-0.003712183
-1.265001,-0.003687659
-1.264001,-0.003657004
-1.263001,-0.003626349
-1.262001,-0.003601825
-1.261001,-0.003577302
-1.260001,-0.003552777
-1.259001,-0.003528254
-1.258001,-0.003494533
-1.257001,-0.00347614
-1.256001,-0.003448551
-1.255001,-0.003417896
-1.254001,-0.003402569
-1.253001,-0.003378045
-1.252001,-0.003350456
-1.251001,-0.003332063
-1.250001,-0.003307539
-1.249001,-0.003283015
-1.248001,-0.003264622
-1.247001,-0.003237033
-1.246001,-0.00321864
-1.245001,-0.003200247
-1.244001,-0.003175723
-1.243001,-0.003160396
-1.242001,-0.003138937
-1.241001,-0.003114413
-1.240001,-0.003099086
-1.239001,-0.003077628
-1.238001,-0.003056169
-1.237001,-0.003040842
-1.236001,-0.003019383
-1.235001,-0.002997925
-1.234001,-0.002982598
-1.233001,-0.002964205
-1.232001,-0.002945812
-1.231001,-0.002927419
-1.230001,-0.002912092
-1.229001,-0.002887568
-1.228001,-0.00287224
-1.227001,-0.002856913
-1.226001,-0.002841586
-1.225001,-0.002826258
-1.224001,-0.0028048
-1.223001,-0.002792538
-1.222001,-0.002774145
-1.221001,-0.002758818
-1.220001,-0.002746556
-1.219001,-0.002728163
-1.218001,-0.002712835
-1.217001,-0.002700574
-1.216001,-0.00268218
-1.215001,-0.002666853
-1.214001,-0.002654591
-1.213001,-0.002639264
-1.212001,-0.002623936
-1.211001,-0.002611674
-1.210001,-0.002596347
-1.209001,-0.00258102
-1.208001,-0.002565692
-1.207001,-0.00255343
-1.206001,-0.002541168
-1.205001,-0.002525841
-1.204001,-0.002513579
-1.203001,-0.002501317
-1.202001,-0.00248599
-1.201001,-0.002473728
-1.200001,-0.002464531
-1.199001,-0.002449204
-1.198001,-0.002436942
-1.197001,-0.00242468
-1.196001,-0.002412418
-1.195001,-0.002397091
-1.194001,-0.00239096
-1.193001,-0.002375632
-1.192001,-0.00236337
-1.191001,-0.002354174
-1.190001,-0.002338846
-1.189001,-0.00232965
-1.188001,-0.002320454
-1.187001,-0.002308191
-1.186001,-0.00229593
-1.185001,-0.002286733
-1.184001,-0.002274471
-1.183001,-0.002262209
-1.182001,-0.002256078
-1.181001,-0.002243817
-1.180001,-0.002231555
-1.179001,-0.002222358
-1.178001,-0.002210096
-1.177001,-0.002197834
-1.176001,-0.002191703
-1.175001,-0.002179441
-1.174001,-0.00217331
-1.173001,-0.002161048
-1.172001,-0.002148786
-1.171001,-0.002142655
-1.170001,-0.002130394
-1.169001,-0.002121197
-1.168001,-0.002115066
-1.167001,-0.002102804
-1.166001,-0.002093608
-1.165001,-0.002087477
-1.164001,-0.002075215
-1.163001,-0.002066019
-1.162001,-0.002059887
-1.161001,-0.002047626
-1.160001,-0.002038429
-1.159001,-0.002032298
-1.158001,-0.002020036
-1.157001,-0.002013905
-1.156001,-0.002007774
-1.155001,-0.001995512
-1.154001,-0.001986316
-1.153001,-0.001980185
-1.152001,-0.001970988
-1.151001,-0.001961792
-1.150001,-0.001955661
-1.149001,-0.001946465
-1.148001,-0.001937268
-1.147001,-0.001931137
-1.146001,-0.001921941
-1.145001,-0.001912744
-1.144001,-0.001906613
-1.143001,-0.001897417
-1.142001,-0.00188822
-1.141001,-0.001885155
-1.140001,-0.001872893
-1.139001,-0.001863697
-1.138001,-0.001860631
-1.137001,-0.001851435
-1.136001,-0.001842238
-1.135001,-0.001839173
-1.134001,-0.001826911
-1.133001,-0.00182078
-1.132001,-0.001814649
-1.131001,-0.001805453
-1.130001,-0.001799321
-1.129001,-0.00179319
-1.128001,-0.001783994
-1.127001,-0.001774798
-1.126001,-0.001771732
-1.125001,-0.001762536
-1.124001,-0.001753339
-1.123001,-0.001753339
-1.122001,-0.001741077
-1.121001,-0.001731881
-1.120001,-0.001728815
-1.119001,-0.001719619
-1.118001,-0.001716554
-1.117001,-0.001707357
-1.116001,-0.001698161
-1.115001,-0.00169203
-1.114001,-0.001688964
-1.113001,-0.001679768
-1.112001,-0.001673637
-1.111001,-0.00166444
-1.110001,-0.001658309
-1.109001,-0.001655244
-1.108001,-0.001642982
-1.107001,-0.001639916
-1.106001,-0.001633785
-1.105001,-0.001624589
-1.104001,-0.001618458
-1.103001,-0.001612327
-1.102001,-0.001603131
-1.101001,-0.001636343
-1.100001,-0.001629906
-1.099001,-0.001621629
-1.098001,-0.00161795
-1.097001,-0.00160998
-1.096001,-0.001603849
-1.095001,-0.001598638
-1.094001,-0.001592813
-1.093001,-0.001585149
-1.092001,-0.001580551
-1.091001,-0.00157442
-1.090001,-0.001567676
-1.089001,-0.001563998
-1.088001,-0.001556947
-1.087001,-0.001551123
-1.086001,-0.001547444
-1.085001,-0.001539474
-1.084001,-0.001533956
-1.083001,-0.001530584
-1.082001,-0.001524146
-1.081001,-0.001519855
-1.080001,-0.00151403
-1.079001,-0.001507899
-1.078001,-0.001504221
-1.077001,-0.001499316
-1.076001,-0.001491346
-1.075001,-0.001490426
-1.074001,-0.001484602
-1.073001,-0.001476938
-1.072001,-0.001473259
-1.071001,-0.001469581
-1.070001,-0.001462837
-1.069001,-0.001460384
-1.068001,-0.001452721
-1.067001,-0.001450575
-1.066001,-0.00144567
-1.065001,-0.001439539
-1.064001,-0.001438006
-1.063001,-0.001431569
-1.062001,-0.001426357
-1.061001,-0.001425131
-1.060001,-0.001419307
-1.059001,-0.001413176
-1.058001,-0.00141103
-1.057001,-0.001405512
-1.056001,-0.001399075
-1.055001,-0.001396622
-1.054001,-0.001391717
-1.053001,-0.00138528
-1.052001,-0.001381908
-1.051001,-0.001377003
-1.050001,-0.001371179
-1.049001,-0.001368113
-1.048001,-0.001364128
-1.047001,-0.001357691
-1.046001,-0.001353092
-1.045001,-0.001348801
-1.044001,-0.001342057
-1.043001,-0.001339911
-1.042001,-0.0013347
-1.041001,-0.001327649
-1.040001,-0.001327342
-1.039001,-0.001319372
-1.038001,-0.001316
-1.037001,-0.001312935
-1.036001,-0.001305577
-1.035001,-0.001301899
-1.034001,-0.00129914
-1.033001,-0.001289943
-1.032001,-0.001289943
-1.031001,-0.001285039
-1.030001,-0.001278295
-1.029001,-0.001276149
-1.028001,-0.001270324
-1.027001,-0.001262967
-1.026001,-0.001261435
-1.025001,-0.001254384
-1.024001,-0.001249173
-1.023001,-0.001247027
-1.022001,-0.001240283
-1.021001,-0.001234765
-1.020001,-0.001232006
-1.019001,-0.001225568
-1.018001,-0.001219131
-1.017001,-0.001218211
-1.016001,-0.001211774
-1.015001,-0.001207482
-1.014001,-0.00120411
-1.013001,-0.001197979
-1.012001,-0.001191541
-1.011001,-0.001189396
-1.010001,-0.001182958
-1.009001,-0.001178053
-1.008001,-0.001175294
-1.007001,-0.001168857
-1.006001,-0.001163646
-1.005001,-0.001160887
-1.004001,-0.001153836
-1.003001,-0.001148318
-1.002001,-0.001146785
-1.001001,-0.001140348
-1.000001,-0.001134217
-0.9990008,-0.001131765
-0.9980009,-0.001123794
-0.9970009,-0.001119503
-0.9960009,-0.001117357
-0.9950009,-0.001109387
-0.9940009,-0.001105095
-0.9930009,-0.001100803
-0.9920009,-0.001094059
-0.9910009,-0.001090994
-0.9900008,-0.001087009
-0.9890009,-0.001080264
-0.9880009,-0.00107536
-0.9870009,-0.001072294
-0.9860009,-0.001064631
-0.9850008,-0.001060032
-0.9840009,-0.001057887
-0.9830009,-0.00104961
-0.9820009,-0.001045624
-0.9810008,-0.001042866
-0.9800009,-0.001033669
-0.9790009,-0.001032443
-0.9780009,-0.001027538
-0.9770009,-0.001019261
-0.9760008,-0.001017422
-0.9750009,-0.001011598
-0.9740009,-0.001005773
-0.9730009,-0.001002708
-0.9720009,-0.0009971899
-0.9710009,-0.0009910589
-0.9700009,-0.0009867672
-0.9690009,-0.0009821691
-0.9680009,-0.0009748118
-0.9670008,-0.0009711333
-0.9660009,-0.0009662285
-0.9650009,-0.0009594844
-0.9640009,-0.0009579517
-0.9630009,-0.0009493683
-0.9620008,-0.0009472225
-0.9610009,-0.0009426242
-0.9600009,-0.0009355737
-0.9590009,-0.0009315885
-0.9580009,-0.0009263772
-0.9570009,-0.0009202462
-0.9560009,-0.0009165677
-0.9550009,-0.0009110498
-0.9540009,-0.0009055319
-0.9530008,-0.0009009338
-0.9520009,-0.0008941896
-0.9510009,-0.0008905111
-0.9500009,-0.0008852997
-0.9490009,-0.0008794753
-0.9480008,-0.0008751836
-0.9470009,-0.0008696658
-0.9460009,-0.0008632282
-0.9450009,-0.0008604693
-0.9440009,-0.0008543384
-0.9430009,-0.0008494336
-0.9420009,-0.0008451419
-0.9410009,-0.0008399306
-0.9400009,-0.00083288
-0.9390008,-0.0008298145
-0.9380009,-0.0008242966
-0.9370009,-0.0008175526
-0.9360009,-0.0008157133
-0.9350009,-0.0008089693
-0.9340008,-0.0008028382
-0.9330009,-0.0007997728
-0.9320009,-0.0007927222
-0.9310009,-0.0007884305
-0.9300008,-0.0007844454
-0.9290009,-0.0007786209
-0.9280009,-0.0007737162
-0.9270009,-0.0007691179
-0.9260009,-0.0007636001
-0.9250008,-0.0007590018
-0.9240009,-0.0007550167
-0.9230009,-0.000747353
-0.9220009,-0.0007452072
-0.9210009,-0.0007390762
-0.9200009,-0.0007332518
-0.9190009,-0.0007298798
-0.9180009,-0.0007240553
-0.9170009,-0.000718844
-0.9160008,-0.0007151655
-0.9150009,-0.0007096475
-0.9140009,-0.0007044363
-0.9130009,-0.0006992249
-0.9120009,-0.0006961594
-0.9110008,-0.0006897219
-0.9100009,-0.0006854302
-0.9090009,-0.0006817517
-0.9080009,-0.0006750076
-0.9070009,-0.0006716356
-0.9060009,-0.000667344
-0.9050009,-0.0006618261
-0.9040009,-0.0006578409
-0.9030009,-0.0006529361
-0.9020008,-0.0006477248
-0.9010009,-0.0006440463
-0.9000009,-0.0006388349
-0.8990009,-0.0006342367
-0.8980009,-0.0006308646
-0.8970008,-0.0006250403
-0.8960009,-0.0006213617
-0.8950009,-0.0006173765
-0.8940009,-0.0006112456
-0.8930008,-0.0006066473
-0.8920009,-0.000604195
-0.8910009,-0.0005986771
-0.8900009,-0.0005956116
-0.8890009,-0.0005913199
-0.8880008,-0.0005848824
-0.8870009,-0.0005821235
-0.8860009,-0.0005769122
-0.8850009,-0.0005720074
-0.8840009,-0.0005692485
-0.8830009,-0.0005634241
-0.8820009,-0.000560052
-0.8810009,-0.0005557603
-0.8800009,-0.0005499359
-0.8790008,-0.0005465639
-0.8780009,-0.0005431919
-0.8770009,-0.0005370609
-0.8760009,-0.0005330758
-0.8750009,-0.0005303168
-0.8740008,-0.0005241859
-0.8730009,-0.0005198942
-0.8720009,-0.0005177484
-0.8710009,-0.0005106977
-0.8700009,-0.0005073257
-0.8690009,-0.0005039537
-0.8680009,-0.0004978227
-0.8670009,-0.0004944507
-0.8660009,-0.0004904656
-0.8650008,-0.0004846411
-0.8640009,-0.0004818822
-0.8630009,-0.0004766709
-0.8620009,-0.0004717661
-0.8610009,-0.0004687006
-0.8600008,-0.0004625697
-0.8590009,-0.0004595042
-0.8580009,-0.0004558256
-0.8570009,-0.0004490816
-0.8560008,-0.0004463226
-0.8550009,-0.0004423375
-0.8540009,-0.0004359
-0.8530009,-0.000433141
-0.8520009,-0.0004300755
-0.8510008,-0.000423638
-0.8500009,-0.000420266
-0.8490009,-0.0004156678
-0.8480009,-0.0004095368
-0.8470009,-0.0004064713
-0.8460009,-0.0004018731
-0.8450009,-0.0003972749
-0.8440009,-0.0003929832
-0.8430009,-0.000388385
-0.8420008,-0.0003825606
-0.8410009,-0.0003785754
-0.8400009,-0.0003739772
-0.8390009,-0.0003675397
-0.8380009,-0.0003650873
-0.8370008,-0.0003589563
-0.8360009,-0.0003546647
-0.8350009,-0.0003512927
-0.8340009,-0.0003445486
-0.8330009,-0.0003405634
-0.8320009,-0.0003368849
-0.8310009,-0.0003307539
-0.8300009,-0.0003273819
-0.8290009,-0.0003227837
-0.8280008,-0.0003163462
-0.8270009,-0.0003129741
-0.8260009,-0.0003074562
-0.8250009,-0.0003022449
-0.8240009,-0.0002982598
-0.8230008,-0.0002924354
-0.8220009,-0.0002875306
-0.8210009,-0.0002835455
-0.8200009,-0.0002783342
-0.8190009,-0.0002722032
-0.8180009,-0.0002694443
-0.8170009,-0.0002630067
-0.8160009,-0.0002577954
-0.8150009,-0.0002541168
-0.8140008,-0.0002476793
-0.8130009,-0.0002427746
-0.8120009,-0.0002387894
-0.8110009,-0.0002332716
-0.8100009,-0.0002280602
-0.8090008,-0.0002240751
-0.8080009,-0.0002185573
-0.8070009,-0.0002130394
-0.8060009,-0.0002093608
-0.8050008,-0.0002041495
-0.8040009,-0.0001983251
-0.8030009,-0.0001952596
-0.8020009,-0.0001888221
-0.8010009,-0.0001833042
-0.8000008,-0.0002096674
-0.8009992,-0.0002440007
-0.8019992,-0.0002694443
-0.8029991,-0.0002921289
-0.8039991,-0.0003117479
-0.8049992,-0.0003295277
-0.8059992,-0.0003482272
-0.8069991,-0.0003635546
-0.8079991,-0.0003785754
-0.8089992,-0.000394516
-0.8099992,-0.000407391
-0.8109992,-0.0004211857
-0.8119991,-0.0004352869
-0.8129991,-0.0004463226
-0.8139992,-0.0004598107
-0.8149992,-0.0004714596
-0.8159992,-0.0004815757
-0.8169991,-0.0004938376
-0.8179991,-0.0005045668
-0.8189992,-0.0005152959
-0.8199992,-0.0005269448
-0.8209991,-0.0005355282
-0.8219991,-0.0005462574
-0.8229992,-0.00055668
-0.8239992,-0.0005643437
-0.8249992,-0.000575686
-0.8259991,-0.0005854955
-0.8269991,-0.000591933
-0.8279992,-0.0006026622
-0.8289992,-0.0006118587
-0.8299991,-0.0006189093
-0.8309991,-0.0006287188
-0.8319992,-0.0006373022
-0.8329992,-0.0006437397
-0.8339992,-0.0006532427
-0.8349991,-0.0006624392
-0.8359991,-0.0006679571
-0.8369992,-0.0006777665
-0.8379992,-0.0006857368
-0.8389992,-0.0006918678
-0.8399991,-0.0007004511
-0.8409991,-0.0007081148
-0.8419992,-0.0007142458
-0.8429992,-0.0007237488
-0.8439991,-0.0007298798
-0.8449991,-0.0007363172
-0.8459992,-0.0007442875
-0.8469992,-0.0007513381
-0.8479992,-0.0007565495
-0.8489991,-0.000766359
-0.8499991,-0.0007715704
-0.8509992,-0.0007770882
-0.8519992,-0.0007844454
-0.8529992,-0.0007930287
-0.8539991,-0.0007985466
-0.8549991,-0.0008046775
-0.8559992,-0.0008120347
-0.8569992,-0.0008190853
-0.8579991,-0.0008249097
-0.8589991,-0.0008313472
-0.8599992,-0.0008390109
-0.8609992,-0.0008442223
-0.8619992,-0.0008512728
-0.8629991,-0.0008577104
-0.8639991,-0.0008635348
-0.8649992,-0.0008699723
-0.8659992,-0.0008761032
-0.8669991,-0.0008822342
-0.8679991,-0.0008874455
-0.8689992,-0.0008954158
-0.8699992,-0.0009009338
-0.8709992,-0.0009052254
-0.8719991,-0.0009131957
-0.8729991,-0.0009174873
-0.8739992,-0.0009236183
-0.8749992,-0.0009309754
-0.8759992,-0.0009364933
-0.8769991,-0.0009417046
-0.8779991,-0.0009478356
-0.8789992,-0.0009524338
-0.8799992,-0.0009594844
-0.8809991,-0.0009653088
-0.8819991,-0.0009705202
-0.8829992,-0.0009772643
-0.8839992,-0.0009827821
-0.8849992,-0.0009864607
-0.8859991,-0.0009938178
-0.8869991,-0.0009993357
-0.8879992,-0.001003627
-0.8889992,-0.001011904
-0.8899992,-0.001017422
-0.8909991,-0.001019261
-0.8919991,-0.001028764
-0.8929992,-0.001032443
-0.8939992,-0.001037654
-0.8949991,-0.001045318
-0.8959991,-0.001048077
-0.8969992,-0.001053901
-0.8979992,-0.001060645
-0.8989992,-0.001064017
-0.8999991,-0.001071375
-0.9009991,-0.001076586
-0.9019992,-0.001079345
-0.9029992,-0.001087315
-0.9039991,-0.001091913
-0.9049991,-0.001096205
-0.9059991,-0.001103256
-0.9069992,-0.001106628
-0.9079992,-0.001111839
-0.9089991,-0.001119503
-0.9099991,-0.001123794
-0.9109992,-0.001127473
-0.9119992,-0.00113575
-0.9129992,-0.001138202
-0.9139991,-0.001144333
-0.9149991,-0.001150464
-0.9159992,-0.001155369
-0.9169992,-0.00116058
-0.9179991,-0.001166098
-0.9189991,-0.001169164
-0.9199992,-0.001175908
-0.9209992,-0.001182038
-0.9219992,-0.001185717
-0.9229991,-0.001190928
-0.9239991,-0.001197366
-0.9249992,-0.001201045
-0.9259992,-0.001207175
-0.9269992,-0.001210548
-0.9279991,-0.001215146
-0.9289991,-0.001221277
-0.9299992,-0.001225262
-0.9309992,-0.00122894
-0.9319991,-0.001235684
-0.9329991,-0.001239363
-0.9339992,-0.001244268
-0.9349992,-0.001250399
-0.9359992,-0.001253771
-0.9369991,-0.001259289
-0.9379991,-0.0012645
-0.9389992,-0.001267259
-0.9399992,-0.001274923
-0.9409992,-0.001279214
-0.9419991,-0.001282893
-0.9429991,-0.00128933
-0.9439992,-0.001293929
-0.9449992,-0.001297914
-0.9459991,-0.001303738
-0.9469991,-0.001308643
-0.9479992,-0.001311402
-0.9489992,-0.001318759
-0.9499992,-0.001323357
-0.9509991,-0.001326729
-0.9519991,-0.001333167
-0.9529992,-0.001338378
-0.9539992,-0.001341444
-0.9549991,-0.001347575
-0.9559991,-0.001350947
-0.9569992,-0.001356464
-0.9579992,-0.001361982
-0.9589992,-0.001364128
-0.9599991,-0.001370872
-0.9609991,-0.001376084
-0.9619992,-0.001378229
-0.9629992,-0.00138436
-0.9639992,-0.001390491
-0.9649991,-0.001392331
-0.9659991,-0.001397542
-0.9669992,-0.001404593
-0.9679992,-0.001406125
-0.9689991,-0.001412256
-0.9699991,-0.001419307
-0.9709992,-0.001420227
-0.9719992,-0.001425744
-0.9729992,-0.001432795
-0.9739991,-0.00143586
-0.9749991,-0.001440765
-0.9759992,-0.001446283
-0.9769992,-0.001449349
-0.9779992,-0.001456093
-0.9789991,-0.001459465
-0.9799991,-0.001464063
-0.9809992,-0.001468661
-0.9819992,-0.001474179
-0.9829991,-0.001477245
-0.9839991,-0.001485828
-0.9849992,-0.001489506
-0.9859992,-0.001492879
-0.9869992,-0.001499929
-0.9879991,-0.001502688
-0.9889991,-0.001506367
-0.9899992,-0.001513724
-0.9909992,-0.001517402
-0.9919991,-0.001521387
-0.9929991,-0.001528438
-0.9939992,-0.00153181
-0.9949992,-0.001537021
-0.9959992,-0.001543766
-0.9969991,-0.001546831
-0.9979991,-0.001551736
-0.9989992,-0.00155756
-0.9999992,-0.001560319
-1.000999,-0.001566143
-1.001999,-0.001572888
-1.002999,-0.00157626
-1.003999,-0.001581164
-1.004999,-0.001586989
-1.005999,-0.001590667
-1.006999,-0.001596492
-1.007999,-0.00160017
-1.008999,-0.001605382
-1.009999,-0.0016109
-1.010999,-0.001617031
-1.011999,-0.001619789
-1.012999,-0.00162684
-1.013999,-0.001631132
-1.014999,-0.001633891
-1.015999,-0.001640635
-1.016999,-0.001647992
-1.017999,-0.001653203
-1.018999,-0.001656882
-1.019999,-0.001663319
-1.020999,-0.001665772
-1.021999,-0.00167129
-1.022999,-0.001675581
-1.023999,-0.001682632
-1.024999,-0.001687537
-1.025999,-0.001692748
-1.026999,-0.00169704
-1.027999,-0.001702864
-1.028999,-0.001707156
-1.029999,-0.001713287
-1.030999,-0.001719418
-1.031999,-0.001722483
-1.032999,-0.001728001
-1.033999,-0.001735052
-1.034999,-0.001738424
-1.035999,-0.001744555
-1.036999,-0.001751912
-1.037999,-0.001754671
-1.038999,-0.001759882
-1.039999,-0.001766933
-1.040999,-0.001769998
-1.041999,-0.001776742
-1.042999,-0.00178226
-1.043999,-0.001785632
-1.044999,-0.00179207
-1.045999,-0.001796974
-1.046999,-0.001801266
-1.047999,-0.001807704
-1.048999,-0.001813221
-1.049999,-0.001817513
-1.050999,-0.001823951
-1.051999,-0.001828855
-1.052999,-0.001831308
-1.053999,-0.001840504
-1.054999,-0.001845102
-1.055999,-0.001846329
-1.056999,-0.001856751
-1.057999,-0.001858897
-1.058999,-0.001862882
-1.059999,-0.001873611
-1.060999,-0.001874838
-1.061999,-0.001880049
-1.062999,-0.001888632
-1.063999,-0.001890778
-1.064999,-0.001896909
-1.065999,-0.001901201
-1.066999,-0.001905493
-1.067999,-0.001913156
-1.068999,-0.001918367
-1.069999,-0.001921433
-1.070999,-0.001930016
-1.071999,-0.001931549
-1.072999,-0.001937987
-1.073999,-0.001945037
-1.074999,-0.001949635
-1.075999,-0.00195546
-1.076999,-0.001960978
-1.077999,-0.001966189
-1.078999,-0.001968948
-1.079999,-0.001975385
-1.080999,-0.001983049
-1.081999,-0.001986115
-1.082999,-0.001992246
-1.083999,-0.001997764
-1.084999,-0.002001135
-1.085999,-0.002008799
-1.086999,-0.002012784
-1.087999,-0.002017995
-1.088999,-0.002025046
-1.089999,-0.002028112
-1.090999,-0.002033017
-1.091999,-0.002040987
-1.092999,-0.002042519
-1.093999,-0.002050796
-1.094999,-0.002057847
-1.095999,-0.00205846
-1.096999,-0.00206827
-1.097999,-0.002073174
-1.098999,-0.002075013
-1.099999,-0.002084517
-1.100999,-0.002090341
-1.101999,-0.002094019
-1.102999,-0.002102296
-1.103999,-0.002105668
-1.104999,-0.002111799
-1.105999,-0.002119463
-1.106999,-0.002123142
-1.107999,-0.002129579
-1.108999,-0.002135403
-1.109999,-0.002139082
-1.110999,-0.002147359
-1.111999,-0.00215349
-1.112999,-0.002158088
-1.113999,-0.002164526
-1.114999,-0.002170963
-1.115999,-0.002175255
-1.116999,-0.002181386
-1.117999,-0.002189049
-1.118999,-0.002193648
-1.119999,-0.002198552
-1.120999,-0.002207442
-1.121999,-0.002210201
-1.122999,-0.002216026
-1.123999,-0.002224303
-1.124999,-0.002228288
-1.125999,-0.002234419
-1.126999,-0.002242082
-1.127999,-0.002245761
-1.128999,-0.002251279
-1.129999,-0.002259556
-1.130999,-0.002263234
-1.131999,-0.002269365
-1.132999,-0.00227519
-1.133999,-0.002279481
-1.134999,-0.002285919
-1.135999,-0.002293583
-1.136999,-0.002295728
-1.137999,-0.002304312
-1.138999,-0.00230983
-1.139999,-0.002314428
-1.140999,-0.002320865
-1.141999,-0.002326996
-1.142999,-0.002330981
-1.143999,-0.002336193
-1.144999,-0.002343856
-1.145999,-0.002345389
-1.146999,-0.002354892
-1.147999,-0.002359797
-1.148999,-0.002362862
-1.149999,-0.002372365
-1.150999,-0.002373898
-1.151999,-0.002381562
-1.152999,-0.002390452
-1.153999,-0.002391678
-1.154999,-0.002401181
-1.155999,-0.002406699
-1.156999,-0.002407925
-1.157999,-0.002416508
-1.158999,-0.002422946
-1.159999,-0.002426318
-1.160999,-0.002435208
-1.161999,-0.0024395
-1.162999,-0.002443178
-1.163999,-0.002450229
-1.164999,-0.00245544
-1.165999,-0.002460651
-1.166999,-0.002466782
-1.167999,-0.002469235
-1.168999,-0.002478125
-1.169999,-0.002484255
-1.170999,-0.002485482
-1.171999,-0.002494371
-1.172999,-0.002500196
-1.173999,-0.002501422
-1.174999,-0.00250878
-1.175999,-0.002517056
-1.176999,-0.002521655
-1.177999,-0.002527785
-1.178999,-0.002532077
-1.179999,-0.002534836
-1.180999,-0.0025425
-1.181999,-0.002548018
-1.182999,-0.002551083
-1.183999,-0.002556601
-1.184999,-0.002564878
-1.185999,-0.00256917
-1.186999,-0.00257622
-1.187999,-0.002583884
-1.188999,-0.002588175
-1.189999,-0.002594306
-1.190999,-0.002603809
-1.191999,-0.002608408
-1.192999,-0.002617297
-1.193999,-0.002623122
-1.194999,-0.002631399
-1.195999,-0.002643354
-1.196999,-0.002647339
-1.197999,-0.002661441
-1.198999,-0.00267125
-1.199999,-0.002676155
-1.200999,-0.002686884
-1.201999,-0.00269608
-1.202999,-0.002702211
-1.203999,-0.002717539
-1.204999,-0.002725202
-1.205999,-0.002735625
-1.206999,-0.00274758
-1.207999,-0.00275647
-1.208999,-0.002766893
-1.209999,-0.002781301
-1.210999,-0.002791723
-1.211999,-0.002803679
-1.212999,-0.002817167
-1.213999,-0.002827896
-1.214999,-0.002839238
-1.215999,-0.002854566
-1.216999,-0.002866215
-1.217999,-0.00287817
-1.218999,-0.002893804
-1.219999,-0.00290484
-1.220999,-0.002918328
-1.221999,-0.002935495
-1.222999,-0.002948676
-1.223999,-0.00296339
-1.224999,-0.002978718
-1.225999,-0.00299098
-1.226999,-0.003010905
-1.227999,-0.002988729
-1.228999,-0.003000991
-1.229999,-0.003019383
-1.230999,-0.003034711
-1.231999,-0.003050038
-1.232999,-0.003071497
-1.233999,-0.003086824
-1.234999,-0.003102152
-1.235999,-0.00312361
-1.236999,-0.003135872
-1.237999,-0.003160396
-1.238999,-0.003178789
-1.239999,-0.003191051
-1.240999,-0.003212509
-1.241999,-0.003237033
-1.242999,-0.00325236
-1.243999,-0.003273819
-1.244999,-0.003298342
-1.245999,-0.00331367
-1.246999,-0.003335128
-1.247999,-0.003359652
-1.248999,-0.003378045
-1.249999,-0.003402569
-1.250999,-0.003424027
-1.251999,-0.00344242
-1.252999,-0.003470009
-1.253999,-0.003488402
-1.254999,-0.003515992
-1.255999,-0.00353745
-1.256999,-0.003561974
-1.257999,-0.003589563
-1.258999,-0.003614087
-1.259999,-0.003638611
-1.260999,-0.003663135
-1.261999,-0.003690724
-1.262999,-0.003715248
-1.263999,-0.003742838
-1.264999,-0.003773492
-1.265999,-0.003798016
-1.266999,-0.003828671
-1.267999,-0.003853195
-1.268999,-0.003880784
-1.269999,-0.003914505
-1.270999,-0.003942094
-1.271999,-0.003975814
-1.272999,-0.004009534
-1.273999,-0.004037124
-1.274999,-0.004070844
-1.275999,-0.004104564
-1.276999,-0.004132153
-1.277999,-0.004165874
-1.278999,-0.00420266
-1.279999,-0.004233315
-1.280999,-0.004270101
-1.281999,-0.004306886
-1.282999,-0.004337541
-1.283999,-0.004374327
-1.284999,-0.004414178
-1.285999,-0.004447898
-1.286999,-0.00448775
-1.287999,-0.004524535
-1.288999,-0.004561321
-1.289999,-0.004607304
-1.290999,-0.004647155
-1.291999,-0.004687006
-1.292999,-0.004732988
-1.293999,-0.00477284
-1.294999,-0.004812691
-1.295999,-0.004861739
-1.296999,-0.004904655
-1.297999,-0.004956769
-1.298999,-0.005002751
-1.299999,-0.005048733
-1.300999,-0.005100846
-1.301999,-0.005149893
-1.302999,-0.005198942
-1.303999,-0.005257186
-1.304999,-0.005309299
-1.305999,-0.005361412
-1.306999,-0.005419657
-1.307999,-0.005480966
-1.308999,-0.005533079
-1.309999,-0.005594389
-1.310999,-0.005658764
-1.311999,-0.005720073
-1.312999,-0.005784449
-1.313999,-0.005851889
-1.314999,-0.005916264
-1.315999,-0.005986771
-1.316999,-0.006060342
-1.317999,-0.006127783
-1.318999,-0.00620442
-1.319999,-0.006281057
-1.320999,-0.006357694
-1.321999,-0.006437397
-1.322999,-0.006520165
-1.323999,-0.006602933
-1.324999,-0.006685701
-1.325999,-0.006774599
-1.326999,-0.006863499
-1.327999,-0.006952398
-1.328999,-0.007047428
-1.329999,-0.007139392
-1.330999,-0.007240553
-1.331999,-0.007341714
-1.332999,-0.007442875
-1.333999,-0.007550166
-1.334999,-0.007654393
-1.335999,-0.007764751
-1.336999,-0.007875108
-1.337999,-0.007991596
-1.338999,-0.008105019
-1.339999,-0.008224573
-1.340999,-0.008350258
-1.341999,-0.008472877
-1.342999,-0.008601627
-1.343999,-0.008733443
-1.344999,-0.008865259
-1.345999,-0.00900014
-1.346999,-0.009141153
-1.347999,-0.009282164
-1.348999,-0.009423177
-1.349999,-0.009573385
-1.350999,-0.009729725
-1.351999,-0.009873803
-1.352999,-0.01003934
-1.353999,-0.01019261
-1.354999,-0.01035202
-1.355999,-0.01052369
-1.356999,-0.01068309
-1.357999,-0.01085782
-1.358999,-0.01103562
-1.359999,-0.01120729
-1.360999,-0.01139428
-1.361999,-0.01157515
-1.362999,-0.01175907
-1.363999,-0.01195527
-1.364999,-0.01214226
-1.365999,-0.01234152
-1.366999,-0.01254384
-1.367999,-0.01274003
-1.368999,-0.01294848
-1.369999,-0.01315387
-1.370999,-0.01335926
-1.371999,-0.01358304
-1.372999,-0.01379456
-1.373999,-0.01400914
-1.374999,-0.01423905
-1.375999,-0.01446283
-1.376999,-0.01468661
-1.377999,-0.01491959
-1.378999,-0.01514643
-1.379999,-0.01538248
-1.380999,-0.01562465
-1.381999,-0.01586682
-1.382999,-0.01611513
-1.383999,-0.01636956
-1.384999,-0.0166148
-1.385999,-0.0168631
-1.386999,-0.0171206
-1.387999,-0.01737197
-1.388999,-0.01763867
-1.389999,-0.01790537
-1.390999,-0.01816593
-1.391999,-0.01843876
-1.392999,-0.01871159
-1.393999,-0.01897829
-1.394999,-0.01926031
-1.395999,-0.01953927
-1.396999,-0.01981516
-1.397999,-0.02010025
-1.398999,-0.02038841
-1.399999,-0.02066737
-1.400999,-0.02096472
-1.401999,-0.02126207
-1.402999,-0.02154409
-1.403999,-0.02184451
-1.404999,-0.0221388
-1.405999,-0.02243615
-1.406999,-0.02274883
-1.407999,-0.02304618
-1.408999,-0.0233466
-1.409999,-0.02365928
-1.410999,-0.02396583
-1.411999,-0.02427544
-1.412999,-0.02458812
-1.413999,-0.0249008
-1.414999,-0.02522267
-1.415999,-0.02553842
-1.416999,-0.02585416
-1.417999,-0.0261791
-1.418999,-0.02650098
-1.419999,-0.02682286
-1.420999,-0.02715086
-1.421999,-0.02748806
-1.422999,-0.02780687
-1.423999,-0.02813795
-1.424999,-0.02847515
-1.425999,-0.02879396
-1.426999,-0.02914343
-1.427999,-0.02947756
-1.428999,-0.0298117
-1.429999,-0.03016729
-1.430999,-0.030623
-1.431999,-0.03092955
-1.432999,-0.03129741
-1.433999,-0.03163461
-1.434999,-0.03200247
-1.435999,-0.03233967
-1.436999,-0.03270753
-1.437999,-0.03307539
-1.438999,-0.03341259
-1.439999,-0.03378045
-1.440999,-0.03414831
-1.441999,-0.03451617
-1.442999,-0.03485337
-1.443999,-0.03522123
-1.444999,-0.03558908
-1.445999,-0.03595695
-1.446999,-0.0363248
-1.447999,-0.03669266
-1.448999,-0.03706052
-1.449999,-0.03742838
-1.450999,-0.03779623
-1.451999,-0.03816409
-1.452999,-0.03853195
-1.453999,-0.03889981
-1.454999,-0.03926767
-1.455999,-0.03966618
-1.456999,-0.04003404
-1.457999,-0.04040189
-1.458999,-0.0408004
-1.459999,-0.04116827
-1.460999,-0.04153612
-1.461999,-0.04193464
-1.462999,-0.04230249
-1.463999,-0.04270101
-1.464999,-0.04309952
-1.465999,-0.04346738
-1.466999,-0.04386589
-1.467999,-0.04423375
-1.468999,-0.0446016
-1.469999,-0.04500012
-1.470999,-0.04539863
-1.471999,-0.04576649
-1.472999,-0.046165
-1.473999,-0.04656351
-1.474999,-0.04696203
-1.475999,-0.04736054
-1.476999,-0.04775905
-1.477999,-0.04815757
-1.478999,-0.04855608
-1.479999,-0.04895459
-1.480999,-0.0493531
-1.481999,-0.04975162
-1.482999,-0.05011947
-1.483999,-0.05054864
-1.484999,-0.05094716
-1.485999,-0.05134567
-1.486999,-0.05174418
-1.487999,-0.05214269
-1.488999,-0.0525412
-1.489999,-0.05293972
-1.490999,-0.05336889
-1.491999,-0.05376739
-1.492999,-0.05416591
-1.493999,-0.05459508
-1.494999,-0.05496293
-1.495999,-0.05539211
-1.496999,-0.05582127
-1.497999,-0.05618913
-1.498999,-0.0566183
-1.499999,-0.05677157
-1.499001,-0.05640372
-1.498001,-0.05606651
-1.497001,-0.055668
-1.496001,-0.05533079
-1.495001,-0.05496293
-1.494001,-0.05456442
-1.493001,-0.05419657
-1.492001,-0.05382871
-1.491001,-0.05346085
-1.490001,-0.05306234
-1.489001,-0.05269448
-1.488001,-0.05229596
-1.487001,-0.05189746
-1.486001,-0.05152959
-1.485001,-0.05113108
-1.484001,-0.05073257
-1.483001,-0.05039537
-1.482001,-0.04999685
-1.481001,-0.04959834
-1.480001,-0.04923048
-1.479001,-0.04883197
-1.478001,-0.04846412
-1.477001,-0.0480656
-1.476001,-0.04766709
-1.475001,-0.04732988
-1.474001,-0.04693137
-1.473001,-0.04656351
-1.472001,-0.046165
-1.471001,-0.04576649
-1.470001,-0.04539863
-1.469001,-0.04503077
-1.468001,-0.04466292
-1.467001,-0.0442644
-1.466001,-0.0439272
-1.465001,-0.04352869
-1.464001,-0.04316083
-1.463001,-0.04276232
-1.462001,-0.04239446
-1.461001,-0.0420266
-1.460001,-0.04165874
-1.459001,-0.04129088
-1.458001,-0.04092303
-1.457001,-0.04055517
-1.456001,-0.04018731
-1.455001,-0.03981945
-1.454001,-0.0394516
-1.453001,-0.03908373
-1.452001,-0.03871588
-1.451001,-0.03834802
-1.450001,-0.03798017
-1.449001,-0.0376123
-1.448001,-0.0372751
-1.447001,-0.03690724
-1.446001,-0.03653939
-1.445001,-0.03617153
-1.444001,-0.03583432
-1.443001,-0.03546647
-1.442001,-0.03512926
-1.441001,-0.03476141
-1.440001,-0.0344242
-1.439001,-0.03405635
-1.438001,-0.03371914
-1.437001,-0.03338194
-1.436001,-0.03301408
-1.435001,-0.03267688
-1.434001,-0.03233967
-1.433001,-0.03197182
-1.432001,-0.03163461
-1.431001,-0.03129741
-1.430001,-0.03096021
-1.429001,-0.030623
-1.428001,-0.0302858
-1.427001,-0.0299486
-1.426001,-0.02961139
-1.425001,-0.02930485
-1.424001,-0.02896764
-1.423001,-0.02863044
-1.422001,-0.02832389
-1.421001,-0.02798669
-1.420001,-0.02768014
-1.419001,-0.02734294
-1.418001,-0.02703639
-1.417001,-0.02672984
-1.416001,-0.02639264
-1.415001,-0.02608609
-1.414001,-0.02574889
-1.413001,-0.02544234
-1.412001,-0.02513579
-1.411001,-0.0248599
-1.410001,-0.02455335
-1.409001,-0.0242468
-1.408001,-0.02394025
-1.407001,-0.0236337
-1.406001,-0.02332716
-1.405001,-0.02305126
-1.404001,-0.02274471
-1.403001,-0.02246882
-1.402001,-0.02216227
-1.401001,-0.02188638
-1.400001,-0.02157983
-1.399001,-0.02130394
-1.398001,-0.02102804
-1.397001,-0.02075215
-1.396001,-0.02047626
-1.395001,-0.02020036
-1.394001,-0.01992447
-1.393001,-0.01964858
-1.392001,-0.01937268
-1.391001,-0.01912744
-1.390001,-0.01885155
-1.389001,-0.01860631
-1.388001,-0.01836107
-1.387001,-0.01808518
-1.386001,-0.01783994
-1.385001,-0.0175947
-1.384001,-0.01731881
-1.383001,-0.01710423
-1.382001,-0.01685899
-1.381001,-0.01658309
-1.380001,-0.01636851
-1.379001,-0.01612327
-1.378001,-0.01599251
-1.377001,-0.0157626
-1.376001,-0.01553881
-1.375001,-0.0153089
-1.374001,-0.01509432
-1.373001,-0.01487667
-1.372001,-0.01465596
-1.371001,-0.0144475
-1.370001,-0.01423905
-1.369001,-0.0140214
-1.368001,-0.01382521
-1.367001,-0.01362289
-1.366001,-0.01342057
-1.365001,-0.01322744
-1.364001,-0.01302818
-1.363001,-0.01283506
-1.362001,-0.01264806
-1.361001,-0.01246107
-1.360001,-0.01228021
-1.359001,-0.01209934
-1.358001,-0.01192154
-1.357001,-0.01174681
-1.356001,-0.01157515
-1.355001,-0.01140348
-1.354001,-0.01123181
-1.353001,-0.01106934
-1.352001,-0.01090687
-1.351001,-0.0107444
-1.350001,-0.01058806
-1.349001,-0.01042865
-1.348001,-0.01027845
-1.347001,-0.0101313
-1.346001,-0.009978029
-1.345001,-0.009833951
-1.344001,-0.009692939
-1.343001,-0.009551927
-1.342001,-0.00941398
-1.341001,-0.009279099
-1.340001,-0.009147284
-1.339001,-0.009021599
-1.338001,-0.008889783
-1.337001,-0.008761032
-1.336001,-0.008644544
-1.335001,-0.008518859
-1.334001,-0.008399305
-1.333001,-0.008285882
-1.332001,-0.008163263
-1.331001,-0.008055971
-1.330001,-0.007945614
-1.329001,-0.007832191
-1.328001,-0.007727965
-1.327001,-0.007623739
-1.326001,-0.007519512
-1.325001,-0.007424482
-1.324001,-0.007326386
-1.323001,-0.007228291
-1.322001,-0.007133261
-1.321001,-0.007044362
-1.320001,-0.006949332
-1.319001,-0.006863499
-1.318001,-0.006780731
-1.317001,-0.006685701
-1.316001,-0.006609064
-1.315001,-0.006529361
-1.314001,-0.006443528
-1.313001,-0.006369956
-1.312001,-0.006290253
-1.311001,-0.006210551
-1.310001,-0.006140045
-1.309001,-0.006066473
-1.308001,-0.005992902
-1.307001,-0.005928526
-1.306001,-0.005858021
-1.305001,-0.00579058
-1.304001,-0.005726204
-1.303001,-0.005658764
-1.302001,-0.005597454
-1.301001,-0.005536145
-1.300001,-0.005468704
-1.299001,-0.005416591
-1.298001,-0.005355281
-1.297001,-0.005297037
-1.296001,-0.005244924
-1.295001,-0.005183614
-1.294001,-0.005131501
-1.293001,-0.005082454
-1.292001,-0.005024209
-1.291001,-0.004975162
-1.290001,-0.004929179
-1.289001,-0.004874
-1.288001,-0.004828018
-1.287001,-0.004782036
-1.286001,-0.004732988
-1.285001,-0.004690072
-1.284001,-0.004644089
-1.283001,-0.004598107
-1.282001,-0.00455519
-1.281001,-0.004515339
-1.280001,-0.004469357
-1.279001,-0.004429505
-1.278001,-0.00439272
-1.277001,-0.004352869
-1.276001,-0.004309952
-1.275001,-0.004276231
-1.274001,-0.004233315
-1.273001,-0.004196529
-1.272001,-0.004165874
-1.271001,-0.004126023
-1.270001,-0.004092303
-1.269001,-0.004061648
-1.268001,-0.004021796
-1.267001,-0.003988076
-1.266001,-0.003957421
-1.265001,-0.003920636
-1.264001,-0.00388998
-1.263001,-0.003859326
-1.262001,-0.003825605
-1.261001,-0.003801082
-1.260001,-0.003767361
-1.259001,-0.003736707
-1.258001,-0.003712183
-1.257001,-0.003681528
-1.256001,-0.003650873
-1.255001,-0.003629415
-1.254001,-0.003595694
-1.253001,-0.00357117
-1.252001,-0.003546647
-1.251001,-0.003519057
-1.250001,-0.003488402
-1.249001,-0.003466944
-1.248001,-0.003439354
-1.247001,-0.003411765
-1.246001,-0.003396438
-1.245001,-0.003365783
-1.244001,-0.003341259
-1.243001,-0.003322866
-1.242001,-0.003292212
-1.241001,-0.003270753
-1.240001,-0.00325236
-1.239001,-0.003224771
-1.238001,-0.003206378
-1.237001,-0.003181854
-1.236001,-0.003160396
-1.235001,-0.003142003
-1.234001,-0.003117479
-1.233001,-0.003099086
-1.232001,-0.003083759
-1.231001,-0.003056169
-1.230001,-0.003037777
-1.229001,-0.003019383
-1.228001,-0.002997925
-1.227001,-0.002982598
-1.226001,-0.00296727
-1.225001,-0.002939681
-1.224001,-0.002930485
-1.223001,-0.002909026
-1.222001,-0.002887568
-1.221001,-0.002875306
-1.220001,-0.002853847
-1.219001,-0.002835455
-1.218001,-0.002823193
-1.217001,-0.002801734
-1.216001,-0.002783341
-1.215001,-0.00277108
-1.214001,-0.002752687
-1.213001,-0.002734293
-1.212001,-0.002722032
-1.211001,-0.002703639
-1.210001,-0.002688312
-1.209001,-0.002672984
-1.208001,-0.002654591
-1.207001,-0.002642329
-1.206001,-0.002630068
-1.205001,-0.002611674
-1.204001,-0.002596347
-1.203001,-0.002584085
-1.202001,-0.002565692
-1.201001,-0.00255343
-1.200001,-0.002541168
-1.199001,-0.002522775
-1.198001,-0.002510513
-1.197001,-0.002501317
-1.196001,-0.002482924
-1.195001,-0.002470662
-1.194001,-0.0024584
-1.193001,-0.002443073
-1.192001,-0.002430811
-1.191001,-0.002421614
-1.190001,-0.002406287
-1.189001,-0.002394025
-1.188001,-0.002381763
-1.187001,-0.002369501
-1.186001,-0.002354174
-1.185001,-0.002348043
-1.184001,-0.00232965
-1.183001,-0.002320454
-1.182001,-0.002308191
-1.181001,-0.002292864
-1.180001,-0.002283668
-1.179001,-0.002271406
-1.178001,-0.002259144
-1.177001,-0.002253013
-1.176001,-0.002237685
-1.175001,-0.002225423
-1.174001,-0.002219293
-1.173001,-0.002207031
-1.172001,-0.002191703
-1.171001,-0.002182507
-1.170001,-0.00217331
-1.169001,-0.002161048
-1.168001,-0.002151852
-1.167001,-0.002142655
-1.166001,-0.002130394
-1.165001,-0.002124263
-1.164001,-0.002112001
-1.163001,-0.002099739
-1.162001,-0.002093608
-1.161001,-0.002081346
-1.160001,-0.002072149
-1.159001,-0.002062953
-1.158001,-0.002053756
-1.157001,-0.002041495
-1.156001,-0.002032298
-1.155001,-0.002020036
-1.154001,-0.002013905
-1.153001,-0.002004709
-1.152001,-0.001995512
-1.151001,-0.001986316
-1.150001,-0.00198325
-1.149001,-0.001967923
-1.148001,-0.001961792
-1.147001,-0.001952596
-1.146001,-0.001940334
-1.145001,-0.001934203
-1.144001,-0.001928072
-1.143001,-0.001912744
-1.142001,-0.001909679
-1.141001,-0.001903548
-1.140001,-0.00188822
-1.139001,-0.00188209
-1.138001,-0.001875959
-1.137001,-0.001863697
-1.136001,-0.001857566
-1.135001,-0.001851435
-1.134001,-0.001842238
-1.133001,-0.001836107
-1.132001,-0.001826911
-1.131001,-0.001817714
-1.130001,-0.001811583
-1.129001,-0.001802387
-1.128001,-0.001796256
-1.127001,-0.00178706
-1.126001,-0.001777863
-1.125001,-0.001771732
-1.124001,-0.001765601
-1.123001,-0.001756405
-1.122001,-0.001750274
-1.121001,-0.001741077
-1.120001,-0.001734946
-1.119001,-0.001728815
-1.118001,-0.001722684
-1.117001,-0.001713488
-1.116001,-0.001707357
-1.115001,-0.001701226
-1.114001,-0.001688964
-1.113001,-0.001682833
-1.112001,-0.001676702
-1.111001,-0.001667506
-1.110001,-0.00166444
-1.109001,-0.001658309
-1.108001,-0.001646047
-1.107001,-0.001642982
-1.106001,-0.001636851
-1.105001,-0.001624589
-1.104001,-0.001621523
-1.103001,-0.001615393
-1.102001,-0.001606196
-1.101001,-0.001636956
-1.100001,-0.001631132
-1.099001,-0.001620709
-1.098001,-0.001618563
-1.097001,-0.00160906
-1.096001,-0.001601396
-1.095001,-0.001598025
-1.094001,-0.001590974
-1.093001,-0.001583004
-1.092001,-0.001579632
-1.091001,-0.001571661
-1.090001,-0.001564304
-1.089001,-0.001560932
-1.088001,-0.001554495
-1.087001,-0.001544992
-1.086001,-0.001542846
-1.085001,-0.001535795
-1.084001,-0.001527825
-1.083001,-0.001527212
-1.082001,-0.001518015
-1.081001,-0.001511885
-1.080001,-0.001509739
-1.079001,-0.001502382
-1.078001,-0.001496557
-1.077001,-0.001494718
-1.076001,-0.001486441
-1.075001,-0.001481536
-1.074001,-0.001480923
-1.073001,-0.001471727
-1.072001,-0.001466209
-1.071001,-0.001464369
-1.070001,-0.001454253
-1.069001,-0.001453947
-1.068001,-0.001449655
-1.067001,-0.001442298
-1.066001,-0.001439846
-1.065001,-0.001435554
-1.064001,-0.00142881
-1.063001,-0.001426357
-1.062001,-0.00142084
-1.061001,-0.001416241
-1.060001,-0.001411643
-1.059001,-0.001406125
-1.058001,-0.001401834
-1.057001,-0.001397542
-1.056001,-0.001391717
-1.055001,-0.001388959
-1.054001,-0.001383441
-1.053001,-0.001377003
-1.052001,-0.001374857
-1.051001,-0.001370259
-1.050001,-0.001362289
-1.049001,-0.001360756
-1.048001,-0.001356464
-1.047001,-0.001348494
-1.046001,-0.001346348
-1.045001,-0.001344509
-1.044001,-0.001338991
-1.043001,-0.001333473
-1.042001,-0.001327956
-1.041001,-0.001321825
-1.040001,-0.001317533
-1.039001,-0.001314161
-1.038001,-0.001308336
-1.037001,-0.001304351
-1.036001,-0.001299447
-1.035001,-0.001293009
-1.034001,-0.00129025
-1.033001,-0.001285345
-1.032001,-0.00128044
-1.031001,-0.001275229
-1.030001,-0.001269711
-1.029001,-0.00126542
-1.028001,-0.001259595
-1.027001,-0.001254384
-1.026001,-0.001251012
-1.025001,-0.00124672
-1.024001,-0.001239363
-1.023001,-0.001235684
-1.022001,-0.001231699
-1.021001,-0.001224649
-1.020001,-0.001222503
-1.019001,-0.001218211
-1.018001,-0.001210548
-1.017001,-0.001208402
-1.016001,-0.001202271
-1.015001,-0.001196446
-1.014001,-0.001193994
-1.013001,-0.001188783
-1.012001,-0.001181425
-1.011001,-0.001178666
-1.010001,-0.001173455
-1.009001,-0.001165485
-1.008001,-0.001163339
-1.007001,-0.001158128
-1.006001,-0.001152916
-1.005001,-0.001149544
-1.004001,-0.001143107
-1.003001,-0.001139428
-1.002001,-0.001135137
-1.001001,-0.001128086
-1.000001,-0.001124408
-0.9990011,-0.001119809
-0.9980011,-0.001113678
-0.9970011,-0.001109387
-0.9960011,-0.001104482
-0.9950011,-0.001098657
-0.9940011,-0.001093753
-0.9930011,-0.001089461
-0.9920011,-0.001083637
-0.9910011,-0.001078732
-0.9900011,-0.001075053
-0.9890011,-0.001069229
-0.9880011,-0.001063711
-0.9870011,-0.001060032
-0.9860011,-0.001053595
-0.9850011,-0.00104961
-0.9840011,-0.001045011
-0.9830011,-0.001038881
-0.9820011,-0.001033669
-0.9810011,-0.001029377
-0.9800011,-0.001023553
-0.9790011,-0.001017422
-0.9780011,-0.001016502
-0.9770011,-0.001007919
-0.9760011,-0.001003321
-0.9750011,-0.001000255
-0.9740011,-0.0009910589
-0.9730011,-0.0009886065
-0.9720011,-0.0009846214
-0.9710011,-0.0009778773
-0.9700011,-0.0009745053
-0.9690011,-0.0009686808
-0.9680011,-0.0009619368
-0.9670011,-0.0009588713
-0.9660011,-0.0009527404
-0.9650011,-0.0009469159
-0.9640011,-0.0009432373
-0.9630011,-0.0009377195
-0.9620011,-0.0009315885
-0.9610011,-0.0009276034
-0.9600011,-0.0009220855
-0.9590011,-0.000915648
-0.9580011,-0.0009116629
-0.9570011,-0.0009058384
-0.9560011,-0.0008997075
-0.9550011,-0.0008969486
-0.9540011,-0.0008911242
-0.9530011,-0.0008843801
-0.9520011,-0.000880395
-0.9510011,-0.0008748771
-0.9500011,-0.0008684396
-0.9490011,-0.0008653741
-0.9480011,-0.0008586301
-0.9470011,-0.000852499
-0.9460011,-0.0008509663
-0.9450011,-0.0008433026
-0.9440011,-0.0008380913
-0.9430011,-0.0008350258
-0.9420011,-0.0008279752
-0.9410011,-0.0008230705
-0.9400011,-0.0008178591
-0.9390011,-0.0008117282
-0.9380011,-0.0008086627
-0.9370011,-0.0008022251
-0.9360011,-0.0007967073
-0.9350011,-0.0007927222
-0.9340011,-0.0007859781
-0.9330011,-0.000781993
-0.9320011,-0.0007786209
-0.9310011,-0.0007706507
-0.9300011,-0.0007669721
-0.9290011,-0.0007620673
-0.9280011,-0.0007547102
-0.9270011,-0.0007513381
-0.9260011,-0.0007476595
-0.9250011,-0.0007393828
-0.9240011,-0.0007363172
-0.9230011,-0.0007307994
-0.9220011,-0.0007243619
-0.9210011,-0.0007219095
-0.9200011,-0.0007160851
-0.9190011,-0.0007108737
-0.9180011,-0.0007075017
-0.9170011,-0.0007022904
-0.9160011,-0.000696466
-0.9150011,-0.0006940136
-0.9140011,-0.0006872696
-0.9130011,-0.0006823648
-0.9120011,-0.0006792994
-0.9110011,-0.0006743945
-0.9100011,-0.0006685701
-0.9090011,-0.0006664242
-0.9080011,-0.0006590671
-0.9070011,-0.0006553886
-0.9060011,-0.0006526296
-0.9050011,-0.0006449659
-0.9040011,-0.0006415938
-0.9030011,-0.0006385284
-0.9020011,-0.0006317843
-0.9010011,-0.0006287188
-0.9000011,-0.0006244272
-0.8990011,-0.0006182962
-0.8980011,-0.0006152307
-0.8970011,-0.0006121653
-0.8960011,-0.0006054211
-0.8950011,-0.0006020491
-0.8940011,-0.0005986771
-0.8930011,-0.0005910134
-0.8920011,-0.0005894807
-0.8910011,-0.000585189
-0.8900011,-0.0005793645
-0.8890011,-0.0005762991
-0.8880011,-0.0005717009
-0.8870011,-0.0005655699
-0.8860011,-0.0005631176
-0.8850011,-0.0005591324
-0.8840011,-0.000553308
-0.8830011,-0.0005502424
-0.8820011,-0.0005456443
-0.8810011,-0.0005392068
-0.8800011,-0.0005385936
-0.8790011,-0.0005330758
-0.8780011,-0.0005278645
-0.8770011,-0.000525412
-0.8760011,-0.0005183615
-0.8750011,-0.0005146828
-0.8740011,-0.000512537
-0.8730011,-0.0005060995
-0.8720011,-0.0005024209
-0.8710011,-0.0004984358
-0.8700011,-0.0004932245
-0.8690011,-0.000490159
-0.8680011,-0.0004858673
-0.8670011,-0.000480656
-0.8660011,-0.0004766709
-0.8650011,-0.0004732989
-0.8640011,-0.000467781
-0.8630011,-0.0004647155
-0.8620011,-0.0004604238
-0.8610011,-0.0004545994
-0.8600011,-0.0004524536
-0.8590011,-0.0004460161
-0.8580011,-0.0004420309
-0.8570011,-0.0004389654
-0.8560011,-0.000433141
-0.8550011,-0.000429769
-0.8540011,-0.0004251708
-0.8530011,-0.0004199595
-0.8520011,-0.0004156678
-0.8510011,-0.0004116826
-0.8500011,-0.0004076975
-0.8490011,-0.0004006469
-0.8480011,-0.0003975815
-0.8470011,-0.0003923701
-0.8460011,-0.0003874653
-0.8450011,-0.0003847064
-0.8440011,-0.0003782689
-0.8430011,-0.0003736707
-0.8420011,-0.0003702986
-0.8410011,-0.0003641677
-0.8400011,-0.0003592629
-0.8390011,-0.0003558909
-0.8380011,-0.0003491468
-0.8370011,-0.0003463879
-0.8360011,-0.0003414831
-0.8350011,-0.0003350456
-0.8340011,-0.0003316735
-0.8330011,-0.0003264622
-0.8320011,-0.0003212509
-0.8310011,-0.0003166527
-0.8300011,-0.0003111348
-0.8290011,-0.0003065366
-0.8280011,-0.0003010187
-0.8270011,-0.0002970336
-0.8260011,-0.0002902895
-0.8250011,-0.0002878372
-0.8240011,-0.0002817062
-0.8230011,-0.0002761883
-0.8220011,-0.0002722032
-0.8210011,-0.0002669919
-0.8200011,-0.0002611674
-0.8190011,-0.0002556496
-0.8180011,-0.0002522776
-0.8170011,-0.00024584
-0.8160011,-0.0002406287
-0.8150011,-0.000236337
-0.8140011,-0.0002311257
-0.8130011,-0.0002253013
-0.8120011,-0.0002207031
-0.8110011,-0.0002157983
-0.8100011,-0.0002112001
-0.8090011,-0.0002056822
-0.8080011,-0.0002001643
-0.8070011,-0.0001946465
-0.8060011,-0.0001888221
-0.8050011,-0.0001851435
-0.8040011,-0.0001790125
-0.8030011,-0.0001734946
-0.8020011,-0.000169203
-0.8010011,-0.000163072
