EXPID. 0905
[电化学]: CV : 0 >> 0.7 >> 0 >> 0(V) @ 0.01(V/s) X 10(Seg)
起始电位 (V),0
上限电位 (V),0.7
下限电位 (V),0
终止电位 (V),0
扫速 (V/s),0.01
电解液 信息:
KOH,1
0.001,5.514919E-06
0.002,6.039118E-06
0.003,6.345665E-06
0.004,6.731917E-06
0.005,6.986351E-06
0.006,7.173346E-06
0.007,7.535073E-06
0.008,7.743525E-06
0.009,7.994895E-06
0.01,8.252396E-06
0.011,8.378081E-06
0.012,8.666236E-06
0.013,8.902278E-06
0.014,9.11073E-06
0.015,9.334511E-06
0.016,9.527636E-06
0.017,9.791268E-06
0.018,9.975197E-06
0.019,1.016219E-05
0.02,1.041356E-05
0.021,1.064347E-05
0.022,1.079981E-05
0.023,1.103892E-05
0.024,1.125044E-05
0.025,1.144969E-05
0.026,1.166428E-05
0.027,1.182062E-05
0.028,1.215169E-05
0.029,1.228964E-05
0.03,1.241532E-05
0.031,1.266056E-05
0.032,1.288127E-05
0.033,1.30836E-05
0.034,1.33319E-05
0.035,1.348824E-05
0.036,1.371508E-05
0.037,1.389901E-05
0.038,1.413506E-05
0.039,1.431899E-05
0.04,1.446919E-05
0.041,1.460101E-05
0.042,1.478187E-05
0.043,1.493515E-05
0.044,1.514053E-05
0.045,1.528461E-05
0.046,1.537351E-05
0.047,1.555437E-05
0.048,1.569539E-05
0.049,1.581187E-05
0.05,1.607857E-05
0.051,1.624717E-05
0.052,1.65108E-05
0.053,1.669167E-05
0.054,1.680509E-05
0.055,1.699822E-05
0.056,1.716069E-05
0.057,1.724959E-05
0.058,1.741512E-05
0.059,1.751322E-05
0.06,1.769715E-05
0.061,1.78259E-05
0.062,1.803128E-05
0.063,1.827346E-05
0.064,1.847578E-05
0.065,1.866277E-05
0.066,1.8767E-05
0.067,1.894173E-05
0.068,1.910727E-05
0.069,1.926361E-05
0.07,1.938623E-05
0.071,1.954563E-05
0.072,1.966212E-05
0.073,1.98062E-05
0.074,1.995641E-05
0.075,2.012501E-05
0.076,2.032733E-05
0.077,2.053272E-05
0.078,2.070438E-05
0.079,2.094043E-05
0.08,2.109064E-05
0.081,2.130216E-05
0.082,2.154739E-05
0.083,2.170373E-05
0.084,2.187847E-05
0.085,2.202561E-05
0.086,2.218195E-05
0.087,2.243332E-05
0.088,2.257433E-05
0.089,2.275519E-05
0.09,2.291153E-05
0.091,2.305868E-05
0.092,2.327326E-05
0.093,2.338668E-05
0.094,2.403455E-05
0.095,2.424914E-05
0.096,2.449437E-05
0.097,2.480092E-05
0.098,2.498485E-05
0.099,2.510747E-05
0.1,2.538336E-05
0.101,2.553664E-05
0.102,2.578188E-05
0.103,2.599646E-05
0.104,2.618039E-05
0.105,2.639497E-05
0.106,2.673218E-05
0.107,2.697741E-05
0.108,2.728396E-05
0.109,2.75292E-05
0.11,2.78051E-05
0.111,2.808099E-05
0.112,2.826491E-05
0.113,2.854081E-05
0.114,2.884736E-05
0.115,2.912325E-05
0.116,2.939914E-05
0.117,2.967504E-05
0.118,2.995093E-05
0.119,3.031879E-05
0.12,3.059468E-05
0.121,3.083992E-05
0.122,3.120778E-05
0.123,3.145302E-05
0.124,3.185153E-05
0.125,3.215808E-05
0.126,3.252594E-05
0.127,3.289379E-05
0.128,3.320034E-05
0.129,3.362951E-05
0.13,3.402802E-05
0.131,3.436523E-05
0.132,3.48557E-05
0.133,3.528487E-05
0.134,3.574469E-05
0.135,3.626582E-05
0.136,3.669499E-05
0.137,3.715482E-05
0.138,3.76453E-05
0.139,3.80438E-05
0.14,3.856494E-05
0.141,3.908607E-05
0.142,3.96072E-05
0.143,4.018964E-05
0.144,4.068012E-05
0.145,4.11706E-05
0.146,4.17837E-05
0.147,4.236614E-05
0.148,4.297923E-05
0.149,4.359233E-05
0.15,4.420543E-05
0.151,4.487983E-05
0.152,4.558489E-05
0.153,4.622864E-05
0.154,4.693371E-05
0.155,4.757746E-05
0.156,4.843579E-05
0.157,4.904889E-05
0.158,4.975395E-05
0.159,5.064294E-05
0.16,5.140931E-05
0.161,5.220633E-05
0.162,5.312598E-05
0.163,5.38617E-05
0.164,5.481199E-05
0.165,5.57623E-05
0.166,5.668194E-05
0.167,5.769355E-05
0.168,5.86745E-05
0.169,5.968611E-05
0.17,6.072838E-05
0.171,6.170933E-05
0.172,6.290487E-05
0.173,6.400844E-05
0.174,6.514267E-05
0.175,6.639952E-05
0.176,6.75644E-05
0.177,6.885191E-05
0.178,7.010875E-05
0.179,7.13656E-05
0.18,7.277572E-05
0.181,7.415519E-05
0.182,7.553466E-05
0.183,7.712871E-05
0.184,7.856948E-05
0.185,8.001026E-05
0.186,8.169628E-05
0.187,8.322902E-05
0.188,8.494569E-05
0.189,8.657039E-05
0.19,8.831772E-05
0.191,9.018766E-05
0.192,9.19963E-05
0.193,9.383559E-05
0.194,9.576684E-05
0.195,9.76981E-05
0.196,9.981328E-05
0.197,0.0001017752
0.198,0.0001039823
0.199,0.0001061895
0.2,0.000108274
0.201,0.0001105731
0.202,0.0001129642
0.203,0.0001152327
0.204,0.0001177157
0.205,0.000120352
0.206,0.0001227431
0.207,0.000125502
0.208,0.000128169
0.209,0.000130836
0.21,0.0001336868
0.211,0.0001365378
0.212,0.0001395419
0.213,0.0001425154
0.214,0.0001455503
0.215,0.0001487384
0.216,0.0001518958
0.217,0.0001552066
0.218,0.0001585786
0.219,0.0001619813
0.22,0.0001655985
0.221,0.0001690319
0.222,0.0001726185
0.223,0.0001764197
0.224,0.0001801596
0.225,0.0001840221
0.226,0.0001879765
0.227,0.0001918084
0.228,0.0001960388
0.229,0.0002000852
0.23,0.000204101
0.231,0.0002084846
0.232,0.0002127763
0.233,0.000217068
0.234,0.0002215436
0.235,0.0002259272
0.236,0.0002306481
0.237,0.0002351237
0.238,0.0002397832
0.239,0.0002446267
0.24,0.0002493475
0.241,0.0002542216
0.242,0.0002591571
0.243,0.0002640925
0.244,0.0002693958
0.245,0.0002742699
0.246,0.0002793893
0.247,0.0002847232
0.248,0.0002897506
0.249,0.0002950232
0.25,0.0003044141
0.251,0.0003093189
0.252,0.0003148368
0.253,0.0003203546
0.254,0.000325566
0.255,0.0003313904
0.256,0.0003372148
0.257,0.0003430392
0.258,0.0003488636
0.259,0.0003549946
0.26,0.0003614321
0.261,0.0003672565
0.262,0.000373694
0.263,0.0003804381
0.264,0.000386569
0.265,0.0003933131
0.266,0.0004003637
0.267,0.0004071078
0.268,0.0004147715
0.269,0.0004221287
0.27,0.0004294858
0.271,0.0004374561
0.272,0.0004454263
0.273,0.0004533966
0.274,0.0004619799
0.275,0.0004708698
0.276,0.0004800663
0.277,0.0004892627
0.278,0.0004987657
0.279,0.0005091884
0.28,0.0005193045
0.281,0.0005300336
0.282,0.0005416825
0.283,0.0005527182
0.284,0.0005655932
0.285,0.0005778552
0.286,0.0005907302
0.287,0.000605138
0.288,0.0006192392
0.289,0.00063426
0.29,0.0006508137
0.291,0.0006667541
0.292,0.000684534
0.293,0.0007026203
0.294,0.0007216263
0.295,0.0007421651
0.296,0.0007630104
0.297,0.0007850818
0.298,0.0008089925
0.299,0.0008329034
0.3,0.0008595731
0.301,0.0008871623
0.302,0.0009162845
0.303,0.0009469393
0.304,0.0009791269
0.305,0.001013767
0.306,0.001050553
0.307,0.001090097
0.308,0.001131481
0.309,0.001174091
0.31,0.001220074
0.311,0.001270041
0.312,0.001320928
0.313,0.00137672
0.314,0.001435577
0.315,0.001496887
0.316,0.001564021
0.317,0.001633301
0.318,0.001707179
0.319,0.001786881
0.32,0.001870569
0.321,0.001959162
0.322,0.002053579
0.323,0.002152287
0.324,0.00225866
0.325,0.00236871
0.326,0.002486731
0.327,0.002611496
0.328,0.002740553
0.329,0.002879113
0.33,0.003023497
0.331,0.003206612
0.332,0.003362951
0.333,0.003525421
0.334,0.003700154
0.335,0.003881018
0.336,0.004068012
0.337,0.004264203
0.338,0.004466525
0.339,0.004674978
0.34,0.004892627
0.341,0.005113342
0.342,0.005343253
0.343,0.005582361
0.344,0.005821468
0.345,0.006072837
0.346,0.006327272
0.347,0.006587839
0.348,0.006854536
0.349,0.007124298
0.35,0.007400192
0.351,0.007682216
0.352,0.007967305
0.353,0.008258527
0.354,0.008552813
0.355,0.008850165
0.356,0.009153648
0.357,0.00945713
0.358,0.009766744
0.359,0.01007942
0.36,0.01039517
0.361,0.01071398
0.362,0.01103585
0.363,0.01135773
0.364,0.01168574
0.365,0.01201068
0.366,0.01234481
0.367,0.01267895
0.368,0.01300696
0.369,0.01335029
0.37,0.0136875
0.371,0.0140247
0.372,0.01436803
0.373,0.01470524
0.374,0.01504857
0.375,0.01539497
0.376,0.01573524
0.377,0.01607857
0.378,0.01642804
0.379,0.01676831
0.38,0.01711471
0.381,0.01745804
0.382,0.01780137
0.383,0.01814471
0.384,0.01848498
0.385,0.01882831
0.386,0.01916551
0.387,0.01950885
0.388,0.01984605
0.389,0.02018019
0.39,0.02052046
0.391,0.02085153
0.392,0.02117647
0.393,0.02151061
0.394,0.02183248
0.395,0.02215129
0.396,0.02247624
0.397,0.02279198
0.398,0.02310159
0.399,0.02341427
0.4,0.02371469
0.401,0.02401511
0.402,0.02431553
0.403,0.02460674
0.404,0.0248949
0.405,0.02517386
0.406,0.02544975
0.407,0.02572565
0.408,0.02598928
0.409,0.02625597
0.41,0.02652267
0.411,0.02677098
0.412,0.02701315
0.413,0.02724613
0.414,0.0274791
0.415,0.02770288
0.416,0.02792053
0.417,0.02813818
0.418,0.02833744
0.419,0.02853056
0.42,0.02872675
0.421,0.02890149
0.422,0.02908235
0.423,0.02925402
0.424,0.02940729
0.425,0.02956363
0.426,0.02970464
0.427,0.02983646
0.428,0.02996827
0.429,0.03087058
0.43,0.03096254
0.431,0.03105451
0.432,0.03114647
0.433,0.03120778
0.434,0.03129975
0.435,0.03136105
0.436,0.03142237
0.437,0.03145302
0.438,0.03148368
0.439,0.03148368
0.44,0.03148368
0.441,0.03148368
0.442,0.03145302
0.443,0.03142237
0.444,0.03136105
0.445,0.03126909
0.446,0.03120778
0.447,0.03108516
0.448,0.03096254
0.449,0.03080927
0.45,0.03062534
0.451,0.03044141
0.452,0.03022683
0.453,0.02998159
0.454,0.02973635
0.455,0.02946045
0.456,0.02915391
0.457,0.0288167
0.458,0.0284795
0.459,0.02811164
0.46,0.02771313
0.461,0.02731462
0.462,0.02688545
0.463,0.02642563
0.464,0.0259658
0.465,0.02550598
0.466,0.02501551
0.467,0.02452503
0.468,0.02403455
0.469,0.02354407
0.47,0.02302294
0.471,0.02253246
0.472,0.02204199
0.473,0.02155151
0.474,0.02109169
0.475,0.02060121
0.476,0.02017204
0.477,0.01971222
0.478,0.01931371
0.479,0.0189152
0.48,0.01854734
0.481,0.01821013
0.482,0.01787293
0.483,0.01756638
0.484,0.01732115
0.485,0.01707591
0.486,0.01686132
0.487,0.01667739
0.488,0.01652412
0.489,0.0164015
0.49,0.01634019
0.491,0.01624822
0.492,0.01624822
0.493,0.01621757
0.494,0.01624822
0.495,0.01630954
0.496,0.01637085
0.497,0.01646281
0.498,0.01655477
0.499,0.01670805
0.5,0.01686132
0.501,0.01704525
0.502,0.01722918
0.503,0.01741311
0.504,0.01765835
0.505,0.01787293
0.506,0.01811817
0.507,0.01836341
0.508,0.0186393
0.509,0.0189152
0.51,0.01919109
0.511,0.01946698
0.512,0.01977353
0.513,0.02008008
0.514,0.02041728
0.515,0.02072383
0.516,0.02106103
0.517,0.02139824
0.518,0.02173544
0.519,0.0221033
0.52,0.02247116
0.521,0.02280836
0.522,0.02317622
0.523,0.02354407
0.524,0.02391193
0.525,0.02427979
0.526,0.02464765
0.527,0.02504616
0.528,0.02541402
0.529,0.02581253
0.53,0.02618039
0.531,0.0265789
0.532,0.02697741
0.533,0.02737593
0.534,0.02777444
0.535,0.02817295
0.536,0.02857147
0.537,0.02900063
0.538,0.02939915
0.539,0.02979766
0.54,0.03022683
0.541,0.03062534
0.542,0.03102385
0.543,0.03145302
0.544,0.03188219
0.545,0.0322807
0.546,0.03270987
0.547,0.03313904
0.548,0.03353755
0.549,0.03396672
0.55,0.03439588
0.551,0.03482505
0.552,0.03525422
0.553,0.03568339
0.554,0.03611255
0.555,0.03654172
0.556,0.03697089
0.557,0.03740006
0.558,0.03782922
0.559,0.03828905
0.56,0.03871821
0.561,0.03914738
0.562,0.03957655
0.563,0.04003637
0.564,0.04046554
0.565,0.04089471
0.566,0.04135453
0.567,0.04181435
0.568,0.04221286
0.569,0.04270334
0.57,0.04313251
0.571,0.04356168
0.572,0.0440215
0.573,0.04448132
0.574,0.04491049
0.575,0.04537031
0.576,0.04583013
0.577,0.0462593
0.578,0.04671912
0.579,0.04717895
0.58,0.04763877
0.581,0.04809859
0.582,0.04852776
0.583,0.04898758
0.584,0.0494474
0.585,0.04990723
0.586,0.05033639
0.587,0.05079622
0.588,0.05125604
0.589,0.05171586
0.59,0.05217568
0.591,0.0526355
0.592,0.05306467
0.593,0.05355515
0.594,0.05401497
0.595,0.0544748
0.596,0.05493462
0.597,0.05539444
0.598,0.05585426
0.599,0.05631408
0.6,0.05677391
0.601,0.05723373
0.602,0.05772421
0.603,0.05818403
0.604,0.05864385
0.605,0.05910368
0.606,0.0595635
0.607,0.06002332
0.608,0.06048314
0.609,0.06094296
0.61,0.06143344
0.611,0.06189326
0.612,0.06238374
0.613,0.06284356
0.614,0.06330338
0.615,0.06376321
0.616,0.06422303
0.617,0.06471351
0.618,0.06517333
0.619,0.06566381
0.62,0.06612363
0.621,0.06658345
0.622,0.06704327
0.623,0.06753375
0.624,0.06796291
0.625,0.06845339
0.626,0.06894387
0.627,0.0694037
0.628,0.06989417
0.629,0.07035399
0.63,0.07081382
0.631,0.07130429
0.632,0.07176412
0.633,0.07222394
0.634,0.07271441
0.635,0.07317424
0.636,0.07363406
0.637,0.07412454
0.638,0.07458436
0.639,0.07504418
0.64,0.07553466
0.641,0.07602514
0.642,0.07648496
0.643,0.07694478
0.644,0.07743526
0.645,0.07792573
0.646,0.07838555
0.647,0.07887604
0.648,0.07933586
0.649,0.07982634
0.65,0.08031681
0.651,0.08077663
0.652,0.08126711
0.653,0.08172693
0.654,0.08221742
0.655,0.08270789
0.656,0.08316771
0.657,0.08365819
0.658,0.08411801
0.659,0.08460849
0.66,0.08509897
0.661,0.08558945
0.662,0.08604927
0.663,0.08653974
0.664,0.08699957
0.665,0.08749004
0.666,0.08798052
0.667,0.08844034
0.668,0.08890016
0.669,0.08939064
0.67,0.08985046
0.671,0.09031029
0.672,0.09080076
0.673,0.09126058
0.674,0.09168976
0.675,0.09218023
0.676,0.09264006
0.677,0.09309988
0.678,0.0935597
0.679,0.09401952
0.68,0.09447934
0.681,0.09496982
0.682,0.09542964
0.683,0.09588946
0.684,0.09637994
0.685,0.09680911
0.686,0.09729959
0.687,0.09775941
0.688,0.09821923
0.689,0.09870971
0.69,0.09920018
0.691,0.09962936
0.692,0.1001198
0.693,0.1006103
0.694,0.1011008
0.695,0.1015606
0.696,0.1020817
0.697,0.1025416
0.698,0.103032
0.699,0.1035225
0.7,0.1036758
0.6990001,0.103216
0.6980001,0.1027561
0.6970001,0.1022657
0.6960001,0.1018058
0.6950001,0.101346
0.6940001,0.1008555
0.6930001,0.1004264
0.6920001,0.0999359
0.6910001,0.09947608
0.6900001,0.09904691
0.6890001,0.09855644
0.6880001,0.09812727
0.6870001,0.09763679
0.6860001,0.09717696
0.6850001,0.09671714
0.6840001,0.09625732
0.6830001,0.09582815
0.6820001,0.09533768
0.6810001,0.09487786
0.6800001,0.09444869
0.6790001,0.09395821
0.6780001,0.09346773
0.6770001,0.09303857
0.6760001,0.09257875
0.6750001,0.09208827
0.6740001,0.09159779
0.6730001,0.09113797
0.6720001,0.09067815
0.6710001,0.09018766
0.6700001,0.08972784
0.6690001,0.08926802
0.6680001,0.08877754
0.6670001,0.08831772
0.6660001,0.08785789
0.6650001,0.08736742
0.6640001,0.0869076
0.6630001,0.08644778
0.6620001,0.0859573
0.6610001,0.08552813
0.6600001,0.08503766
0.6590001,0.08457784
0.6580001,0.08408736
0.6570001,0.08362754
0.6560001,0.08316771
0.6550001,0.08270789
0.6540001,0.08221742
0.6530001,0.08175759
0.6520001,0.08129777
0.6510001,0.08083794
0.6500001,0.08034747
0.6490001,0.0799183
0.6480001,0.07942782
0.6470001,0.078968
0.6460001,0.07850818
0.6450001,0.0780177
0.6440001,0.07755788
0.6430001,0.07709806
0.6420001,0.07660758
0.6410001,0.07614776
0.6400001,0.07571859
0.6390001,0.07522812
0.6380001,0.07476829
0.6370001,0.07430847
0.6360001,0.07384864
0.6350001,0.07338882
0.6340001,0.07289835
0.6330001,0.07243852
0.6320001,0.0719787
0.6310001,0.07151888
0.6300001,0.07105906
0.6290001,0.07059924
0.6280001,0.07013941
0.6270001,0.06964894
0.6260001,0.06921976
0.6250001,0.06872929
0.6240001,0.06826947
0.6230001,0.06780964
0.6220001,0.06734982
0.6210001,0.06688999
0.6200001,0.06643017
0.6190001,0.06597035
0.6180001,0.06551053
0.6170001,0.06505071
0.6160001,0.06459089
0.6150001,0.06413107
0.6140001,0.06367125
0.6130001,0.06321142
0.6120001,0.0627516
0.6110001,0.06229177
0.6100001,0.06183195
0.6090001,0.06137213
0.6080001,0.06091231
0.6070001,0.06045249
0.6060001,0.06002332
0.6050001,0.0595635
0.6040001,0.05910368
0.6030001,0.05864385
0.6020001,0.05821468
0.6010001,0.05772421
0.6000001,0.05729504
0.5990001,0.05683522
0.5980001,0.05637539
0.5970001,0.05594623
0.5960001,0.05548641
0.5950001,0.05502658
0.5940001,0.05459742
0.5930001,0.05413759
0.5920001,0.05367777
0.5910001,0.05321795
0.5900001,0.05278878
0.5890001,0.05232896
0.5880001,0.05186913
0.5870001,0.05143997
0.5860001,0.05098015
0.5850001,0.05055097
0.5840001,0.05009115
0.5830001,0.04966199
0.5820001,0.04920216
0.5810001,0.048773
0.5800001,0.04831317
0.5790001,0.04788401
0.5780001,0.04742418
0.5770001,0.04699502
0.5760001,0.04656585
0.5750001,0.04610603
0.5740001,0.0456462
0.5730001,0.04521704
0.5720001,0.04478787
0.5710001,0.04432805
0.5700001,0.04389888
0.5690001,0.04346971
0.5680001,0.04304054
0.5670001,0.04258072
0.5660001,0.04215155
0.5650001,0.04172239
0.5640001,0.04129322
0.5630001,0.04083339
0.5620001,0.04040423
0.5610001,0.03997506
0.5600001,0.03954589
0.5590001,0.03911673
0.5580001,0.03868756
0.5570001,0.03825839
0.5560001,0.03782922
0.5550001,0.03740006
0.5540001,0.03694023
0.5530001,0.03654172
0.5520001,0.03611255
0.5510001,0.03568339
0.5500001,0.03525422
0.5490001,0.03482505
0.5480001,0.03439588
0.5470001,0.03399737
0.5460001,0.0335682
0.5450001,0.03313904
0.5440001,0.03270987
0.5430001,0.0322807
0.5420001,0.03188219
0.5410001,0.03145302
0.5400001,0.03102385
0.5390001,0.03062534
0.5380001,0.03019617
0.5370001,0.02979766
0.5360001,0.02936849
0.5350001,0.02896998
0.5340001,0.02854081
0.5330001,0.0281423
0.5320001,0.02771313
0.5310001,0.02731462
0.5300001,0.02691611
0.5290001,0.02651759
0.5280001,0.02608843
0.5270001,0.02568991
0.5260001,0.0252914
0.5250001,0.02489289
0.5240001,0.02449437
0.5230001,0.02409586
0.5220001,0.02369735
0.5210001,0.02329884
0.5200001,0.02290032
0.5190001,0.02250181
0.5180001,0.0221033
0.5170001,0.02173544
0.5160001,0.02133693
0.5150001,0.02093842
0.5140001,0.02057056
0.5130001,0.02017204
0.5120001,0.01977353
0.5110001,0.01940567
0.5100001,0.01903781
0.5090001,0.01866996
0.5080001,0.0183021
0.5070001,0.01793424
0.5060001,0.01753573
0.5050001,0.01716787
0.5040001,0.01680001
0.5030001,0.01643215
0.5020001,0.01609495
0.5010001,0.01572709
0.5000001,0.01535923
0.4990001,0.01499138
0.4980001,0.01465417
0.4970001,0.01428632
0.4960001,0.01394911
0.4950001,0.01358126
0.4940001,0.01324405
0.4930001,0.01239999
0.4920001,0.01206585
0.4910001,0.01173478
0.4900001,0.01140065
0.4890001,0.01107571
0.4880001,0.01075383
0.4870001,0.01042889
0.4860001,0.01011621
0.4850001,0.009797399
0.4840001,0.009484719
0.4830001,0.009181237
0.4820001,0.008871623
0.4810001,0.008568141
0.4800001,0.008273854
0.4790001,0.007976502
0.4780001,0.007685281
0.4770001,0.007397126
0.4760001,0.007115101
0.4750001,0.006833077
0.4740001,0.006554118
0.4730001,0.006281291
0.4720001,0.006014594
0.4710001,0.005747896
0.4700001,0.005493461
0.4690001,0.005232896
0.4680001,0.004981526
0.4670001,0.004739353
0.4660001,0.004494114
0.4650001,0.004258072
0.4640001,0.004028161
0.4630001,0.003795184
0.4620001,0.003574469
0.4610001,0.003353755
0.4600001,0.003136105
0.4590001,0.002930718
0.4580001,0.002725331
0.4570001,0.002526074
0.4560001,0.002336015
0.4550001,0.002142889
0.4540001,0.00195896
0.4530001,0.001784228
0.4520001,0.00160643
0.4510001,0.001443959
0.4500001,0.001275357
0.4490001,0.00108366
0.4480001,0.0009306922
0.4470001,0.0007792574
0.4460001,0.0006385517
0.4450001,0.0004999919
0.4440001,0.0003614321
0.4430001,0.000236667
0.4420001,0.0001094494
0.4410001,-1.3783E-05
0.4400001,-0.0001318146
0.4390001,-0.0002451761
0.4380001,-0.0003511805
0.4370001,-0.0004542929
0.4360001,-0.0005545341
0.4350001,-0.0006468052
0.4340001,-0.000740609
0.4330001,-0.0008279752
0.4320001,-0.0009119695
0.4310001,-0.0009965767
0.4300001,-0.001071375
0.4290001,-0.001148012
0.4280001,-0.00122281
0.4270001,-0.001287798
0.4260001,-0.001357691
0.4250001,-0.001421146
0.4240001,-0.001480003
0.4230001,-0.001544685
0.4220001,-0.001600783
0.4210001,-0.001654123
0.4200001,-0.001709915
0.4190001,-0.001757736
0.4180001,-0.001808317
0.4170001,-0.001857058
0.4160001,-0.001902734
0.4150001,-0.001949635
0.4140001,-0.001991326
0.4130001,-0.002033629
0.4120001,-0.00207624
0.4110001,-0.002114865
0.4100001,-0.00216146
0.4090001,-0.00220499
0.4080001,-0.002237484
0.4070001,-0.002276416
0.4060001,-0.002308603
0.4050001,-0.002343243
0.4040001,-0.002380029
0.4030001,-0.002412217
0.4020001,-0.00244655
0.4010001,-0.002480577
0.4000001,-0.002511232
0.3990001,-0.002546791
0.3980001,-0.002577753
0.3970001,-0.00261086
0.3960001,-0.0026455
0.3950001,-0.002674929
0.3940001,-0.002708649
0.3930001,-0.002739917
0.3920001,-0.002769958
0.3910001,-0.002804905
0.3900001,-0.002836173
0.3890001,-0.00286836
0.3880001,-0.002901774
0.3870001,-0.002930896
0.3860001,-0.002965536
0.3850001,-0.002997417
0.3840001,-0.002991794
0.3830001,-0.00302858
0.3820001,-0.003053104
0.3810001,-0.003086824
0.3800001,-0.00312361
0.3790001,-0.003154265
0.3780001,-0.003187985
0.3770001,-0.003224771
0.3760001,-0.003255426
0.3750001,-0.003292212
0.3740001,-0.003328997
0.3730001,-0.003362718
0.3720001,-0.003399503
0.3710001,-0.003439354
0.3700001,-0.003473075
0.3690001,-0.003509861
0.3680001,-0.003546647
0.3670001,-0.003586498
0.3660001,-0.003620218
0.3650001,-0.003660069
0.3640001,-0.003702986
0.3630001,-0.003736707
0.3620001,-0.003779623
0.3610001,-0.003819474
0.3600001,-0.003859326
0.3590001,-0.003902242
0.3580001,-0.003945159
0.3570001,-0.003985011
0.3560001,-0.004030993
0.3550001,-0.004070844
0.3540001,-0.004113761
0.3530001,-0.004159743
0.3520001,-0.004205726
0.3510001,-0.004251707
0.3500001,-0.004294624
0.3490001,-0.004340607
0.3480001,-0.004389654
0.3470001,-0.004432571
0.3460001,-0.004484684
0.3450001,-0.004533732
0.3440001,-0.004579714
0.3430001,-0.004631828
0.3420001,-0.00467781
0.3410001,-0.004729923
0.3400001,-0.004782036
0.3390001,-0.004834149
0.3380001,-0.004892393
0.3370001,-0.004941441
0.3360001,-0.004993554
0.3350001,-0.005054864
0.3340001,-0.005106977
0.3330001,-0.005162156
0.3320001,-0.0052204
0.3310001,-0.005272513
0.3300001,-0.005333823
0.3290001,-0.005395133
0.3280001,-0.005450311
0.3270001,-0.005514686
0.3260001,-0.005575996
0.3250001,-0.005637306
0.3240001,-0.005704746
0.3230001,-0.005762991
0.3220001,-0.005830431
0.3210001,-0.005894806
0.3200001,-0.005962247
0.3190001,-0.006029687
0.3180001,-0.006094063
0.3170001,-0.006161503
0.3160001,-0.006232009
0.3150001,-0.00629945
0.3140001,-0.006373021
0.3130001,-0.006446593
0.3120001,-0.006517099
0.3110001,-0.006590671
0.3100001,-0.006661177
0.3090001,-0.006737814
0.3080001,-0.006811386
0.3070001,-0.006894153
0.3060001,-0.006970791
0.3050001,-0.007044362
0.3040001,-0.007124064
0.3030001,-0.007206833
0.3020001,-0.007280404
0.3010001,-0.007366238
0.3000001,-0.007449006
0.2990001,-0.007525643
0.2980001,-0.007611477
0.2970001,-0.007694244
0.2960001,-0.007773947
0.2950001,-0.007865911
0.2940001,-0.00794868
0.2930001,-0.008034512
0.2920001,-0.008129543
0.2910001,-0.008212311
0.2900001,-0.008301211
0.2890001,-0.008393174
0.2880001,-0.008482073
0.2870001,-0.008577104
0.2860001,-0.008672133
0.2850001,-0.008764098
0.2840001,-0.008859128
0.2830001,-0.008954158
0.2820001,-0.009052253
0.2810001,-0.009144218
0.2800001,-0.009245379
0.2790001,-0.009343474
0.2780001,-0.009444634
0.2770001,-0.009545796
0.2760001,-0.009650022
0.2750001,-0.009751183
0.2740001,-0.00985541
0.2730001,-0.009959636
0.2720001,-0.0100608
0.2710001,-0.01017115
0.2700001,-0.01027232
0.2690001,-0.01038267
0.2680001,-0.01049303
0.2670001,-0.01059726
0.2660001,-0.01071068
0.2650001,-0.0108241
0.2640001,-0.01093446
0.2630001,-0.01105401
0.2620001,-0.0111705
0.2610001,-0.01128393
0.2600001,-0.01140654
0.2590001,-0.0115261
0.2580001,-0.01164565
0.2570001,-0.01176214
0.2560001,-0.01187863
0.2550001,-0.01199205
0.2540001,-0.01209934
0.2530001,-0.01220357
0.2520001,-0.0122986
0.2510001,-0.0123875
0.2500001,-0.01247027
0.2490001,-0.01254077
0.2480001,-0.01260208
0.2470001,-0.01265113
0.2460001,-0.01268179
0.2450001,-0.01270324
0.2440001,-0.01269711
0.2430001,-0.01267259
0.2420001,-0.01262354
0.2410001,-0.01253771
0.2400001,-0.01242429
0.2390001,-0.01227408
0.2380001,-0.01207482
0.2370001,-0.01183571
0.2360001,-0.01154449
0.2350001,-0.01119809
0.2340001,-0.0108241
0.2330001,-0.01040107
0.2320001,-0.009950439
0.2310001,-0.009496748
0.2300001,-0.009018533
0.2290001,-0.008555645
0.2280001,-0.008105019
0.2270001,-0.007654393
0.2260001,-0.007237487
0.2250001,-0.00684204
0.2240001,-0.006468052
0.2230001,-0.006124718
0.2220001,-0.005812038
0.2210001,-0.005517752
0.2200001,-0.005244924
0.2190001,-0.004993554
0.2180001,-0.004757512
0.2170001,-0.004542928
0.2160001,-0.004349803
0.2150001,-0.00417507
0.2140001,-0.004015665
0.2130001,-0.003871588
0.2120001,-0.003739772
0.2110001,-0.003620218
0.2100001,-0.003509861
0.2090001,-0.003405634
0.2080001,-0.003310604
0.2070001,-0.003221706
0.2060001,-0.003138937
0.2050001,-0.003059235
0.2040001,-0.002988729
0.2030001,-0.002918222
0.2020001,-0.002850782
0.2010001,-0.002789472
0.2000001,-0.002731228
0.1990001,-0.002672984
0.1980001,-0.002620871
0.1970001,-0.002568757
0.1960001,-0.00251971
0.1950001,-0.002473728
0.1940001,-0.002427745
0.1930001,-0.002384829
0.1920001,-0.002341912
0.1910001,-0.002302061
0.1900001,-0.002265275
0.1890001,-0.002225423
0.1880001,-0.002191703
0.1870001,-0.002154917
0.1860001,-0.002124263
0.1850001,-0.002090542
0.1840001,-0.002059887
0.1830001,-0.002029233
0.1820001,-0.001998578
0.1810001,-0.001970988
0.1800001,-0.001943399
0.1790001,-0.00191581
0.1780001,-0.00188822
0.1770001,-0.001863697
0.1760001,-0.001839173
0.1750001,-0.001814649
0.1740001,-0.00179319
0.1730001,-0.001768667
0.1720001,-0.001747208
0.1710001,-0.00172575
0.1700001,-0.001704292
0.1690001,-0.001682833
0.1680001,-0.00166444
0.1670001,-0.001642982
0.1660001,-0.001624589
0.1650001,-0.001606196
0.1640001,-0.001625614
0.1630001,-0.001607528
0.1620001,-0.001590054
0.1610001,-0.001572888
0.1600001,-0.001556027
0.1590001,-0.00153978
0.1580001,-0.00152384
0.1570001,-0.001507899
0.1560001,-0.001492572
0.1550001,-0.001477245
0.1540001,-0.00146253
0.1530001,-0.001448122
0.1520001,-0.001433715
0.1510001,-0.00141992
0.1500001,-0.001406125
0.1490001,-0.001392944
0.1480001,-0.001379762
0.1470001,-0.001367194
0.1460001,-0.001354625
0.1450001,-0.001342057
0.1440001,-0.001329795
0.1430001,-0.001317839
0.1420001,-0.001305884
0.1410001,-0.001294542
0.1400001,-0.0012832
0.1390001,-0.001271857
0.1380001,-0.001260821
0.1370001,-0.001250092
0.1360001,-0.001239363
0.1350001,-0.001229247
0.1340001,-0.001219131
0.1330001,-0.001208708
0.1320001,-0.001198899
0.1310001,-0.001189089
0.1300001,-0.00117928
0.1290001,-0.001169777
0.1280001,-0.00116058
0.1270001,-0.001151384
0.1260001,-0.001142187
0.1250001,-0.001133297
0.1240001,-0.001124408
0.1230001,-0.001115824
0.1220001,-0.001107241
0.1210001,-0.001098657
0.1200001,-0.001090381
0.1190001,-0.00108241
0.1180001,-0.001074134
0.1170001,-0.00106647
0.1160001,-0.0010585
0.1150001,-0.001050836
0.1140001,-0.001043479
0.1130001,-0.001035815
0.1120001,-0.001028151
0.1110001,-0.001021101
0.1100001,-0.00101405
0.1090001,-0.001006693
0.1080001,-0.0009999488
0.1070001,-0.0009928982
0.1060001,-0.0009861541
0.1050001,-0.00097941
0.1040001,-0.000972666
0.1030001,-0.0009662285
0.1020001,-0.000959791
0.1010001,-0.0009533535
0.1000001,-0.0009469159
0.0990001,-0.0009404784
0.09800009,-0.0009343475
0.09700009,-0.0009282165
0.0960001,-0.0009220855
0.0950001,-0.0009162611
0.09400009,-0.0009104367
0.0930001,-0.0009046123
0.0920001,-0.0008990944
0.0910001,-0.00089327
0.09000009,-0.0008877521
0.0890001,-0.0008822342
0.0880001,-0.000877023
0.08700009,-0.0008715051
0.08600009,-0.0008659872
0.0850001,-0.0008607759
0.0840001,-0.0008555645
0.08300009,-0.0008503532
0.08200009,-0.0008451419
0.0810001,-0.0008402371
0.0800001,-0.0008350258
0.07900009,-0.0008304276
0.0780001,-0.0008255228
0.0770001,-0.0008206181
0.07600009,-0.0008160198
0.07500009,-0.0008114216
0.0740001,-0.0008068234
0.0730001,-0.0008019186
0.07200009,-0.0007973204
0.07100009,-0.0007930287
0.0700001,-0.0007884305
0.0690001,-0.0007838323
0.06800009,-0.0007795406
0.0670001,-0.0007752489
0.0660001,-0.0007709572
0.06500009,-0.0007666656
0.06400009,-0.0007626804
0.0630001,-0.0007583887
0.0620001,-0.0007544036
0.06100009,-0.0007504185
0.0600001,-0.0007464333
0.0590001,-0.0007424483
0.0580001,-0.0007384631
0.0570001,-0.0007344779
0.05600009,-0.0007307994
0.0550001,-0.0007268143
0.05400009,-0.0007231357
0.0530001,-0.0007194571
0.05200009,-0.0007157786
0.0510001,-0.0007121
0.05000009,-0.0007084214
0.0490001,-0.0007047429
0.04800009,-0.0007010642
0.0470001,-0.0006976922
0.0460001,-0.0006943202
0.04500009,-0.0006906416
0.0440001,-0.0006875761
0.04300009,-0.0006838975
0.0420001,-0.0006805255
0.04100009,-0.0006771535
0.0400001,-0.0006737814
0.03900009,-0.0006707159
0.0380001,-0.0006676505
0.03700009,-0.0006642784
0.0360001,-0.0006609064
0.0350001,-0.0006578409
0.03400009,-0.0006547754
0.0330001,-0.00065171
0.03200009,-0.0006486445
0.03100009,-0.000645579
0.0300001,-0.0006425135
0.0290001,-0.0006391415
0.0280001,-0.0006363826
0.0270001,-0.0006336236
0.0260001,-0.0006305581
0.0250001,-0.0006277992
0.0240001,-0.0006250403
0.0230001,-0.0006222813
0.02200009,-0.0006195224
0.02100009,-0.0006167634
0.02000009,-0.0006140045
0.0190001,-0.0006112456
0.0180001,-0.0006084866
0.0170001,-0.0006057277
0.0160001,-0.0006029688
0.0150001,-0.0006005164
0.0140001,-0.0005977575
0.0130001,-0.0005953051
0.0120001,-0.0005928527
0.01100009,-0.0005900938
0.0100001,-0.000587948
0.009000096,-0.000585189
0.008000095,-0.0005827366
0.007000095,-0.0005802842
0.006000096,-0.0005778318
0.005000095,-0.0005753795
0.004000095,-0.000572927
0.003000095,-0.0005704747
0.002000095,-0.0005680223
0.001000095,-0.0005658764
9.536743E-08,-0.0005588258
0.0009999046,-0.0005484032
0.001999905,-0.0005398199
0.002999905,-0.000531543
0.003999905,-0.0005241859
0.004999904,-0.0005168287
0.005999905,-0.0005100847
0.006999905,-0.0005036471
0.007999904,-0.0004975162
0.008999905,-0.0004916918
0.009999905,-0.0004858673
0.0109999,-0.0004803495
0.0119999,-0.0004748316
0.0129999,-0.0004696203
0.0139999,-0.0004647155
0.0149999,-0.0004598107
0.0159999,-0.0004552125
0.0169999,-0.0004506143
0.0179999,-0.0004460161
0.0189999,-0.0004417244
0.0199999,-0.0004374327
0.0209999,-0.000433141
0.0219999,-0.0004291559
0.02299991,-0.0004251708
0.02399991,-0.0004211857
0.02499991,-0.0004175071
0.02599991,-0.0004135219
0.0269999,-0.0004098434
0.0279999,-0.0004061648
0.0289999,-0.0004027928
0.0299999,-0.0003994207
0.0309999,-0.0003957421
0.0319999,-0.0003926767
0.0329999,-0.0003893046
0.0339999,-0.0003859326
0.0349999,-0.0003828671
0.03599991,-0.0003798016
0.0369999,-0.0003767362
0.03799991,-0.0003736707
0.0389999,-0.0003706052
0.03999991,-0.0003678463
0.0409999,-0.0003650873
0.04199991,-0.0003620218
0.0429999,-0.0003592629
0.0439999,-0.000356504
0.0449999,-0.000353745
0.0459999,-0.0003509861
0.04699991,-0.0003482272
0.0479999,-0.0003457748
0.04899991,-0.0003430158
0.0499999,-0.0003405634
0.05099991,-0.0003378045
0.0519999,-0.0003353521
0.05299991,-0.0003332063
0.0539999,-0.0003304474
0.0549999,-0.000327995
0.0559999,-0.0003258491
0.0569999,-0.0003233968
0.05799991,-0.0003209444
0.0589999,-0.0003187985
0.05999991,-0.0003163462
0.0609999,-0.0003142003
0.06199991,-0.0003117479
0.0629999,-0.0003096021
0.06399991,-0.0003074562
0.06499991,-0.000305617
0.0659999,-0.0003034711
0.0669999,-0.0003013253
0.06799991,-0.0002991795
0.0689999,-0.0002970336
0.0699999,-0.0002948878
0.07099991,-0.0002930485
0.07199991,-0.0002909026
0.0729999,-0.0002890633
0.0739999,-0.0002869175
0.07499991,-0.0002850782
0.07599991,-0.0002832389
0.0769999,-0.0002810931
0.0779999,-0.0002792538
0.07899991,-0.0002774145
0.0799999,-0.0002755752
0.0809999,-0.0002737359
0.08199991,-0.0002718967
0.08299991,-0.0002700574
0.0839999,-0.000268218
0.0849999,-0.0002663788
0.08599991,-0.0002645395
0.08699991,-0.0002630067
0.0879999,-0.0002611674
0.0889999,-0.0002593282
0.08999991,-0.0002574889
0.0909999,-0.0002559561
0.0919999,-0.0002541168
0.09299991,-0.0002525841
0.09399991,-0.0002507448
0.0949999,-0.0002492121
0.0959999,-0.0002473728
0.09699991,-0.00024584
0.09799991,-0.0002443073
0.0989999,-0.0002427746
0.0999999,-0.0002409353
0.1009999,-0.0002394025
0.1019999,-0.0002378698
0.1029999,-0.0002360305
0.1039999,-0.0002348043
0.1049999,-0.0002332716
0.1059999,-0.0002317388
0.1069999,-0.0002302061
0.1079999,-0.0002286733
0.1089999,-0.0002271406
0.1099999,-0.0002256079
0.1109999,-0.0002240751
0.1119999,-0.0002228489
0.1129999,-0.0002213162
0.1139999,-0.0002197834
0.1149999,-0.0002182507
0.1159999,-0.0002170245
0.1169999,-0.0002154918
0.1179999,-0.000213959
0.1189999,-0.0002127328
0.1199999,-0.0002112001
0.1209999,-0.0002099739
0.1219999,-0.0002084412
0.1229999,-0.000207215
0.1239999,-0.0002056822
0.1249999,-0.000204456
0.1259999,-0.0002032298
0.1269999,-0.0002016971
0.1279999,-0.0002004709
0.1289999,-0.0001992447
0.1299999,-0.000197712
0.1309999,-0.0001964858
0.1319999,-0.0001952596
0.1329999,-0.0001940334
0.1339999,-0.0001928072
0.1349999,-0.0001912744
0.1359999,-0.0001900483
0.1369999,-0.0001888221
0.1379999,-0.0001875959
0.1389999,-0.0001863697
0.1399999,-0.0001851435
0.1409999,-0.0001839173
0.1419999,-0.0001826911
0.1429999,-0.0001814649
0.1439999,-0.0001802387
0.1449999,-0.0001790125
0.1459999,-0.0001777863
0.1469999,-0.0001768667
0.1479999,-0.0001753339
0.1489999,-0.0001744143
0.1499999,-0.0001731881
0.1509999,-0.0001719619
0.1519999,-0.0001707357
0.1529999,-0.0001695095
0.1539999,-0.0001682833
0.1549999,-0.0001673637
0.1559999,-0.0001661375
0.1569999,-0.0001649113
0.1579999,-0.0001639917
0.1589999,-0.0001627655
0.1599999,-0.0001615393
0.1609999,-0.0001637876
0.1619999,-0.0001627147
0.1629999,-0.0001616724
0.1639999,-0.0001605688
0.1649999,-0.0001595265
0.1659999,-0.0001584536
0.1669999,-0.0001573807
0.1679999,-0.0001563078
0.1689999,-0.0001552042
0.1699999,-0.0001541006
0.1709999,-0.0001530277
0.1719999,-0.0001518935
0.1729999,-0.0001508206
0.1739999,-0.0001497476
0.1749999,-0.0001485521
0.1759999,-0.0001475405
0.1769999,-0.0001464676
0.1779999,-0.0001453947
0.1789999,-0.0001443831
0.1799999,-0.0001432795
0.1809999,-0.0001421759
0.1819999,-0.0001411337
0.1829999,-0.0001400607
0.1839999,-0.0001390798
0.1849999,-0.0001380988
0.1859999,-0.0001369646
0.1869999,-0.0001360143
0.1879999,-0.0001349414
0.1889999,-0.0001339298
0.1899999,-0.0001328875
0.1909999,-0.0001317839
0.1919999,-0.000130803
0.1929999,-0.0001296687
0.1939999,-0.0001285958
0.1949999,-0.0001276149
0.1959999,-0.0001264193
0.1969999,-0.0001253771
0.1979999,-0.0001243655
0.1989999,-0.0001232006
0.1999999,-0.000122189
0.2009999,-0.000121116
0.2019999,-0.0001200431
0.2029999,-0.0001189702
0.2039999,-0.0001178053
0.2049999,-0.0001167018
0.2059999,-0.0001156288
0.2069999,-0.0001144946
0.2079999,-0.0001134217
0.2089999,-0.0001123181
0.2099999,-0.0001111839
0.2109999,-0.000110111
0.2119999,-0.0001089154
0.2129999,-0.0001078119
0.2139999,-0.0001067083
0.2149999,-0.0001055128
0.2159999,-0.0001043785
0.2169999,-0.0001032136
0.2179999,-0.0001019568
0.2189999,-0.0001009145
0.2199999,-9.962702E-05
0.2209999,-9.840082E-05
0.2219999,-9.720529E-05
0.2229999,-9.591779E-05
0.2239999,-9.469159E-05
0.2249999,-9.340408E-05
0.2259999,-9.208592E-05
0.2269999,-9.089039E-05
0.2279999,-8.951092E-05
0.2289999,-8.819276E-05
0.2299999,-8.687461E-05
0.2309999,-8.543384E-05
0.2319999,-8.408502E-05
0.2329999,-8.261359E-05
0.2339999,-8.114216E-05
0.2349999,-7.976269E-05
0.2359999,-7.816863E-05
0.2369999,-7.666655E-05
0.2379999,-7.522578E-05
0.2389999,-7.360106E-05
0.2399999,-7.203767E-05
0.2409999,-7.041297E-05
0.2419999,-6.866564E-05
0.2429999,-6.701028E-05
0.2439999,-6.517099E-05
0.2449999,-6.345432E-05
0.2459999,-6.1707E-05
0.2469999,-5.974509E-05
0.2479999,-5.787514E-05
0.2489999,-5.591323E-05
0.2499999,-5.389001E-05
0.2509999,-5.189745E-05
0.2519999,-4.975162E-05
0.2529999,-4.757512E-05
0.2539999,-4.542928E-05
0.2549999,-4.313017E-05
0.2559999,-4.076975E-05
0.2569999,-3.840933E-05
0.2579999,-3.589563E-05
0.2589999,-3.350456E-05
0.2599999,-3.068431E-05
0.2609999,-2.810931E-05
0.2619999,-2.535037E-05
0.2629999,-2.237685E-05
0.2639999,-1.958727E-05
0.2649999,-1.652178E-05
0.2659999,-1.327237E-05
0.2669999,-1.020689E-05
0.2679999,-6.590671E-06
0.2689999,-3.184919E-06
0.2699999,2.729447E-07
0.2709999,4.181435E-06
0.2719999,7.850817E-06
0.2729999,1.172252E-05
0.2739999,1.586705E-05
0.2749999,2.008209E-05
0.2759999,2.470896E-05
0.2769999,2.900063E-05
0.2779999,3.372148E-05
0.2789999,3.859559E-05
0.2799999,4.359233E-05
0.2809999,4.88343E-05
0.2819999,5.441349E-05
0.2829999,5.993135E-05
0.2839999,6.609297E-05
0.2849999,7.200935E-05
0.2859999,7.83549E-05
0.2869999,8.525224E-05
0.2879999,9.214957E-05
0.2889999,9.929214E-05
0.2899999,0.0001071091
0.2909999,0.0001147422
0.2919999,0.0001233562
0.2929999,0.0001318476
0.2939999,0.0001408601
0.2949999,0.000150639
0.2959999,0.0001604792
0.2969999,0.0001709018
0.2979999,0.0001819375
0.2989999,0.0001932185
0.2999999,0.0002056644
0.3009999,0.0002182942
0.3019999,0.0002315064
0.3029999,0.0002457916
0.3039999,0.0002602607
0.3049999,0.0002759866
0.3059999,0.0002925401
0.3069999,0.0003136106
0.3079999,0.0003320035
0.3089999,0.0003510095
0.3099999,0.0003709351
0.3109999,0.0003930065
0.3119999,0.0004156911
0.3129999,0.000440215
0.3139999,0.0004662716
0.3149999,0.0004932479
0.3159999,0.0005226765
0.3169999,0.0005536379
0.3179999,0.0005864385
0.3189999,0.0006216916
0.3199999,0.0006587839
0.3209999,0.0006989418
0.3219999,0.000741552
0.3229999,0.0007866145
0.3239999,0.0008356623
0.3249999,0.0008868558
0.3259999,0.0009423411
0.3269999,0.001002731
0.3279999,0.001065573
0.3289999,0.001133934
0.3299999,0.001207505
0.3309999,0.001285368
0.3319999,0.001370282
0.3329999,0.001460408
0.3339999,0.001557583
0.3349999,0.001663036
0.3359999,0.001775539
0.3369999,0.001896932
0.3379999,0.002027522
0.3389999,0.002167921
0.3399999,0.002319662
0.3409999,0.002480294
0.3419999,0.002654413
0.3429999,0.002840488
0.3439999,0.003036372
0.3449999,0.003277118
0.3459999,0.003500898
0.3469999,0.003733875
0.3479999,0.003985244
0.3489999,0.00424581
0.3499999,0.004515572
0.3509999,0.004800662
0.3519999,0.005091883
0.3529999,0.005395366
0.3539999,0.005701914
0.3549999,0.006017659
0.3559999,0.0063426
0.3569999,0.006664475
0.3579999,0.006992483
0.3589999,0.00732662
0.3599999,0.007651561
0.3609999,0.007982633
0.3619999,0.008304508
0.3629999,0.008626385
0.3639999,0.008942129
0.3649999,0.009251743
0.3659999,0.009555226
0.3669999,0.009852578
0.3679999,0.01014073
0.3689999,0.01042582
0.3699999,0.01069865
0.3709999,0.01096841
0.3719999,0.01122898
0.3729999,0.01147728
0.3739999,0.01172252
0.3749999,0.01195856
0.3759999,0.01218541
0.3769999,0.01240919
0.3779999,0.01262684
0.3789999,0.01283223
0.3799999,0.01303148
0.3809999,0.01322767
0.3819999,0.0134116
0.3829999,0.0135894
0.3839999,0.01376107
0.3849999,0.01392354
0.3859999,0.01407375
0.3869999,0.01422396
0.3879999,0.01436803
0.3889999,0.01449372
0.3899999,0.0146194
0.3909999,0.01473589
0.3919999,0.01483705
0.3929999,0.01494128
0.3939999,0.01503018
0.3949999,0.01511294
0.3959999,0.01519265
0.3969999,0.01526315
0.3979999,0.01532446
0.3989999,0.01537964
0.3999999,0.01542869
0.4009999,0.01547161
0.4019999,0.01550533
0.4029999,0.01553905
0.4039999,0.01556357
0.4049999,0.0155789
0.4059999,0.01559423
0.4069999,0.01559729
0.4079999,0.01559116
0.4089999,0.01559423
0.4099999,0.01558503
0.4109999,0.01556357
0.4119999,0.01554211
0.4129999,0.01550226
0.4139999,0.01546547
0.4149999,0.01541949
0.4159999,0.01535512
0.4169999,0.01530607
0.4179999,0.01522943
0.4189999,0.01514667
0.4199999,0.01507309
0.4209999,0.01496274
0.4219999,0.01487077
0.4229999,0.01476041
0.4239999,0.01463473
0.4249999,0.01451518
0.4259999,0.01437723
0.4269999,0.01422702
0.4279999,0.01408601
0.4289999,0.01391741
0.4299999,0.01375494
0.4309999,0.01358327
0.4319999,0.01339321
0.4329999,0.01321541
0.4339999,0.01302535
0.4349999,0.0128169
0.4359999,0.01262684
0.4369999,0.01241839
0.4379999,0.01220687
0.4389999,0.01200148
0.4399999,0.0117869
0.4409999,0.01157844
0.4419999,0.01137306
0.4429999,0.01116154
0.4439999,0.01095615
0.4449999,0.01075383
0.4459999,0.01055151
0.4469999,0.01036145
0.4479999,0.01017752
0.4489999,0.009987459
0.4499999,0.009812726
0.4509999,0.009650256
0.4519999,0.009487785
0.4529999,0.009331445
0.4539999,0.009190434
0.4549999,0.009055552
0.4559999,0.008926802
0.4569999,0.008816444
0.4579999,0.008709153
0.4589999,0.008607992
0.4599999,0.008531354
0.4609999,0.008451653
0.4619999,0.008390343
0.4629999,0.008341295
0.4639999,0.008295313
0.4649999,0.008270789
0.4659999,0.008252396
0.4669999,0.008243199
0.4679999,0.008255461
0.4689999,0.008270789
0.4699999,0.008301443
0.4709999,0.008347426
0.4719999,0.008399539
0.4729999,0.00847311
0.4739999,0.008552813
0.4749999,0.008644777
0.4759999,0.008749004
0.4769999,0.008865492
0.4779999,0.008997308
0.4789999,0.009135255
0.4799999,0.009288529
0.4809999,0.009450999
0.4819999,0.009619601
0.4829999,0.00980353
0.4839999,0.009996655
0.4849999,0.01019591
0.4859999,0.01040743
0.4869999,0.01063121
0.4879999,0.01085806
0.4889999,0.01109716
0.4899999,0.0113424
0.4909999,0.01159684
0.4919999,0.01186047
0.4929999,0.01212717
0.4939999,0.01240306
0.4949999,0.01268508
0.4959999,0.01297324
0.4969999,0.01327059
0.4979999,0.01356794
0.4989999,0.01387449
0.4999999,0.0141933
0.5009999,0.01450291
0.5019999,0.01482786
0.5029999,0.01515586
0.5039999,0.0154808
0.5049999,0.01582414
0.5059999,0.01615827
0.5069999,0.01650161
0.5079999,0.01685414
0.5089999,0.01720054
0.5099999,0.01755307
0.5109999,0.0179148
0.5119999,0.01827959
0.5129999,0.01864438
0.5139999,0.01901224
0.5149999,0.01938316
0.5159999,0.01975409
0.5169999,0.02013114
0.5179999,0.02051126
0.5189999,0.02088218
0.5199999,0.02127457
0.5209999,0.02165775
0.5219999,0.02204094
0.5229999,0.02244251
0.5239999,0.02282264
0.5249999,0.02322115
0.5259999,0.02362886
0.5269999,0.02401204
0.5279999,0.02441056
0.5289999,0.02481827
0.5299999,0.02521371
0.5309999,0.02562142
0.5319999,0.02603219
0.5329999,0.02643071
0.5339999,0.02684455
0.5349999,0.02725226
0.5359999,0.02765997
0.5369999,0.02807994
0.5379999,0.02848458
0.5389999,0.02889842
0.5399999,0.02932759
0.5409999,0.02973223
0.5419999,0.0301522
0.5429999,0.03136105
0.5439999,0.03175957
0.5449999,0.03215808
0.5459999,0.0326179
0.5469999,0.03301642
0.5479999,0.03344558
0.5489999,0.03387475
0.5499999,0.03430392
0.5509999,0.03476374
0.5519999,0.03519291
0.5529999,0.03562208
0.5539999,0.03605124
0.5549999,0.03648041
0.5559999,0.03694023
0.5569999,0.0373694
0.5579999,0.03782922
0.5589999,0.03825839
0.5599999,0.03868756
0.5609999,0.03914738
0.5619999,0.03957655
0.5629999,0.04003637
0.5639999,0.04046554
0.5649999,0.04089471
0.5659999,0.04138518
0.5669999,0.04181435
0.5679999,0.04224352
0.5689999,0.04270334
0.5699999,0.04313251
0.5709999,0.04359233
0.5719999,0.04405215
0.5729999,0.04448132
0.5739999,0.04494114
0.5749999,0.04537031
0.5759999,0.04583013
0.5769999,0.04628995
0.5779999,0.04674978
0.5789999,0.0472096
0.5799999,0.04763877
0.5809999,0.04809859
0.5819999,0.04855841
0.5829999,0.04901823
0.5839999,0.0494474
0.5849999,0.04990723
0.5859999,0.05036705
0.5869999,0.05079622
0.5879999,0.05125604
0.5889999,0.05171586
0.5899999,0.05217568
0.5909999,0.0526355
0.5919999,0.05309533
0.5929999,0.05355515
0.5939999,0.05401497
0.5949999,0.0544748
0.5959999,0.05493462
0.5969999,0.05539444
0.5979999,0.05585426
0.5989999,0.05631408
0.5999999,0.05677391
0.6009999,0.05723373
0.6019999,0.05769355
0.6029999,0.05818403
0.6039999,0.05861319
0.6049999,0.05910368
0.6059999,0.0595635
0.6069999,0.05999266
0.6079999,0.06048314
0.6089999,0.06094296
0.6099999,0.06140279
0.6109999,0.06189326
0.6119999,0.06235309
0.6129999,0.06281291
0.6139999,0.06330338
0.6149999,0.06373256
0.6159999,0.06419238
0.6169999,0.06468286
0.6179999,0.06514268
0.6189999,0.0656025
0.6199999,0.06609298
0.6209999,0.0665528
0.6219999,0.06701262
0.6229999,0.06747244
0.6239999,0.06793226
0.6249999,0.06842274
0.6259999,0.06888256
0.6269999,0.06937304
0.6279999,0.06983286
0.6289999,0.07029268
0.6299999,0.07078316
0.6309999,0.07124298
0.6319999,0.07173347
0.6329999,0.07219329
0.6339999,0.07265311
0.6349999,0.07314359
0.6359999,0.07360341
0.6369999,0.07409389
0.6379999,0.07455371
0.6389999,0.07501353
0.6399999,0.07547335
0.6409999,0.07596382
0.6419999,0.0764543
0.6429999,0.07691412
0.6439999,0.0774046
0.6449999,0.07786443
0.6459999,0.07832425
0.6469999,0.07881473
0.6479999,0.0793052
0.6489999,0.07976502
0.6499999,0.08022485
0.6509999,0.08071532
0.6519999,0.08117515
0.6529999,0.08163497
0.6539999,0.08212545
0.6549999,0.08258527
0.6559999,0.08307575
0.6569999,0.08356623
0.6579999,0.08402605
0.6589999,0.08448587
0.6599999,0.08497635
0.6609999,0.08546682
0.6619999,0.08592664
0.6629999,0.08641712
0.6639999,0.0869076
0.6649999,0.08736742
0.6659999,0.08782724
0.6669999,0.08831772
0.6679999,0.0888082
0.6689999,0.08926802
0.6699999,0.0897585
0.6709999,0.09024898
0.6719999,0.0907088
0.6729999,0.09119927
0.6739999,0.0916591
0.6749999,0.09214958
0.6759999,0.09264006
0.6769999,0.09309988
0.6779999,0.09359035
0.6789999,0.09408083
0.6799999,0.09454065
0.6809999,0.09503113
0.6819999,0.09552161
0.6829999,0.09598143
0.6839999,0.09647191
0.6849999,0.09693173
0.6859999,0.0974222
0.6869999,0.09791268
0.6879999,0.09837251
0.6889999,0.09889363
0.6899999,0.09935346
0.6909999,0.09981328
0.6919999,0.1003038
0.6929999,0.1007942
0.6939999,0.1012847
0.6949999,0.1017752
0.6959999,0.102235
0.6969999,0.1027255
0.6979999,0.1031853
0.6989999,0.1037064
0.6999999,0.1037984
0.6990002,0.1033386
0.6980002,0.1028788
0.6970002,0.1023883
0.6960002,0.1019591
0.6950002,0.101438
0.6940002,0.1009782
0.6930002,0.1005183
0.6920002,0.1000279
0.6910002,0.0995987
0.6900002,0.09913888
0.6890002,0.0986484
0.6880002,0.09818857
0.6870002,0.0976981
0.6860002,0.09720763
0.6850002,0.09677845
0.6840002,0.09628798
0.6830002,0.0957975
0.6820002,0.09536833
0.6810002,0.09487786
0.6800002,0.09441803
0.6790002,0.09395821
0.6780002,0.09349839
0.6770002,0.09300791
0.6760002,0.09254809
0.6750002,0.09208827
0.6740002,0.09156714
0.6730002,0.09110731
0.6720002,0.09067815
0.6710002,0.09018766
0.6700002,0.08972784
0.6690002,0.08923737
0.6680002,0.08874689
0.6670002,0.08828707
0.6660002,0.08782724
0.6650002,0.08733677
0.6640002,0.0869076
0.6630002,0.08644778
0.6620002,0.0859573
0.6610002,0.08549748
0.6600002,0.08503766
0.6590002,0.08457784
0.6580002,0.08408736
0.6570002,0.08365819
0.6560002,0.08316771
0.6550002,0.08270789
0.6540002,0.08224807
0.6530002,0.08175759
0.6520002,0.08132842
0.6510002,0.08089925
0.6500002,0.08037812
0.6490002,0.0799183
0.6480002,0.07945848
0.6470002,0.07899866
0.6460002,0.07853883
0.6450002,0.07807901
0.6440002,0.07758854
0.6430002,0.07712871
0.6420002,0.07666889
0.6410002,0.07617841
0.6400002,0.07574924
0.6390002,0.07528942
0.6380002,0.0748296
0.6370002,0.07436978
0.6360002,0.07387929
0.6350002,0.07341947
0.6340002,0.07295965
0.6330002,0.07249983
0.6320002,0.07204001
0.6310002,0.07158019
0.6300002,0.07112037
0.6290002,0.07066055
0.6280002,0.07020072
0.6270002,0.0697409
0.6260002,0.06925042
0.6250002,0.06882125
0.6240002,0.06833078
0.6230002,0.06787095
0.6220002,0.06744178
0.6210002,0.0669513
0.6200002,0.06649148
0.6190002,0.06606232
0.6180002,0.0656025
0.6170002,0.06514268
0.6160002,0.06468286
0.6150002,0.06422303
0.6140002,0.06376321
0.6130002,0.06330338
0.6120002,0.06284356
0.6110002,0.0624144
0.6100002,0.06195457
0.6090002,0.0614641
0.6080002,0.06103493
0.6070002,0.06054445
0.6060002,0.06011529
0.6050002,0.05965546
0.6040002,0.05922629
0.6030002,0.05873581
0.6020002,0.05830665
0.6010002,0.05784683
0.6000002,0.057387
0.5990002,0.05692718
0.5980002,0.05649801
0.5970002,0.05603819
0.5960002,0.05557837
0.5950002,0.0551492
0.5940002,0.05465872
0.5930002,0.05422956
0.5920002,0.05376973
0.5910002,0.05330991
0.5900002,0.05288074
0.5890002,0.05242092
0.5880002,0.0519611
0.5870002,0.05156258
0.5860002,0.05110276
0.5850002,0.05064294
0.5840002,0.05021377
0.5830002,0.04975395
0.5820002,0.04932478
0.5810002,0.04889562
0.5800002,0.04843579
0.5790002,0.04797597
0.5780002,0.0475468
0.5770002,0.04711764
0.5760002,0.04665781
0.5750002,0.04622864
0.5740002,0.04576882
0.5730002,0.04533966
0.5720002,0.04487984
0.5710002,0.04445067
0.5700002,0.0440215
0.5690002,0.04359233
0.5680002,0.04313251
0.5670002,0.04270334
0.5660002,0.04227417
0.5650002,0.04181435
0.5640002,0.04138518
0.5630002,0.04095602
0.5620002,0.04052685
0.5610002,0.04009768
0.5600002,0.03966851
0.5590002,0.03920869
0.5580002,0.03881018
0.5570002,0.03835035
0.5560002,0.03792119
0.5550002,0.03749202
0.5540002,0.03706285
0.5530002,0.03663369
0.5520002,0.03620452
0.5510002,0.035806
0.5500002,0.03534618
0.5490002,0.03494767
0.5480002,0.0345185
0.5470002,0.03408933
0.5460002,0.03366017
0.5450002,0.03326165
0.5440002,0.03283248
0.5430002,0.03240332
0.5420002,0.03197415
0.5410002,0.03157564
0.5400002,0.03114647
0.5390002,0.03074796
0.5380002,0.03031879
0.5370002,0.02988962
0.5360002,0.02949111
0.5350002,0.02906194
0.5340002,0.02866343
0.5330002,0.02823426
0.5320002,0.02783575
0.5310002,0.02743724
0.5300002,0.02700807
0.5290002,0.02660956
0.5280002,0.02621104
0.5270002,0.02581253
0.5260002,0.02541402
0.5250002,0.02501551
0.5240002,0.02458634
0.5230002,0.02418783
0.5220002,0.02378931
0.5210002,0.0233908
0.5200002,0.02299229
0.5190002,0.02262443
0.5180002,0.02222592
0.5170002,0.02182741
0.5160002,0.02142889
0.5150002,0.02106103
0.5140002,0.02066252
0.5130002,0.02026401
0.5120002,0.01989615
0.5110002,0.01949764
0.5100002,0.01912978
0.5090002,0.01876192
0.5080002,0.01839406
0.5070002,0.01802621
0.5060002,0.01765835
0.5050002,0.01725983
0.5040002,0.01689198
0.5030002,0.01652412
0.5020002,0.01615626
0.5010002,0.0157884
0.5000002,0.0154512
0.4990002,0.01508334
0.4980002,0.01471548
0.4970002,0.01437828
0.4960002,0.01404108
0.4950002,0.01367322
0.4940002,0.01333602
0.4930002,0.01249809
0.4920002,0.01215782
0.4910002,0.01182981
0.4900002,0.01149568
0.4890002,0.01116767
0.4880002,0.01084579
0.4870002,0.01052392
0.4860002,0.01020511
0.4850002,0.009889363
0.4840002,0.009573619
0.4830002,0.00926707
0.4820002,0.008957457
0.4810002,0.008653974
0.4800002,0.008353557
0.4790002,0.008053139
0.4780002,0.007764984
0.4770002,0.007473763
0.4760002,0.007185608
0.4750002,0.006909714
0.4740002,0.00662769
0.4730002,0.006348731
0.4720002,0.0060851
0.4710002,0.005812271
0.4700002,0.005554772
0.4690002,0.00529727
0.4680002,0.00503977
0.4670002,0.004794532
0.4660002,0.004546227
0.4650002,0.004304054
0.4640002,0.004074143
0.4630002,0.003838101
0.4620002,0.003611255
0.4610002,0.00339054
0.4600002,0.003172891
0.4590002,0.002961373
0.4580002,0.00275292
0.4570002,0.002550598
0.4560002,0.002354407
0.4550002,0.002158216
0.4540002,0.001974287
0.4530002,0.001793424
0.4520002,0.001615626
0.4510002,0.001443959
0.4500002,0.001275357
0.4490002,0.001081207
0.4480002,0.0009242547
0.4470002,0.0007691413
0.4460002,0.0006250636
0.4450002,0.0004819056
0.4440002,0.0003421196
0.4430002,0.0002118365
0.4420002,8.032732E-05
0.4410002,-4.987423E-05
0.4400002,-0.0001654123
0.4390002,-0.0002826057
0.4380002,-0.0003920636
0.4370002,-0.0004975162
0.4360002,-0.0006011295
0.4350002,-0.0006973856
0.4340002,-0.0007945614
0.4330002,-0.0008846867
0.4320002,-0.0009711333
0.4310002,-0.001059419
0.4300002,-0.001137282
0.4290002,-0.001216065
0.4280002,-0.001293009
0.4270002,-0.001360756
0.4260002,-0.001432489
0.4250002,-0.001499009
0.4240002,-0.001559706
0.4230002,-0.001624388
0.4220002,-0.001683551
0.4210002,-0.001738424
0.4200002,-0.001795748
0.4190002,-0.001845409
0.4180002,-0.001897216
0.4170002,-0.00194749
0.4160002,-0.001994698
0.4150002,-0.002042213
0.4140002,-0.002085129
0.4130002,-0.00212866
0.4120002,-0.002172189
0.4110002,-0.002210508
0.4100002,-0.002258329
0.4090002,-0.002302472
0.4080002,-0.002335886
0.4070002,-0.002374818
0.4060002,-0.002407925
0.4050002,-0.002442565
0.4040002,-0.002480577
0.4030002,-0.002512458
0.4020002,-0.002548937
0.4010002,-0.002582657
0.4000002,-0.00261178
0.3990002,-0.002648872
0.3980002,-0.002680446
0.3970002,-0.002712634
0.3960002,-0.0027485
0.3950002,-0.002777316
0.3940002,-0.002809503
0.3930002,-0.002843837
0.3920002,-0.002873878
0.3910002,-0.002908212
0.3900002,-0.002940093
0.3890002,-0.002971667
0.3880002,-0.003004774
0.3870002,-0.003000991
0.3860002,-0.003031645
0.3850002,-0.0030623
0.3840002,-0.003092955
0.3830002,-0.003129741
0.3820002,-0.00315733
0.3810002,-0.003194116
0.3800002,-0.003230902
0.3790002,-0.003258491
0.3780002,-0.003295277
0.3770002,-0.003332063
0.3760002,-0.003362718
0.3750002,-0.003399503
0.3740002,-0.003436289
0.3730002,-0.003470009
0.3720002,-0.003509861
0.3710002,-0.003546647
0.3700002,-0.003583432
0.3690002,-0.003620218
0.3680002,-0.003653938
0.3670002,-0.003696855
0.3660002,-0.003733641
0.3650002,-0.003770427
0.3640002,-0.003813344
0.3630002,-0.003850129
0.3620002,-0.003893046
0.3610002,-0.003929832
0.3600002,-0.003969683
0.3590002,-0.004015665
0.3580002,-0.004055517
0.3570002,-0.004098434
0.3560002,-0.004144416
0.3550002,-0.004184267
0.3540002,-0.004230249
0.3530002,-0.004273166
0.3520002,-0.004316083
0.3510002,-0.00436513
0.3500002,-0.004411113
0.3490002,-0.004454029
0.3480002,-0.004503077
0.3470002,-0.00454906
0.3460002,-0.004598107
0.3450002,-0.004647155
0.3440002,-0.004696202
0.3430002,-0.004748316
0.3420002,-0.004797364
0.3410002,-0.004849477
0.3400002,-0.00490159
0.3390002,-0.004953703
0.3380002,-0.005008881
0.3370002,-0.005060995
0.3360002,-0.005113108
0.3350002,-0.005171353
0.3340002,-0.005223466
0.3330002,-0.005278645
0.3320002,-0.005336888
0.3310002,-0.005389001
0.3300002,-0.005450311
0.3290002,-0.005511621
0.3280002,-0.0055668
0.3270002,-0.005631175
0.3260002,-0.005692484
0.3250002,-0.005750729
0.3240002,-0.005818169
0.3230002,-0.005876414
0.3220002,-0.005940788
0.3210002,-0.006005164
0.3200002,-0.006069539
0.3190002,-0.006136979
0.3180002,-0.006201354
0.3170002,-0.00626573
0.3160002,-0.006336236
0.3150002,-0.006400611
0.3140002,-0.006471117
0.3130002,-0.006541623
0.3120002,-0.006609064
0.3110002,-0.006682635
0.3100002,-0.006750076
0.3090002,-0.006823647
0.3080002,-0.006894153
0.3070002,-0.006973856
0.3060002,-0.007047428
0.3050002,-0.007117934
0.3040002,-0.007194571
0.3030002,-0.007271208
0.3020002,-0.007347845
0.3010002,-0.007421417
0.3000002,-0.007501119
0.2990002,-0.007577756
0.2980002,-0.007654393
0.2970002,-0.007734096
0.2960002,-0.007813798
0.2950002,-0.007893501
0.2940002,-0.007973203
0.2930002,-0.008059037
0.2920002,-0.008135674
0.2910002,-0.008218442
0.2900002,-0.008304276
0.2890002,-0.008387043
0.2880002,-0.008472877
0.2870002,-0.008561776
0.2860002,-0.008641479
0.2850002,-0.008730377
0.2840002,-0.008822342
0.2830002,-0.008908176
0.2820002,-0.008997074
0.2810002,-0.009085974
0.2800002,-0.009171807
0.2790002,-0.009269902
0.2780002,-0.009352671
0.2770002,-0.009450765
0.2760002,-0.009545796
0.2750002,-0.009634695
0.2740002,-0.009735856
0.2730002,-0.009827821
0.2720002,-0.009919784
0.2710002,-0.01002401
0.2700002,-0.01011904
0.2690002,-0.01021407
0.2680002,-0.01032136
0.2670002,-0.01041946
0.2660002,-0.01051755
0.2650002,-0.01062485
0.2640002,-0.01072601
0.2630002,-0.01083023
0.2620002,-0.01094059
0.2610002,-0.01105095
0.2600002,-0.01116131
0.2590002,-0.01126553
0.2580002,-0.01137896
0.2570002,-0.01147705
0.2560002,-0.01157515
0.2550002,-0.01167631
0.2540002,-0.01175294
0.2530002,-0.01183265
0.2520002,-0.01190009
0.2510002,-0.011943
0.2500002,-0.01198899
0.2490002,-0.01200431
0.2480002,-0.01199512
0.2470002,-0.01197672
0.2460002,-0.01191541
0.2450002,-0.01182652
0.2440002,-0.0117039
0.2430002,-0.01154143
0.2420002,-0.01132991
0.2410002,-0.01107241
0.2400002,-0.01077199
0.2390002,-0.01041946
0.2380002,-0.01003934
0.2370002,-0.009625498
0.2360002,-0.009196331
0.2350002,-0.008770229
0.2340002,-0.008337996
0.2330002,-0.007924155
0.2320002,-0.007531774
0.2310002,-0.007148589
0.2300002,-0.006802189
0.2290002,-0.006483379
0.2280002,-0.006186027
0.2270002,-0.005922395
0.2260002,-0.005677157
0.2250002,-0.005450311
0.2240002,-0.005247989
0.2230002,-0.00505793
0.2220002,-0.004880131
0.2210002,-0.004720726
0.2200002,-0.004564387
0.2190002,-0.004423374
0.2180002,-0.004288493
0.2170002,-0.004156678
0.2160002,-0.004034058
0.2150002,-0.003914505
0.2140002,-0.003801082
0.2130002,-0.003690724
0.2120002,-0.003589563
0.2110002,-0.003485337
0.2100002,-0.003384176
0.2090002,-0.003286081
0.2080002,-0.003194116
0.2070002,-0.003105217
0.2060002,-0.003025514
0.2050002,-0.002948877
0.2040002,-0.002875306
0.2030002,-0.002810931
0.2020002,-0.002746556
0.2010002,-0.002688312
0.2000002,-0.002633133
0.1990002,-0.00258102
0.1980002,-0.002528906
0.1970002,-0.002479859
0.1960002,-0.002433876
0.1950002,-0.00239096
0.1940002,-0.002348043
0.1930002,-0.002308191
0.1920002,-0.00226834
0.1910002,-0.002231555
0.1900002,-0.002197834
0.1890002,-0.002161048
0.1880002,-0.002130394
0.1870002,-0.002096673
0.1860002,-0.002066019
0.1850002,-0.002035364
0.1840002,-0.002007774
0.1830002,-0.00197712
0.1820002,-0.00194953
0.1810002,-0.001925006
0.1800002,-0.001897417
0.1790002,-0.001872893
0.1780002,-0.001848369
0.1770002,-0.001826911
0.1760002,-0.001802387
0.1750002,-0.001780929
0.1740002,-0.00175947
0.1730002,-0.001738012
0.1720002,-0.001716554
0.1710002,-0.001695095
0.1700002,-0.001676702
0.1690002,-0.001658309
0.1680002,-0.001636851
0.1670002,-0.001618458
0.1660002,-0.001603131
0.1650002,-0.001621322
0.1640002,-0.001604462
0.1630002,-0.001587602
0.1620002,-0.001571048
0.1610002,-0.001555414
0.1600002,-0.00153978
0.1590002,-0.001524453
0.1580002,-0.001509432
0.1570002,-0.001494411
0.1560002,-0.00148031
0.1550002,-0.001465902
0.1540002,-0.001452108
0.1530002,-0.001438619
0.1520002,-0.001425438
0.1510002,-0.001412256
0.1500002,-0.001399688
0.1490002,-0.001386813
0.1480002,-0.001374857
0.1470002,-0.001362595
0.1460002,-0.00135064
0.1450002,-0.001338991
0.1440002,-0.001327649
0.1430002,-0.001316613
0.1420002,-0.001305271
0.1410002,-0.001294542
0.1400002,-0.001284119
0.1390002,-0.00127339
0.1380002,-0.001263274
0.1370002,-0.001252851
0.1360002,-0.001242735
0.1350002,-0.001233232
0.1340002,-0.001223423
0.1330002,-0.00121392
0.1320002,-0.001204723
0.1310002,-0.00119522
0.1300002,-0.00118633
0.1290002,-0.00117744
0.1280002,-0.00116855
0.1270002,-0.001159967
0.1260002,-0.001151384
0.1250002,-0.0011428
0.1240002,-0.00113483
0.1230002,-0.001126247
0.1220002,-0.001118583
0.1210002,-0.001110613
0.1200002,-0.001102643
0.1190002,-0.001094979
0.1180002,-0.001087315
0.1170002,-0.001079958
0.1160002,-0.001072601
0.1150002,-0.00106555
0.1140002,-0.001058193
0.1130002,-0.001051142
0.1120002,-0.001044092
0.1110002,-0.001037654
0.1100002,-0.001030297
0.1090002,-0.001023553
0.1080002,-0.001017422
0.1070002,-0.001010678
0.1060002,-0.00100424
0.1050002,-0.0009978029
0.1040002,-0.0009916719
0.1030002,-0.000985541
0.1020002,-0.0009797165
0.1010002,-0.0009735856
0.1000002,-0.0009674546
0.09900019,-0.0009616303
0.09800019,-0.0009558058
0.09700019,-0.0009499814
0.09600019,-0.000944157
0.09500019,-0.0009386392
0.09400019,-0.0009328147
0.09300019,-0.0009272969
0.09200019,-0.0009220855
0.09100019,-0.0009168742
0.09000019,-0.0009116629
0.08900019,-0.0009064515
0.08800019,-0.0009012403
0.08700019,-0.0008960289
0.08600019,-0.0008911242
0.08500019,-0.0008859128
0.08400019,-0.000881008
0.08300019,-0.0008761032
0.08200019,-0.0008711985
0.08100019,-0.0008662938
0.08000019,-0.0008616955
0.07900019,-0.0008570973
0.07800019,-0.0008521925
0.07700019,-0.0008475943
0.07600019,-0.0008433026
0.07500019,-0.0008387044
0.07400019,-0.0008341062
0.07300019,-0.0008298145
0.07200019,-0.0008252163
0.07100019,-0.0008212312
0.07000019,-0.0008169395
0.06900019,-0.0008126478
0.06800019,-0.0008086627
0.06700019,-0.000804371
0.06600019,-0.0008003859
0.06500019,-0.0007964008
0.06400019,-0.0007924156
0.06300019,-0.0007884305
0.06200019,-0.0007847519
0.06100019,-0.0007804602
0.06000019,-0.0007770882
0.05900019,-0.0007731031
0.05800019,-0.0007694245
0.05700019,-0.0007657459
0.05600019,-0.0007620673
0.05500019,-0.0007583887
0.05400019,-0.0007547102
0.05300019,-0.0007510316
0.05200019,-0.0007476595
0.05100019,-0.000743981
0.05000019,-0.000740609
0.04900019,-0.0007372369
0.04800019,-0.0007335583
0.04700019,-0.0007301863
0.04600019,-0.0007268143
0.04500019,-0.0007237488
0.04400019,-0.0007200702
0.04300019,-0.0007170048
0.04200019,-0.0007136327
0.04100019,-0.0007102606
0.04000019,-0.0007071952
0.03900019,-0.0007041298
0.03800019,-0.0007007577
0.03700019,-0.0006976922
0.03600019,-0.0006946267
0.03500019,-0.0006915613
0.03400019,-0.0006884958
0.03300019,-0.0006854302
0.03200019,-0.0006826713
0.03100019,-0.0006799124
0.03000019,-0.0006768469
0.02900019,-0.0006737814
0.02800019,-0.0006710225
0.02700019,-0.0006679571
0.02600019,-0.0006651981
0.02500019,-0.0006624392
0.02400019,-0.0006596802
0.02300019,-0.0006569213
0.02200019,-0.0006541623
0.02100019,-0.0006514034
0.02000019,-0.0006486445
0.01900019,-0.0006458855
0.01800019,-0.0006434331
0.01700019,-0.0006406742
0.01600019,-0.0006382219
0.01500019,-0.0006354629
0.01400019,-0.0006330105
0.01300019,-0.0006302515
0.01200019,-0.0006281057
0.01100019,-0.0006253468
0.01000019,-0.0006228944
0.009000191,-0.000620442
0.00800019,-0.0006176831
0.007000191,-0.0006155373
0.006000191,-0.0006130849
0.005000191,-0.0006106325
0.004000191,-0.0006084866
0.003000191,-0.0006060342
0.002000191,-0.0006038884
0.001000191,-0.0006014361
1.907349E-07,-0.0005940789
0.0009998092,-0.0005833497
0.001999809,-0.0005744598
0.002999809,-0.0005658764
0.003999809,-0.0005579062
0.004999809,-0.000550549
0.005999809,-0.0005434984
0.006999809,-0.0005367543
0.007999809,-0.0005303168
0.00899981,-0.0005238793
0.009999809,-0.0005177484
0.01099981,-0.0005122305
0.01199981,-0.0005064061
0.01299981,-0.0005008882
0.01399981,-0.0004956769
0.01499981,-0.0004904656
0.01599981,-0.0004855608
0.01699981,-0.0004803495
0.01799981,-0.0004754447
0.01899981,-0.0004708465
0.01999981,-0.0004662482
0.02099981,-0.0004619566
0.02199981,-0.0004576649
0.02299981,-0.0004533732
0.02399981,-0.0004490816
0.02499981,-0.0004450964
0.02599981,-0.0004411113
0.02699981,-0.0004374327
0.02799981,-0.0004334476
0.02899981,-0.000429769
0.02999981,-0.0004260904
0.03099981,-0.0004224119
0.03199981,-0.0004190398
0.03299981,-0.0004153613
0.03399981,-0.0004116826
0.03499981,-0.0004083106
0.03599981,-0.0004049386
0.03699981,-0.0004018731
0.03799981,-0.0003985011
0.03899981,-0.0003951291
0.03999981,-0.0003920636
0.04099981,-0.0003889981
0.04199981,-0.0003859326
0.04299981,-0.0003828671
0.04399981,-0.0003798016
0.04499981,-0.0003770427
0.04599981,-0.0003739772
0.04699981,-0.0003712183
0.04799981,-0.0003684594
0.04899981,-0.0003653939
0.04999981,-0.0003626349
0.05099981,-0.000359876
0.05199981,-0.0003571171
0.05299981,-0.0003546647
0.05399981,-0.0003519058
0.05499981,-0.0003491468
0.05599981,-0.0003466944
0.05699981,-0.000344242
0.05799981,-0.0003417897
0.05899981,-0.0003393373
0.05999981,-0.0003368849
0.06099981,-0.0003344325
0.06199981,-0.0003319801
0.06299981,-0.0003295277
0.06399981,-0.0003270753
0.06499981,-0.0003249295
0.06599981,-0.0003224771
0.06699981,-0.0003203313
0.06799981,-0.0003178789
0.06899981,-0.0003157331
0.06999981,-0.0003132806
0.07099981,-0.0003111348
0.07199981,-0.000308989
0.07299981,-0.0003068431
0.07399981,-0.0003046973
0.07499981,-0.0003025515
0.07599981,-0.0003004056
0.07699981,-0.0002982598
0.07799981,-0.0002964205
0.07899981,-0.0002942747
0.07999981,-0.0002921289
0.08099981,-0.0002902895
0.08199981,-0.0002881437
0.08299981,-0.0002863044
0.08399981,-0.0002841586
0.08499981,-0.0002823193
0.08599981,-0.00028048
0.08699981,-0.0002786407
0.08799981,-0.0002764949
0.08899981,-0.0002746556
0.08999981,-0.0002728163
0.09099981,-0.000270977
0.09199981,-0.0002691377
0.09299981,-0.0002672984
0.09399981,-0.0002654591
0.09499981,-0.0002636198
0.09599981,-0.0002617805
0.09699981,-0.0002602478
0.09799981,-0.0002584085
0.09899981,-0.0002565692
0.09999981,-0.0002550365
0.1009998,-0.0002531972
0.1019998,-0.0002513579
0.1029998,-0.0002498252
0.1039998,-0.0002479859
0.1049998,-0.0002464531
0.1059998,-0.0002446139
0.1069998,-0.0002430811
0.1079998,-0.0002412418
0.1089998,-0.0002397091
0.1099998,-0.0002381763
0.1109998,-0.000236337
0.1119998,-0.0002348043
0.1129998,-0.0002332716
0.1139998,-0.0002317388
0.1149998,-0.0002298995
0.1159998,-0.0002283668
0.1169998,-0.0002268341
0.1179998,-0.0002253013
0.1189998,-0.0002237686
0.1199998,-0.0002222358
0.1209998,-0.0002210096
0.1219998,-0.0002194769
0.1229998,-0.0002179441
0.1239998,-0.0002164114
0.1249998,-0.0002148787
0.1259998,-0.0002136525
0.1269998,-0.0002121197
0.1279998,-0.000210587
0.1289998,-0.0002090542
0.1299998,-0.0002075215
0.1309998,-0.0002062953
0.1319998,-0.0002047626
0.1329998,-0.0002035364
0.1339998,-0.0002020036
0.1349998,-0.0002007774
0.1359998,-0.0001992447
0.1369998,-0.0001980185
0.1379998,-0.0001964858
0.1389998,-0.0001952596
0.1399998,-0.0001937268
0.1409998,-0.0001925007
0.1419998,-0.0001912744
0.1429998,-0.0001897417
0.1439998,-0.0001885155
0.1449998,-0.0001872893
0.1459998,-0.0001860631
0.1469998,-0.0001848369
0.1479998,-0.0001833042
0.1489998,-0.000182078
0.1499998,-0.0001808518
0.1509998,-0.0001796256
0.1519998,-0.0001783994
0.1529998,-0.0001771732
0.1539998,-0.000175947
0.1549998,-0.0001747208
0.1559998,-0.0001731881
0.1569998,-0.0001719619
0.1579998,-0.0001710423
0.1589998,-0.0001695095
0.1599998,-0.0001682833
0.1609998,-0.0001670571
0.1619998,-0.0001658309
0.1629998,-0.0001646047
0.1639998,-0.0001633786
0.1649998,-0.0001624589
0.1659998,-0.0001612327
0.1669998,-0.0001600065
0.1679998,-0.0001620709
0.1689998,-0.0001609367
0.1699998,-0.0001597718
0.1709998,-0.0001586376
0.1719998,-0.0001574114
0.1729998,-0.0001563078
0.1739998,-0.0001551123
0.1749998,-0.0001538861
0.1759998,-0.0001528438
0.1769998,-0.0001516483
0.1779998,-0.0001504527
0.1789998,-0.0001493798
0.1799998,-0.0001481843
0.1809998,-0.0001470194
0.1819998,-0.0001459158
0.1829998,-0.0001447509
0.1839998,-0.0001436167
0.1849998,-0.0001425131
0.1859998,-0.0001413176
0.1869998,-0.0001401833
0.1879998,-0.0001390798
0.1889998,-0.0001379455
0.1899998,-0.0001368113
0.1909998,-0.0001356771
0.1919998,-0.0001345122
0.1929998,-0.000133378
0.1939998,-0.0001322437
0.1949998,-0.0001311095
0.1959998,-0.0001298527
0.1969998,-0.0001287184
0.1979998,-0.0001275536
0.1989998,-0.0001263274
0.1999998,-0.0001252238
0.2009998,-0.0001241202
0.2019998,-0.000122894
0.2029998,-0.0001217905
0.2039998,-0.0001205336
0.2049998,-0.0001193381
0.2059998,-0.0001182038
0.2069998,-0.0001170083
0.2079998,-0.0001158128
0.2089998,-0.0001146479
0.2099998,-0.0001133604
0.2109998,-0.0001121955
0.2119998,-0.0001109387
0.2129998,-0.0001097431
0.2139998,-0.0001085476
0.2149998,-0.0001073214
0.2159998,-0.0001060645
0.2169998,-0.0001047157
0.2179998,-0.0001034895
0.2189998,-0.000102294
0.2199998,-0.0001008839
0.2209998,-9.965767E-05
0.2219998,-9.840082E-05
0.2229998,-9.689873E-05
0.2239998,-9.554992E-05
0.2249998,-9.420111E-05
0.2259998,-9.272968E-05
0.2269998,-9.131956E-05
0.2279998,-8.975616E-05
0.2289998,-8.831538E-05
0.2299998,-8.693591E-05
0.2309998,-8.537252E-05
0.2319998,-8.387043E-05
0.2329998,-8.236835E-05
0.2339998,-8.080495E-05
0.2349998,-7.924155E-05
0.2359998,-7.755554E-05
0.2369998,-7.593083E-05
0.2379998,-7.430613E-05
0.2389998,-7.25588E-05
0.2399998,-7.087279E-05
0.2409998,-6.90335E-05
0.2419998,-6.716356E-05
0.2429998,-6.535492E-05
0.2439998,-6.330105E-05
0.2449998,-6.140045E-05
0.2459998,-5.940788E-05
0.2469998,-5.72927E-05
0.2479998,-5.530014E-05
0.2489998,-5.318495E-05
0.2499998,-5.094715E-05
0.2509998,-4.886262E-05
0.2519998,-4.641024E-05
0.2529998,-4.414178E-05
0.2539998,-4.178136E-05
0.2549998,-3.923701E-05
0.2559998,-3.672331E-05
0.2569998,-3.414831E-05
0.2579998,-3.142003E-05
0.2589998,-2.875306E-05
0.2599998,-2.587151E-05
0.2609998,-2.302061E-05
0.2619998,-1.998578E-05
0.2629998,-1.670571E-05
0.2639998,-1.367088E-05
0.2649998,-1.029885E-05
0.2659998,-6.670373E-06
0.2669998,-3.390307E-06
0.2679998,4.936595E-07
0.2689998,4.205959E-06
0.2699998,7.994895E-06
0.2709998,1.225898E-05
0.2719998,1.631461E-05
0.2729998,2.04898E-05
0.2739998,2.526074E-05
0.2749998,2.973635E-05
0.2759998,3.470243E-05
0.2769998,3.951524E-05
0.2779998,4.460394E-05
0.2789998,5.012181E-05
0.2799998,5.554771E-05
0.2809998,6.140278E-05
0.2819998,6.738048E-05
0.2829998,7.348078E-05
0.2839998,8.037812E-05
0.2849998,8.696891E-05
0.2859998,9.401952E-05
0.2869998,0.0001015299
0.2879998,0.0001091017
0.2889998,0.0001171946
0.2899998,0.0001257166
0.2909998,0.000134208
0.2919998,0.0001436497
0.2929998,0.0001531527
0.2939998,0.0001629929
0.2949998,0.0001739366
0.2959998,0.0001847885
0.2969998,0.000196192
0.2979998,0.000208454
0.2989998,0.0002209918
0.2999998,0.0002346639
0.3009998,0.0002487344
0.3019998,0.0002633568
0.3029998,0.0002791134
0.3039998,0.0002952991
0.3049998,0.0003163695
0.3059998,0.0003341493
0.3069998,0.0003537684
0.3079998,0.0003743071
0.3089998,0.0003954589
0.3099998,0.0004184501
0.3109998,0.0004429739
0.3119998,0.0004681109
0.3129998,0.0004953937
0.3139998,0.0005245158
0.3149998,0.0005545575
0.3159998,0.0005876647
0.3169998,0.0006216916
0.3179998,0.0006578643
0.3189998,0.0006977156
0.3199998,0.0007390995
0.3209998,0.000783549
0.3219998,0.0008307575
0.3229998,0.0008810314
0.3239998,0.0009352904
0.3249998,0.000992615
0.3259998,0.001054844
0.3269998,0.001120446
0.3279998,0.001190645
0.3289998,0.001266976
0.3299998,0.001347598
0.3309998,0.001434044
0.3319998,0.001527848
0.3329998,0.001626557
0.3339998,0.001734462
0.3349998,0.001850031
0.3359998,0.00197173
0.3369998,0.002105385
0.3379998,0.002247624
0.3389998,0.002399978
0.3399998,0.002564288
0.3409998,0.002737488
0.3419998,0.002923869
0.3429998,0.003151433
0.3439998,0.003359886
0.3449998,0.003583666
0.3459998,0.003819708
0.3469998,0.004064947
0.3479998,0.004325512
0.3489998,0.004595275
0.3499998,0.0048773
0.3509998,0.005165454
0.3519998,0.005465872
0.3529998,0.005769355
0.3539998,0.006082034
0.3549998,0.006397779
0.3559998,0.006719654
0.3569998,0.00704153
0.3579998,0.007369536
0.3589998,0.007697543
0.3599998,0.008016353
0.3609998,0.008335164
0.3619998,0.008653974
0.3629998,0.008960522
0.3639998,0.00926707
0.3649998,0.009567488
0.3659998,0.009855643
0.3669998,0.01014073
0.3679998,0.01041663
0.3689998,0.01068945
0.3699998,0.01094695
0.3709998,0.01120752
0.3719998,0.01145582
0.3729998,0.01169493
0.3739998,0.01193097
0.3749998,0.01215782
0.3759998,0.0123724
0.3769998,0.01259312
0.3779998,0.01279237
0.3789998,0.01299163
0.3799998,0.01319089
0.3809998,0.01336868
0.3819998,0.01354342
0.3829998,0.01371508
0.3839998,0.01386529
0.3849998,0.0140247
0.3859998,0.01416571
0.3869998,0.01429446
0.3879998,0.01442628
0.3889998,0.0145397
0.3899998,0.01464393
0.3909998,0.01474815
0.3919998,0.01483399
0.3929998,0.01491062
0.3939998,0.01499033
0.3949998,0.0150455
0.3959998,0.01510068
0.3969998,0.01515586
0.3979998,0.01519265
0.3989998,0.01522943
0.3999998,0.01526009
0.4009998,0.01528155
0.4019998,0.01529687
0.4029998,0.01530607
0.4039998,0.01531527
0.4049998,0.01530607
0.4059998,0.01530914
0.4069998,0.01529381
0.4079998,0.01526929
0.4089998,0.01525702
0.4099998,0.01522637
0.4109998,0.01518958
0.4119998,0.0151528
0.4129998,0.01509762
0.4139998,0.0150455
0.4149998,0.01499033
0.4159998,0.01491369
0.4169998,0.01484931
0.4179998,0.01476348
0.4189998,0.01466845
0.4199998,0.01458262
0.4209998,0.01447533
0.4219998,0.01436497
0.4229998,0.01425768
0.4239998,0.01412586
0.4249998,0.01399711
0.4259998,0.01386223
0.4269998,0.01370895
0.4279998,0.01355875
0.4289998,0.01340547
0.4299998,0.01323074
0.4309998,0.01306214
0.4319998,0.01288434
0.4329998,0.01269428
0.4339998,0.01250422
0.4349998,0.01231109
0.4359998,0.0121149
0.4369998,0.01190645
0.4379998,0.01170719
0.4389998,0.01150487
0.4399998,0.01128416
0.4409998,0.01109103
0.4419998,0.01088258
0.4429998,0.01067719
0.4439998,0.0104902
0.4449998,0.01028175
0.4459998,0.01009475
0.4469998,0.009910822
0.4479998,0.009726893
0.4489998,0.009561357
0.4499998,0.009395821
0.4509998,0.009230284
0.4519998,0.009089272
0.4529998,0.00894826
0.4539998,0.008816444
0.4549998,0.00869689
0.4559998,0.008583468
0.4569998,0.008482307
0.4579998,0.008393408
0.4589998,0.008313705
0.4599998,0.008243199
0.4609998,0.008191085
0.4619998,0.008145104
0.4629998,0.008108318
0.4639998,0.008086859
0.4649998,0.008071532
0.4659998,0.008071532
0.4669998,0.008083794
0.4679998,0.008111384
0.4689998,0.008145104
0.4699998,0.008194151
0.4709998,0.008252396
0.4719998,0.008325968
0.4729998,0.0084118
0.4739998,0.008503765
0.4749998,0.008611057
0.4759998,0.008733677
0.4769998,0.008853231
0.4779998,0.008997308
0.4789998,0.009150582
0.4799998,0.009309988
0.4809998,0.009484719
0.4819998,0.009668648
0.4829998,0.009855643
0.4839998,0.01005796
0.4849998,0.01026948
0.4859998,0.01048407
0.4869998,0.01071091
0.4879998,0.01095002
0.4889998,0.01119219
0.4899998,0.0114405
0.4909998,0.01170719
0.4919998,0.01196163
0.4929998,0.01223752
0.4939998,0.01251955
0.4949998,0.01279544
0.4959998,0.01308973
0.4969998,0.01338708
0.4979998,0.0136875
0.4989998,0.01400017
0.4999998,0.01431592
0.5009998,0.01462553
0.5019998,0.01495354
0.5029998,0.01527848
0.5039998,0.01560342
0.5049998,0.01594676
0.5059998,0.01628396
0.5069998,0.01662116
0.5079998,0.01697369
0.5089998,0.01732622
0.5099998,0.01767262
0.5109998,0.01803435
0.5119998,0.01839914
0.5129998,0.01876087
0.5139998,0.01913486
0.5149998,0.01949658
0.5159998,0.01987057
0.5169998,0.02024456
0.5179998,0.02061855
0.5189998,0.02100174
0.5199998,0.02138492
0.5209998,0.02176504
0.5219998,0.02215436
0.5229998,0.02254061
0.5239998,0.02292686
0.5249998,0.02332231
0.5259998,0.02371776
0.5269998,0.02410707
0.5279998,0.02450558
0.5289998,0.02491329
0.5299998,0.02530568
0.5309998,0.02571339
0.5319998,0.02612416
0.5329998,0.02651348
0.5339998,0.02693345
0.5349998,0.02733809
0.5359998,0.02773967
0.5369998,0.02815964
0.5379998,0.02856428
0.5389998,0.02897506
0.5399998,0.02939809
0.5409998,0.02980581
0.5419998,0.03022577
0.5429998,0.03142237
0.5439998,0.03182088
0.5449998,0.03225004
0.5459998,0.03267921
0.5469998,0.03307773
0.5479998,0.03350689
0.5489998,0.03393606
0.5499998,0.03436523
0.5509998,0.0347944
0.5519998,0.03522356
0.5529998,0.03565273
0.5539998,0.03611255
0.5549998,0.03654172
0.5559998,0.03697089
0.5569998,0.03743071
0.5579998,0.03785988
0.5589998,0.03828905
0.5599998,0.03874887
0.5609998,0.03917804
0.5619998,0.0396072
0.5629998,0.04006703
0.5639998,0.04049619
0.5649998,0.04095602
0.5659998,0.04138518
0.5669998,0.04184501
0.5679998,0.04227417
0.5689998,0.04273399
0.5699998,0.04316316
0.5709998,0.04362299
0.5719998,0.04408281
0.5729998,0.04451197
0.5739998,0.0449718
0.5749998,0.04543162
0.5759998,0.04586079
0.5769998,0.04632061
0.5779998,0.04678043
0.5789998,0.0472096
0.5799998,0.04766942
0.5809998,0.04812925
0.5819998,0.04858907
0.5829998,0.04901823
0.5839998,0.04947806
0.5849998,0.04993788
0.5859998,0.05036705
0.5869998,0.05082687
0.5879998,0.05128669
0.5889998,0.05171586
0.5899998,0.05220634
0.5909998,0.05266616
0.5919998,0.05312598
0.5929998,0.0535858
0.5939998,0.05404563
0.5949998,0.05450545
0.5959998,0.05496527
0.5969998,0.05539444
0.5979998,0.05588492
0.5989998,0.05634474
0.5999998,0.05680456
0.6009998,0.05726438
0.6019998,0.05769355
0.6029998,0.05818403
0.6039998,0.05864385
0.6049998,0.05910368
0.6059998,0.0595635
0.6069998,0.06005397
0.6079998,0.06048314
0.6089998,0.06097361
0.6099998,0.06143344
0.6109998,0.06189326
0.6119998,0.06235309
0.6129998,0.06284356
0.6139998,0.06330338
0.6149998,0.06376321
0.6159998,0.06425368
0.6169998,0.06468286
0.6179998,0.06517333
0.6189998,0.06563315
0.6199998,0.06606232
0.6209998,0.0665528
0.6219998,0.06701262
0.6229998,0.06747244
0.6239998,0.06793226
0.6249998,0.06842274
0.6259998,0.06888256
0.6269998,0.06934239
0.6279998,0.06986352
0.6289998,0.07029268
0.6299998,0.07078316
0.6309998,0.07124298
0.6319998,0.07170281
0.6329998,0.07219329
0.6339998,0.07265311
0.6349998,0.07311293
0.6359998,0.07360341
0.6369998,0.07406323
0.6379998,0.07452305
0.6389998,0.07501353
0.6399998,0.07547335
0.6409998,0.07593317
0.6419998,0.07642365
0.6429998,0.07688347
0.6439998,0.07737394
0.6449998,0.07786443
0.6459998,0.07832425
0.6469998,0.07878407
0.6479998,0.07927455
0.6489998,0.07973437
0.6499998,0.0801942
0.6509998,0.08068467
0.6519998,0.0811445
0.6529998,0.08160432
0.6539998,0.0820948
0.6549998,0.08255462
0.6559998,0.08301444
0.6569998,0.08350492
0.6579998,0.08396474
0.6589998,0.08445521
0.6599998,0.08494569
0.6609998,0.08540551
0.6619998,0.08589599
0.6629998,0.08635581
0.6639998,0.08684629
0.6649998,0.08730611
0.6659998,0.08779659
0.6669998,0.08825641
0.6679998,0.08871623
0.6689998,0.08923737
0.6699998,0.08969719
0.6709998,0.09015701
0.6719998,0.09064749
0.6729998,0.09113797
0.6739998,0.09156714
0.6749998,0.09208827
0.6759998,0.09257875
0.6769998,0.09303857
0.6779998,0.0935597
0.6789998,0.09401952
0.6799998,0.09447934
0.6809998,0.09496982
0.6819998,0.0954603
0.6829998,0.09588946
0.6839998,0.09641059
0.6849998,0.09687041
0.6859998,0.09733024
0.6869998,0.09785137
0.6879998,0.09831119
0.6889998,0.09877102
0.6899998,0.09926149
0.6909998,0.09972132
0.6919998,0.1002118
0.6929998,0.1007023
0.6939998,0.1011621
0.6949998,0.1016526
0.6959998,0.102143
0.6969998,0.1026335
0.6979998,0.1030933
0.6989998,0.1035838
0.6999998,0.1037064
0.6990003,0.1032466
0.6980003,0.1027561
0.6970003,0.1022963
0.6960003,0.1018058
0.6950003,0.101346
0.6940003,0.1008555
0.6930003,0.1003957
0.6920003,0.0999359
0.6910003,0.09947608
0.6900003,0.09901626
0.6890003,0.09855644
0.6880003,0.09806596
0.6870003,0.09760614
0.6860003,0.09714631
0.6850003,0.09668649
0.6840003,0.09622667
0.6830003,0.09573619
0.6820003,0.09527637
0.6810003,0.09481654
0.6800003,0.09432607
0.6790003,0.09386625
0.6780003,0.09340642
0.6770003,0.09291594
0.6760003,0.09245612
0.6750003,0.0919963
0.6740003,0.09150583
0.6730003,0.091046
0.6720003,0.09061684
0.6710003,0.0900957
0.6700003,0.08963588
0.6690003,0.08917606
0.6680003,0.08871623
0.6670003,0.08825641
0.6660003,0.08779659
0.6650003,0.08733677
0.6640003,0.08684629
0.6630003,0.08638646
0.6620003,0.08592664
0.6610003,0.08546682
0.6600003,0.085007
0.6590003,0.08451653
0.6580003,0.08402605
0.6570003,0.08356623
0.6560003,0.0831064
0.6550003,0.08264658
0.6540003,0.08218676
0.6530003,0.08172693
0.6520003,0.08123646
0.6510003,0.08080729
0.6500003,0.08034747
0.6490003,0.07985699
0.6480003,0.07942782
0.6470003,0.078968
0.6460003,0.07847752
0.6450003,0.07804836
0.6440003,0.07755788
0.6430003,0.07709806
0.6420003,0.07663824
0.6410003,0.07617841
0.6400003,0.07571859
0.6390003,0.07525877
0.6380003,0.07479894
0.6370003,0.07433912
0.6360003,0.07387929
0.6350003,0.07341947
0.6340003,0.07295965
0.6330003,0.07249983
0.6320003,0.07200935
0.6310003,0.07158019
0.6300003,0.07112037
0.6290003,0.07062989
0.6280003,0.07020072
0.6270003,0.0697409
0.6260003,0.06925042
0.6250003,0.0687906
0.6240003,0.06833078
0.6230003,0.06787095
0.6220003,0.06744178
0.6210003,0.06698196
0.6200003,0.06652214
0.6190003,0.06603166
0.6180003,0.0656025
0.6170003,0.06514268
0.6160003,0.06468286
0.6150003,0.06422303
0.6140003,0.06376321
0.6130003,0.06330338
0.6120003,0.06284356
0.6110003,0.06238374
0.6100003,0.06195457
0.6090003,0.06149475
0.6080003,0.06103493
0.6070003,0.06057511
0.6060003,0.06011529
0.6050003,0.05968611
0.6040003,0.05922629
0.6030003,0.05876647
0.6020003,0.05830665
0.6010003,0.05787748
0.6000003,0.05741766
0.5990003,0.05695784
0.5980003,0.05652867
0.5970003,0.05606885
0.5960003,0.05560903
0.5950003,0.05517985
0.5940003,0.05472003
0.5930003,0.05429087
0.5920003,0.05383104
0.5910003,0.05337122
0.5900003,0.05294205
0.5890003,0.05248223
0.5880003,0.05202241
0.5870003,0.05159324
0.5860003,0.05113342
0.5850003,0.05067359
0.5840003,0.05024443
0.5830003,0.04981526
0.5820003,0.04935544
0.5810003,0.04892627
0.5800003,0.04846645
0.5790003,0.04803728
0.5780003,0.04760811
0.5770003,0.04714829
0.5760003,0.04671912
0.5750003,0.0462593
0.5740003,0.04579948
0.5730003,0.04537031
0.5720003,0.04494114
0.5710003,0.04448132
0.5700003,0.04405215
0.5690003,0.04362299
0.5680003,0.04319382
0.5670003,0.04276465
0.5660003,0.04233548
0.5650003,0.04187566
0.5640003,0.04144649
0.5630003,0.04098667
0.5620003,0.0405575
0.5610003,0.04015899
0.5600003,0.03969917
0.5590003,0.03927
0.5580003,0.03887149
0.5570003,0.03841167
0.5560003,0.0379825
0.5550003,0.03758398
0.5540003,0.03712416
0.5530003,0.036695
0.5520003,0.03629648
0.5510003,0.03583666
0.5500003,0.03540749
0.5490003,0.03500898
0.5480003,0.03457981
0.5470003,0.03415065
0.5460003,0.03375213
0.5450003,0.03332296
0.5440003,0.0328938
0.5430003,0.03249529
0.5420003,0.03206612
0.5410003,0.03163695
0.5400003,0.03123844
0.5390003,0.03080927
0.5380003,0.03041076
0.5370003,0.02998159
0.5360003,0.02955242
0.5350003,0.02915391
0.5340003,0.02875539
0.5330003,0.02832623
0.5320003,0.02792772
0.5310003,0.0275292
0.5300003,0.02710003
0.5290003,0.02670152
0.5280003,0.02630301
0.5270003,0.0259045
0.5260003,0.02550598
0.5250003,0.02510747
0.5240003,0.0246783
0.5230003,0.02431045
0.5220003,0.02391193
0.5210003,0.02351342
0.5200003,0.02311491
0.5190003,0.02271639
0.5180003,0.02231788
0.5170003,0.02195002
0.5160003,0.02155151
0.5150003,0.021153
0.5140003,0.02078514
0.5130003,0.02038663
0.5120003,0.01998811
0.5110003,0.01962026
0.5100003,0.0192524
0.5090003,0.01885389
0.5080003,0.01848603
0.5070003,0.01814882
0.5060003,0.01775031
0.5050003,0.01738245
0.5040003,0.0170146
0.5030003,0.01667739
0.5020003,0.01630954
0.5010003,0.01594168
0.5000003,0.01557382
0.4990003,0.01520596
0.4980003,0.01486876
0.4970003,0.0145009
0.4960003,0.0141637
0.4950003,0.01379584
0.4940003,0.01345864
0.4930003,0.01312143
0.4920003,0.0122835
0.4910003,0.0119555
0.4900003,0.01162136
0.4890003,0.01129029
0.4880003,0.01097148
0.4870003,0.01064654
0.4860003,0.01032773
0.4850003,0.01001505
0.4840003,0.009702369
0.4830003,0.00938969
0.4820003,0.009083142
0.4810003,0.008782724
0.4800003,0.008479241
0.4790003,0.008178824
0.4780003,0.007890669
0.4770003,0.007596382
0.4760003,0.007308227
0.4750003,0.007029268
0.4740003,0.006744178
0.4730003,0.006471351
0.4720003,0.006204653
0.4710003,0.005931825
0.4700003,0.005671259
0.4690003,0.005413759
0.4680003,0.005156258
0.4670003,0.004904889
0.4660003,0.00465965
0.4650003,0.004417477
0.4640003,0.004181435
0.4630003,0.003942328
0.4620003,0.003715482
0.4610003,0.003491701
0.4600003,0.003270986
0.4590003,0.003059468
0.4580003,0.00284795
0.4570003,0.002642563
0.4560003,0.002446372
0.4550003,0.002247115
0.4540003,0.002057055
0.4530003,0.001873127
0.4520003,0.001695329
0.4510003,0.001520596
0.4500003,0.001345864
0.4490003,0.001183393
0.4480003,0.0009916953
0.4470003,0.0008335165
0.4460003,0.0006854536
0.4450003,0.0005395366
0.4440003,0.000396072
0.4430003,0.0002627235
0.4420003,0.0001281489
0.4410003,-2.94875E-07
0.4400003,-0.0001241509
0.4390003,-0.0002452068
0.4380003,-0.0003569743
0.4370003,-0.0004680876
0.4360003,-0.0005741533
0.4350003,-0.0006722487
0.4340003,-0.00077249
0.4330003,-0.000864761
0.4320003,-0.0009548862
0.4310003,-0.001046238
0.4300003,-0.001126247
0.4290003,-0.001208402
0.4280003,-0.001289943
0.4270003,-0.001360143
0.4260003,-0.001432489
0.4250003,-0.001502075
0.4240003,-0.001565224
0.4230003,-0.001632971
0.4220003,-0.001693361
0.4210003,-0.001750686
0.4200003,-0.001809543
0.4190003,-0.001861963
0.4180003,-0.001915915
0.4170003,-0.001966802
0.4160003,-0.002015237
0.4150003,-0.002065204
0.4140003,-0.002109654
0.4130003,-0.002154716
0.4120003,-0.002198859
0.4110003,-0.002238097
0.4100003,-0.002289291
0.4090003,-0.002334047
0.4080003,-0.002368074
0.4070003,-0.002407925
0.4060003,-0.002441032
0.4050003,-0.002478125
0.4040003,-0.00251583
0.4030003,-0.002548324
0.4020003,-0.002584497
0.4010003,-0.00261975
0.4000003,-0.002650405
0.3990003,-0.002686884
0.3980003,-0.002718765
0.3970003,-0.002752179
0.3960003,-0.002787738
0.3950003,-0.002817167
0.3940003,-0.002850887
0.3930003,-0.002883381
0.3920003,-0.00291373
0.3910003,-0.00294837
0.3900003,-0.002980557
0.3890003,-0.003013051
0.3880003,-0.003010187
0.3870003,-0.003040842
0.3860003,-0.003074562
0.3850003,-0.003105217
0.3840003,-0.003135872
0.3830003,-0.003172658
0.3820003,-0.003200247
0.3810003,-0.003237033
0.3800003,-0.003273819
0.3790003,-0.003301408
0.3780003,-0.003341259
0.3770003,-0.003378045
0.3760003,-0.0034087
0.3750003,-0.003445486
0.3740003,-0.003479206
0.3730003,-0.003512926
0.3720003,-0.003552777
0.3710003,-0.003589563
0.3700003,-0.003626349
0.3690003,-0.003663135
0.3680003,-0.003699921
0.3670003,-0.003739772
0.3660003,-0.003776558
0.3650003,-0.003816409
0.3640003,-0.003859326
0.3630003,-0.003893046
0.3620003,-0.003935963
0.3610003,-0.00397888
0.3600003,-0.004015665
0.3590003,-0.004061648
0.3580003,-0.004104564
0.3570003,-0.004147481
0.3560003,-0.004190398
0.3550003,-0.004230249
0.3540003,-0.004276231
0.3530003,-0.004319148
0.3520003,-0.00436513
0.3510003,-0.004414178
0.3500003,-0.004457095
0.3490003,-0.004506143
0.3480003,-0.004552125
0.3470003,-0.004598107
0.3460003,-0.00465022
0.3450003,-0.004699268
0.3440003,-0.004748316
0.3430003,-0.004803495
0.3420003,-0.004849477
0.3410003,-0.00490159
0.3400003,-0.004956769
0.3390003,-0.005005816
0.3380003,-0.005060995
0.3370003,-0.005116174
0.3360003,-0.005165222
0.3350003,-0.005223466
0.3340003,-0.005278645
0.3330003,-0.005330757
0.3320003,-0.005392067
0.3310003,-0.005447246
0.3300003,-0.00550549
0.3290003,-0.0055668
0.3280003,-0.005625044
0.3270003,-0.005683288
0.3260003,-0.005747663
0.3250003,-0.005808973
0.3240003,-0.005870283
0.3230003,-0.005931592
0.3220003,-0.005992902
0.3210003,-0.006054211
0.3200003,-0.006124718
0.3190003,-0.006189092
0.3180003,-0.006250402
0.3170003,-0.006320909
0.3160003,-0.006388349
0.3150003,-0.006449659
0.3140003,-0.00652323
0.3130003,-0.006590671
0.3120003,-0.006655046
0.3110003,-0.006731683
0.3100003,-0.006799124
0.3090003,-0.006866564
0.3080003,-0.006943201
0.3070003,-0.007019838
0.3060003,-0.007090344
0.3050003,-0.007163916
0.3040003,-0.007234422
0.3030003,-0.007311059
0.3020003,-0.007384631
0.3010003,-0.007461268
0.3000003,-0.007537905
0.2990003,-0.007608411
0.2980003,-0.007688113
0.2970003,-0.007764751
0.2960003,-0.007841388
0.2950003,-0.00792109
0.2940003,-0.007997727
0.2930003,-0.00807743
0.2920003,-0.008157132
0.2910003,-0.00823377
0.2900003,-0.008319603
0.2890003,-0.008402371
0.2880003,-0.008479008
0.2870003,-0.008564842
0.2860003,-0.00864761
0.2850003,-0.008727312
0.2840003,-0.008816211
0.2830003,-0.008902045
0.2820003,-0.008981747
0.2810003,-0.00906758
0.2800003,-0.009159545
0.2790003,-0.009245379
0.2780003,-0.009331211
0.2770003,-0.009423177
0.2760003,-0.009515141
0.2750003,-0.009600975
0.2740003,-0.009696005
0.2730003,-0.009787968
0.2720003,-0.009876868
0.2710003,-0.009974963
0.2700003,-0.01006693
0.2690003,-0.01015889
0.2680003,-0.01026005
0.2670003,-0.01034895
0.2660003,-0.01045318
0.2650003,-0.01054821
0.2640003,-0.01064937
0.2630003,-0.0107536
0.2620003,-0.01085169
0.2610003,-0.01095898
0.2600003,-0.01106014
0.2590003,-0.01115824
0.2580003,-0.01126247
0.2570003,-0.01135137
0.2560003,-0.01144026
0.2550003,-0.01152303
0.2540003,-0.01158434
0.2530003,-0.01163952
0.2520003,-0.01168244
0.2510003,-0.01169163
0.2500003,-0.01169163
0.2490003,-0.01166711
0.2480003,-0.01159967
0.2470003,-0.0115169
0.2460003,-0.01138815
0.2450003,-0.01121035
0.2440003,-0.01100497
0.2430003,-0.0107444
0.2420003,-0.01042559
0.2410003,-0.01008226
0.2400003,-0.009702136
0.2390003,-0.009291361
0.2380003,-0.008880586
0.2370003,-0.008469812
0.2360003,-0.00804984
0.2350003,-0.007663589
0.2340003,-0.007298797
0.2330003,-0.006940136
0.2320003,-0.006627456
0.2310003,-0.00633317
0.2300003,-0.006060342
0.2290003,-0.005812038
0.2280003,-0.005594389
0.2270003,-0.005385936
0.2260003,-0.005195876
0.2250003,-0.005027275
0.2240003,-0.004864804
0.2230003,-0.004714595
0.2220003,-0.004576649
0.2210003,-0.004441767
0.2200003,-0.004319148
0.2190003,-0.004205726
0.2180003,-0.004089237
0.2170003,-0.003985011
0.2160003,-0.003886915
0.2150003,-0.003791885
0.2140003,-0.003699921
0.2130003,-0.003611021
0.2120003,-0.003528254
0.2110003,-0.003445486
0.2100003,-0.003368848
0.2090003,-0.003292212
0.2080003,-0.003221706
0.2070003,-0.003151199
0.2060003,-0.003080693
0.2050003,-0.003019383
0.2040003,-0.002955008
0.2030003,-0.002890633
0.2020003,-0.002832389
0.2010003,-0.002774145
0.2000003,-0.002712835
0.1990003,-0.002654591
0.1980003,-0.002596347
0.1970003,-0.002538103
0.1960003,-0.002479859
0.1950003,-0.002427745
0.1940003,-0.002378698
0.1930003,-0.002332716
0.1920003,-0.002289799
0.1910003,-0.002249948
0.1900003,-0.002210096
0.1890003,-0.00217331
0.1880003,-0.002136525
0.1870003,-0.002102804
0.1860003,-0.002072149
0.1850003,-0.002041495
0.1840003,-0.00201084
0.1830003,-0.001980185
0.1820003,-0.001952596
0.1810003,-0.001925006
0.1800003,-0.001900482
0.1790003,-0.001875959
0.1780003,-0.001851435
0.1770003,-0.001826911
0.1760003,-0.001802387
0.1750003,-0.001780929
0.1740003,-0.00175947
0.1730003,-0.001738012
0.1720003,-0.001716554
0.1710003,-0.001698161
0.1700003,-0.001676702
0.1690003,-0.001658309
0.1680003,-0.001639916
0.1670003,-0.001621523
0.1660003,-0.001639102
0.1650003,-0.001621935
0.1640003,-0.001605075
0.1630003,-0.001588522
0.1620003,-0.001572274
0.1610003,-0.001556334
0.1600003,-0.001541313
0.1590003,-0.001525986
0.1580003,-0.001511578
0.1570003,-0.001496864
0.1560003,-0.001482456
0.1550003,-0.001468355
0.1540003,-0.001454866
0.1530003,-0.001441685
0.1520003,-0.001428503
0.1510003,-0.001415628
0.1500003,-0.001402753
0.1490003,-0.001390491
0.1480003,-0.001378843
0.1470003,-0.001366581
0.1460003,-0.001355238
0.1450003,-0.001343896
0.1440003,-0.001332247
0.1430003,-0.001321518
0.1420003,-0.001310482
0.1410003,-0.001299753
0.1400003,-0.00128933
0.1390003,-0.001278908
0.1380003,-0.001268792
0.1370003,-0.001258982
0.1360003,-0.001248866
0.1350003,-0.00123967
0.1340003,-0.001230167
0.1330003,-0.001220664
0.1320003,-0.001211774
0.1310003,-0.001202884
0.1300003,-0.001193687
0.1290003,-0.001185104
0.1280003,-0.001176214
0.1270003,-0.001167631
0.1260003,-0.001159354
0.1250003,-0.001151077
0.1240003,-0.001143107
0.1230003,-0.001135137
0.1220003,-0.001127166
0.1210003,-0.001119503
0.1200003,-0.001111839
0.1190003,-0.001104482
0.1180003,-0.001096818
0.1170003,-0.001089461
0.1160003,-0.001082717
0.1150003,-0.00107536
0.1140003,-0.001068616
0.1130003,-0.001061565
0.1120003,-0.001054821
0.1110003,-0.001048077
0.1100003,-0.001041333
0.1090003,-0.001034895
0.1080003,-0.001028151
0.1070003,-0.001021714
0.1060003,-0.001015276
0.1050003,-0.001009145
0.1040003,-0.001003014
0.1030003,-0.0009971899
0.1020003,-0.0009910589
0.1010003,-0.0009852345
0.1000003,-0.00097941
0.09900028,-0.0009735856
0.09800029,-0.0009677612
0.09700029,-0.0009622434
0.09600028,-0.0009567254
0.09500029,-0.0009515142
0.09400029,-0.0009459963
0.09300029,-0.0009404784
0.09200028,-0.0009352671
0.09100029,-0.0009300558
0.09000029,-0.0009248445
0.08900028,-0.0009199397
0.08800028,-0.0009147284
0.08700029,-0.0009098236
0.08600029,-0.0009046123
0.08500028,-0.0008997075
0.08400029,-0.0008951093
0.08300029,-0.0008902045
0.08200029,-0.0008856063
0.08100028,-0.0008807015
0.08000029,-0.0008761032
0.07900029,-0.0008715051
0.07800028,-0.0008669068
0.07700028,-0.0008626151
0.07600029,-0.000858017
0.07500029,-0.0008537253
0.07400028,-0.000849127
0.07300029,-0.0008451419
0.07200029,-0.0008408502
0.07100029,-0.0008365586
0.07000028,-0.0008325735
0.06900029,-0.0008279752
0.06800029,-0.0008242966
0.06700028,-0.0008203115
0.06600028,-0.0008163264
0.06500029,-0.0008123412
0.06400029,-0.0008083562
0.06300028,-0.0008046775
0.06200029,-0.0008006924
0.06100029,-0.0007970139
0.06000029,-0.0007930287
0.05900029,-0.0007893501
0.05800029,-0.0007856716
0.05700029,-0.000781993
0.05600028,-0.0007783144
0.05500029,-0.0007746358
0.05400028,-0.0007712637
0.05300029,-0.0007675852
0.05200029,-0.0007642132
0.05100029,-0.0007608412
0.05000029,-0.0007574691
0.04900029,-0.0007540971
0.04800029,-0.000750725
0.04700029,-0.0007476595
0.04600029,-0.0007442875
0.04500028,-0.0007409155
0.04400029,-0.00073785
0.04300028,-0.0007344779
0.04200029,-0.0007314125
0.04100028,-0.000728347
0.04000029,-0.000724975
0.03900029,-0.0007219095
0.03800029,-0.000718844
0.03700029,-0.0007157786
0.03600029,-0.0007130196
0.03500029,-0.0007096475
0.03400028,-0.0007068887
0.03300029,-0.0007038232
0.03200028,-0.0007007577
0.03100029,-0.0006979987
0.03000029,-0.0006952398
0.02900029,-0.0006921744
0.02800029,-0.0006894154
0.02700029,-0.0006866565
0.02600029,-0.0006838975
0.02500029,-0.0006808321
0.02400029,-0.0006783796
0.02300029,-0.0006753142
0.02200029,-0.0006728618
0.02100029,-0.0006701029
0.02000029,-0.000667344
0.01900029,-0.0006648915
0.01800029,-0.0006618261
0.01700029,-0.0006593736
0.01600029,-0.0006566148
0.01500029,-0.0006541623
0.01400029,-0.0006514034
0.01300029,-0.000648951
0.01200029,-0.0006464986
0.01100029,-0.0006440463
0.01000029,-0.0006415938
0.009000286,-0.000639448
0.008000286,-0.0006366891
0.007000286,-0.0006342367
0.006000286,-0.0006317843
0.005000286,-0.0006296384
0.004000286,-0.0006271861
0.003000286,-0.0006250403
0.002000286,-0.0006222813
0.001000286,-0.0006201355
2.861023E-07,-0.0006130849
0.0009997139,-0.0006023557
0.001999714,-0.0005928527
0.002999714,-0.0005845759
0.003999714,-0.0005762991
0.004999714,-0.0005686354
0.005999714,-0.0005615847
0.006999714,-0.0005542276
0.007999714,-0.0005477901
0.008999714,-0.000541046
0.009999714,-0.0005349151
0.01099971,-0.0005290906
0.01199971,-0.0005232662
0.01299971,-0.0005177484
0.01399971,-0.0005122305
0.01499971,-0.0005067126
0.01599971,-0.0005018078
0.01699971,-0.0004969031
0.01799971,-0.0004916918
0.01899971,-0.000486787
0.01999971,-0.0004821887
0.02099971,-0.0004775905
0.02199971,-0.0004729923
0.02299971,-0.0004687006
0.02399971,-0.0004641024
0.02499971,-0.0004601173
0.02599971,-0.0004558256
0.02699971,-0.0004518405
0.02799971,-0.0004478553
0.02899971,-0.0004438702
0.02999971,-0.0004401917
0.03099971,-0.000436513
0.03199971,-0.0004328345
0.03299971,-0.0004291559
0.03399972,-0.0004254773
0.03499971,-0.0004221053
0.03599972,-0.0004184267
0.03699971,-0.0004150547
0.03799972,-0.0004116826
0.03899971,-0.0004083106
0.03999971,-0.0004049386
0.04099971,-0.0004018731
0.04199971,-0.0003985011
0.04299971,-0.0003954356
0.04399971,-0.0003923701
0.04499971,-0.0003889981
0.04599971,-0.0003859326
0.04699972,-0.0003831737
0.04799971,-0.0003801082
0.04899972,-0.0003770427
0.04999971,-0.0003742838
0.05099971,-0.0003715248
0.05199971,-0.0003687659
0.05299971,-0.0003657004
0.05399971,-0.0003632481
0.05499971,-0.0003601825
0.05599971,-0.0003577302
0.05699971,-0.0003549712
0.05799972,-0.0003522123
0.05899971,-0.0003497599
0.05999972,-0.0003473075
0.06099971,-0.0003448552
0.06199971,-0.0003420962
0.06299971,-0.0003396438
0.06399971,-0.0003371914
0.06499971,-0.000334739
0.06599972,-0.0003322866
0.06699971,-0.0003298343
0.06799971,-0.0003273819
0.06899972,-0.0003249295
0.06999972,-0.0003224771
0.07099971,-0.0003203313
0.07199971,-0.0003178789
0.07299972,-0.0003157331
0.07399971,-0.0003132806
0.07499971,-0.0003111348
0.07599971,-0.000308989
0.07699972,-0.0003065366
0.07799971,-0.0003043908
0.07899971,-0.0003022449
0.07999972,-0.0003000991
0.08099972,-0.0002982598
0.08199971,-0.000296114
0.08299971,-0.0002939681
0.08399972,-0.0002918223
0.08499971,-0.0002896764
0.08599971,-0.0002875306
0.08699971,-0.0002856913
0.08799972,-0.000283852
0.08899971,-0.0002817062
0.08999971,-0.0002798669
0.09099972,-0.0002780276
0.09199972,-0.0002758818
0.09299971,-0.0002740425
0.09399971,-0.0002722032
0.09499972,-0.0002700574
0.09599971,-0.000268218
0.09699971,-0.0002663788
0.09799971,-0.0002645395
0.09899972,-0.0002627002
0.09999971,-0.0002608609
0.1009997,-0.0002590216
0.1019997,-0.0002571823
0.1029997,-0.000255343
0.1039997,-0.0002535038
0.1049997,-0.000251971
0.1059997,-0.0002501317
0.1069997,-0.0002482924
0.1079997,-0.0002464531
0.1089997,-0.0002446139
0.1099997,-0.0002430811
0.1109997,-0.0002412418
0.1119997,-0.0002397091
0.1129997,-0.0002378698
0.1139997,-0.000236337
0.1149997,-0.0002344978
0.1159997,-0.000232965
0.1169997,-0.0002314323
0.1179997,-0.0002298995
0.1189997,-0.0002280602
0.1199997,-0.0002265275
0.1209997,-0.0002249948
0.1219997,-0.000223462
0.1229997,-0.0002219293
0.1239997,-0.0002203965
0.1249997,-0.0002188638
0.1259997,-0.000217331
0.1269997,-0.0002157983
0.1279997,-0.0002142656
0.1289997,-0.0002127328
0.1299997,-0.0002112001
0.1309997,-0.0002096674
0.1319997,-0.0002081346
0.1329997,-0.0002069084
0.1339997,-0.0002053757
0.1349997,-0.0002038429
0.1359997,-0.0002026167
0.1369997,-0.000201084
0.1379997,-0.0001998578
0.1389997,-0.0001983251
0.1399997,-0.0001967923
0.1409997,-0.0001952596
0.1419997,-0.0001940334
0.1429997,-0.0001925007
0.1439997,-0.0001912744
0.1449997,-0.0001897417
0.1459997,-0.0001885155
0.1469997,-0.0001869828
0.1479997,-0.0001857566
0.1489997,-0.0001845304
0.1499997,-0.0001829976
0.1509997,-0.0001817715
0.1519997,-0.0001805453
0.1529997,-0.0001790125
0.1539997,-0.0001777863
0.1549997,-0.0001765601
0.1559997,-0.0001753339
0.1569997,-0.0001738012
0.1579997,-0.000172575
0.1589997,-0.0001713488
0.1599997,-0.0001701226
0.1609997,-0.0001685899
0.1619997,-0.0001673637
0.1629997,-0.0001661375
0.1639997,-0.0001649113
0.1649997,-0.0001636851
0.1659997,-0.0001624589
0.1669997,-0.0001612327
0.1679997,-0.0001632051
0.1689997,-0.0001620096
0.1699997,-0.0001607834
0.1709997,-0.0001596185
0.1719997,-0.0001583923
0.1729997,-0.0001571048
0.1739997,-0.0001559093
0.1749997,-0.0001546524
0.1759997,-0.0001535182
0.1769997,-0.0001523533
0.1779997,-0.0001511271
0.1789997,-0.0001500236
0.1799997,-0.0001487667
0.1809997,-0.0001476325
0.1819997,-0.0001464369
0.1829997,-0.0001453027
0.1839997,-0.0001441685
0.1849997,-0.0001429423
0.1859997,-0.0001416855
0.1869997,-0.0001406125
0.1879997,-0.000139325
0.1889997,-0.0001381908
0.1899997,-0.0001370566
0.1909997,-0.0001357997
0.1919997,-0.0001346655
0.1929997,-0.0001334699
0.1939997,-0.0001322131
0.1949997,-0.0001311095
0.1959997,-0.000129822
0.1969997,-0.0001286265
0.1979997,-0.0001274616
0.1989997,-0.0001262047
0.1999997,-0.0001249786
0.2009997,-0.0001238443
0.2019997,-0.0001226181
0.2029997,-0.0001213919
0.2039997,-0.0001200738
0.2049997,-0.0001188783
0.2059997,-0.0001177134
0.2069997,-0.0001163952
0.2079997,-0.0001152303
0.2089997,-0.0001140041
0.2099997,-0.0001127166
0.2109997,-0.0001114598
0.2119997,-0.0001101416
0.2129997,-0.0001089461
0.2139997,-0.0001076892
0.2149997,-0.0001063711
0.2159997,-0.0001051449
0.2169997,-0.0001038267
0.2179997,-0.0001024779
0.2189997,-0.0001011904
0.2199997,-9.974963E-05
0.2209997,-9.840082E-05
0.2219997,-9.708267E-05
0.2229997,-9.561123E-05
0.2239997,-9.41398E-05
0.2249997,-9.269903E-05
0.2259997,-9.116629E-05
0.2269997,-8.978682E-05
0.2279997,-8.816211E-05
0.2289997,-8.675199E-05
0.2299997,-8.531121E-05
0.2309997,-8.359454E-05
0.2319997,-8.212311E-05
0.2329997,-8.04984E-05
0.2339997,-7.881239E-05
0.2349997,-7.724899E-05
0.2359997,-7.547101E-05
0.2369997,-7.3785E-05
0.2379997,-7.206832E-05
0.2389997,-7.02597E-05
0.2399997,-6.838975E-05
0.2409997,-6.664242E-05
0.2419997,-6.471117E-05
0.2429997,-6.268795E-05
0.2439997,-6.066473E-05
0.2449997,-5.867217E-05
0.2459997,-5.664895E-05
0.2469997,-5.447246E-05
0.2479997,-5.238793E-05
0.2489997,-5.011947E-05
0.2499997,-4.785102E-05
0.2509997,-4.564387E-05
0.2519997,-4.313017E-05
0.2529997,-4.070844E-05
0.2539997,-3.831736E-05
0.2549997,-3.561974E-05
0.2559997,-3.298343E-05
0.2569997,-3.031645E-05
0.2579997,-2.740424E-05
0.2589997,-2.470662E-05
0.2599997,-2.157983E-05
0.2609997,-1.851435E-05
0.2619997,-1.538755E-05
0.2629997,-1.204618E-05
0.2639997,-8.827423E-06
0.2649997,-5.38287E-06
0.2659997,-1.75947E-06
0.2669997,1.741311E-06
0.2679997,5.778551E-06
0.2689997,9.644124E-06
0.2699997,1.371508E-05
0.2709997,1.801289E-05
0.2719997,2.227391E-05
0.2729997,2.694676E-05
0.2739997,3.148367E-05
0.2749997,3.638844E-05
0.2759997,4.159976E-05
0.2769997,4.671912E-05
0.2779997,5.19611E-05
0.2789997,5.775486E-05
0.2799997,6.357927E-05
0.2809997,6.955697E-05
0.2819997,7.593317E-05
0.2829997,8.237069E-05
0.2839997,8.935999E-05
0.2849997,9.644125E-05
0.2859997,0.0001037371
0.2869997,0.000111646
0.2879997,0.0001196163
0.2889997,0.0001281077
0.2899997,0.0001369363
0.2909997,0.0001459488
0.2919997,0.0001558809
0.2929997,0.0001657825
0.2939997,0.0001762971
0.2949997,0.000187578
0.2959997,0.0001988897
0.2969997,0.0002110903
0.2979997,0.000223904
0.2989997,0.0002369323
0.2999997,0.0002513707
0.3009997,0.000266177
0.3019997,0.0002814738
0.3029997,0.0002981807
0.3039997,0.0003185153
0.3049997,0.0003362951
0.3059997,0.0003556077
0.3069997,0.0003761464
0.3079997,0.0003979113
0.3089997,0.0004205959
0.3099997,0.0004442001
0.3109997,0.0004696437
0.3119997,0.0004960068
0.3129997,0.0005245158
0.3139997,0.0005548641
0.3149997,0.000586745
0.3159997,0.0006210785
0.3169997,0.0006569446
0.3179997,0.0006949566
0.3189997,0.0007363406
0.3199997,0.000779564
0.3209997,0.0008258527
0.3219997,0.0008755135
0.3229997,0.0009276268
0.3239997,0.0009846448
0.3249997,0.001044422
0.3259997,0.00110849
0.3269997,0.00117777
0.3279997,0.001250422
0.3289997,0.001329205
0.3299997,0.001414119
0.3309997,0.001502711
0.3319997,0.001600807
0.3329997,0.001703194
0.3339997,0.001813245
0.3349997,0.001933105
0.3359997,0.002059403
0.3369997,0.002196123
0.3379997,0.002342654
0.3389997,0.002498687
0.3399997,0.002667288
0.3409997,0.002844167
0.3419997,0.003034533
0.3429997,0.003264856
0.3439997,0.003476374
0.3449997,0.00370322
0.3459997,0.003942328
0.3469997,0.004190631
0.3479997,0.004454263
0.3489997,0.004724025
0.3499997,0.005002984
0.3509997,0.005291139
0.3519997,0.005588491
0.3529997,0.00589504
0.3539997,0.006204653
0.3549997,0.006520398
0.3559997,0.006842274
0.3569997,0.007158018
0.3579997,0.007479894
0.3589997,0.007804835
0.3599997,0.008120581
0.3609997,0.008436324
0.3619997,0.008749004
0.3629997,0.009052487
0.3639997,0.009352904
0.3649997,0.009647191
0.3659997,0.00993228
0.3669997,0.0102143
0.3679997,0.01048407
0.3689997,0.01075076
0.3699997,0.01101133
0.3709997,0.01125963
0.3719997,0.01150794
0.3729997,0.01174705
0.3739997,0.01197696
0.3749997,0.01220687
0.3759997,0.01242145
0.3769997,0.01263604
0.3779997,0.01284142
0.3789997,0.01303455
0.3799997,0.0132338
0.3809997,0.01340854
0.3819997,0.01358327
0.3829997,0.01375494
0.3839997,0.01390208
0.3849997,0.01406148
0.3859997,0.01419943
0.3869997,0.01432512
0.3879997,0.0144508
0.3889997,0.01455809
0.3899997,0.01465619
0.3909997,0.01475428
0.3919997,0.01483092
0.3929997,0.01491062
0.3939997,0.01498113
0.3949997,0.01503018
0.3959997,0.01507923
0.3969997,0.01512214
0.3979997,0.01515586
0.3989997,0.01518039
0.3999997,0.01520184
0.4009997,0.01521717
0.4019997,0.01521717
0.4029997,0.01522943
0.4039997,0.0152233
0.4049997,0.01521104
0.4059997,0.01520797
0.4069997,0.01518039
0.4079997,0.0151528
0.4089997,0.0151344
0.4099997,0.01509762
0.4109997,0.0150547
0.4119997,0.01501485
0.4129997,0.01495047
0.4139997,0.01489836
0.4149997,0.01482786
0.4159997,0.01475122
0.4169997,0.01467765
0.4179997,0.01459181
0.4189997,0.01449678
0.4199997,0.01440175
0.4209997,0.01429753
0.4219997,0.01418104
0.4229997,0.01407068
0.4239997,0.01394193
0.4249997,0.01380398
0.4259997,0.01367523
0.4269997,0.01352503
0.4279997,0.01337175
0.4289997,0.01322154
0.4299997,0.01305294
0.4309997,0.01287821
0.4319997,0.01270654
0.4329997,0.01252568
0.4339997,0.01233868
0.4349997,0.01214249
0.4359997,0.01195243
0.4369997,0.01175011
0.4379997,0.01155085
0.4389997,0.01135466
0.4399997,0.01114315
0.4409997,0.01095002
0.4419997,0.01074157
0.4429997,0.01053925
0.4439997,0.01034919
0.4449997,0.01014686
0.4459997,0.00995987
0.4469997,0.009782071
0.4479997,0.009601207
0.4489997,0.009438737
0.4499997,0.009276267
0.4509997,0.009116862
0.4519997,0.008978915
0.4529997,0.008837903
0.4539997,0.008709153
0.4549997,0.008598795
0.4559997,0.008488438
0.4569997,0.008390343
0.4579997,0.008313705
0.4589997,0.008237069
0.4599997,0.008172693
0.4609997,0.008126711
0.4619997,0.008086859
0.4629997,0.008056205
0.4639997,0.008037812
0.4649997,0.008037812
0.4659997,0.008040877
0.4669997,0.008062336
0.4679997,0.008099122
0.4689997,0.008132842
0.4699997,0.00818802
0.4709997,0.008258527
0.4719997,0.008329033
0.4729997,0.008424062
0.4739997,0.008525223
0.4749997,0.008635581
0.4759997,0.0087582
0.4769997,0.008899212
0.4779997,0.009037159
0.4789997,0.009196565
0.4799997,0.009365166
0.4809997,0.009533768
0.4819997,0.009723827
0.4829997,0.009916953
0.4839997,0.01011621
0.4849997,0.01033079
0.4859997,0.01055151
0.4869997,0.01077835
0.4879997,0.01101746
0.4889997,0.0112627
0.4899997,0.01150794
0.4909997,0.01177157
0.4919997,0.01203827
0.4929997,0.01230803
0.4939997,0.01259312
0.4949997,0.01287514
0.4959997,0.01316023
0.4969997,0.01346372
0.4979997,0.013758
0.4989997,0.01406455
0.4999997,0.01438643
0.5009997,0.01469297
0.5019997,0.01501485
0.5029997,0.01534592
0.5039997,0.01567086
0.5049997,0.016005
0.5059997,0.01634527
0.5069997,0.01668554
0.5079997,0.01702887
0.5089997,0.01737527
0.5099997,0.01773087
0.5109997,0.0180834
0.5119997,0.01844512
0.5129997,0.01881298
0.5139997,0.01917164
0.5149997,0.01954257
0.5159997,0.01991656
0.5169997,0.02027522
0.5179997,0.0206584
0.5189997,0.02103546
0.5199997,0.02140945
0.5209997,0.02180183
0.5219997,0.02218195
0.5229997,0.02256207
0.5239997,0.02295751
0.5249997,0.0233499
0.5259997,0.02373308
0.5269997,0.0241316
0.5279997,0.02452704
0.5289997,0.02491943
0.5299997,0.02532407
0.5309997,0.02572565
0.5319997,0.02612416
0.5329997,0.02652574
0.5339997,0.02693345
0.5349997,0.02733503
0.5359997,0.0277458
0.5369997,0.02815964
0.5379997,0.02856428
0.5389997,0.02897506
0.5399997,0.02939196
0.5409997,0.02979967
0.5419997,0.03021658
0.5429997,0.03142237
0.5439997,0.03179022
0.5449997,0.03221939
0.5459997,0.03264856
0.5469997,0.03304707
0.5479997,0.03350689
0.5489997,0.03390541
0.5499997,0.03433457
0.5509997,0.0347944
0.5519997,0.03519291
0.5529997,0.03565273
0.5539997,0.0360819
0.5549997,0.03651107
0.5559997,0.03694023
0.5569997,0.03740006
0.5579997,0.03779857
0.5589997,0.03825839
0.5599997,0.03871821
0.5609997,0.03914738
0.5619997,0.03957655
0.5629997,0.04003637
0.5639997,0.04046554
0.5649997,0.04089471
0.5659997,0.04135453
0.5669997,0.0417837
0.5679997,0.04221286
0.5689997,0.04270334
0.5699997,0.04313251
0.5709997,0.04356168
0.5719997,0.0440215
0.5729997,0.04445067
0.5739997,0.04491049
0.5749997,0.04537031
0.5759997,0.04579948
0.5769997,0.0462593
0.5779997,0.04671912
0.5789997,0.04717895
0.5799997,0.04760811
0.5809997,0.04806793
0.5819997,0.04852776
0.5829997,0.04895693
0.5839997,0.04941675
0.5849997,0.04987657
0.5859997,0.05033639
0.5869997,0.05079622
0.5879997,0.05122538
0.5889997,0.0516852
0.5899997,0.05214503
0.5909997,0.05260485
0.5919997,0.05306467
0.5929997,0.05352449
0.5939997,0.05398431
0.5949997,0.05444414
0.5959997,0.05490396
0.5969997,0.05533313
0.5979997,0.05582361
0.5989997,0.05628343
0.5999997,0.0567126
0.6009997,0.05717242
0.6019997,0.05766289
0.6029997,0.05809207
0.6039997,0.05858254
0.6049997,0.05901171
0.6059997,0.05947153
0.6069997,0.05993135
0.6079997,0.06042183
0.6089997,0.060851
0.6099997,0.06131082
0.6109997,0.0618013
0.6119997,0.06226112
0.6129997,0.06272095
0.6139997,0.06321142
0.6149997,0.06367125
0.6159997,0.06413107
0.6169997,0.06462154
0.6179997,0.06505071
0.6189997,0.06551053
0.6199997,0.06600101
0.6209997,0.06643017
0.6219997,0.06688999
0.6229997,0.06738048
0.6239997,0.0678403
0.6249997,0.06830012
0.6259997,0.06875994
0.6269997,0.06925042
0.6279997,0.06971025
0.6289997,0.07020072
0.6299997,0.07066055
0.6309997,0.07112037
0.6319997,0.07158019
0.6329997,0.07204001
0.6339997,0.07253049
0.6349997,0.07299031
0.6359997,0.07345013
0.6369997,0.0739406
0.6379997,0.07440043
0.6389997,0.07486025
0.6399997,0.07535073
0.6409997,0.07581055
0.6419997,0.07627037
0.6429997,0.07676085
0.6439997,0.07725133
0.6449997,0.07771116
0.6459997,0.07820163
0.6469997,0.07866146
0.6479997,0.07912128
0.6489997,0.07961175
0.6499997,0.08007158
0.6509997,0.0805314
0.6519997,0.08102188
0.6529997,0.0814817
0.6539997,0.08194152
0.6549997,0.08243199
0.6559997,0.08289181
0.6569997,0.08335164
0.6579997,0.08384212
0.6589997,0.08433259
0.6599997,0.08479242
0.6609997,0.08528289
0.6619997,0.08577337
0.6629997,0.08620254
0.6639997,0.08672367
0.6649997,0.0871835
0.6659997,0.08764332
0.6669997,0.0881338
0.6679997,0.08859362
0.6689997,0.08905344
0.6699997,0.08954392
0.6709997,0.09000374
0.6719997,0.09049422
0.6729997,0.09095404
0.6739997,0.09141386
0.6749997,0.09190433
0.6759997,0.09239481
0.6769997,0.09288529
0.6779997,0.09334511
0.6789997,0.09383559
0.6799997,0.09429541
0.6809997,0.09478589
0.6819997,0.09527637
0.6829997,0.09570553
0.6839997,0.09622667
0.6849997,0.09671714
0.6859997,0.09717696
0.6869997,0.09766745
0.6879997,0.09812727
0.6889997,0.09861775
0.6899997,0.09910822
0.6909997,0.09956805
0.6919997,0.1000585
0.6929997,0.100549
0.6939997,0.1010088
0.6949997,0.1014686
0.6959997,0.1019898
0.6969997,0.1024496
0.6979997,0.1029401
0.6989997,0.1034305
0.6999997,0.1035838
0.6990004,0.1030933
0.6980004,0.1026335
0.6970004,0.102143
0.6960004,0.1016832
0.6950004,0.101254
0.6940004,0.1007636
0.6930004,0.1003038
0.6920004,0.09984394
0.6910004,0.09935346
0.6900004,0.09886298
0.6890004,0.09840316
0.6880004,0.09791268
0.6870004,0.09745286
0.6860004,0.09702369
0.6850004,0.09653322
0.6840004,0.09610405
0.6830004,0.09564423
0.6820004,0.0951231
0.6810004,0.09469392
0.6800004,0.09420345
0.6790004,0.09371297
0.6780004,0.09325315
0.6770004,0.09279333
0.6760004,0.09230285
0.6750004,0.09184303
0.6740004,0.0913832
0.6730004,0.09092338
0.6720004,0.09046356
0.6710004,0.08997308
0.6700004,0.08951326
0.6690004,0.08905344
0.6680004,0.08856296
0.6670004,0.08810314
0.6660004,0.08764332
0.6650004,0.08715284
0.6640004,0.08669301
0.6630004,0.08626385
0.6620004,0.08577337
0.6610004,0.0853442
0.6600004,0.08485373
0.6590004,0.08436324
0.6580004,0.08393408
0.6570004,0.08347426
0.6560004,0.08298378
0.6550004,0.08255462
0.6540004,0.0820948
0.6530004,0.08160432
0.6520004,0.0811445
0.6510004,0.08071532
0.6500004,0.08022485
0.6490004,0.07976502
0.6480004,0.0793052
0.6470004,0.07884538
0.6460004,0.07838555
0.6450004,0.07792573
0.6440004,0.07746591
0.6430004,0.07697544
0.6420004,0.07651561
0.6410004,0.07605579
0.6400004,0.07559597
0.6390004,0.07516681
0.6380004,0.07467633
0.6370004,0.07421651
0.6360004,0.07375668
0.6350004,0.07329686
0.6340004,0.07283704
0.6330004,0.07240786
0.6320004,0.07191739
0.6310004,0.07145756
0.6300004,0.0710284
0.6290004,0.07053792
0.6280004,0.0700781
0.6270004,0.06964894
0.6260004,0.06915846
0.6250004,0.06869864
0.6240004,0.06826947
0.6230004,0.06777899
0.6220004,0.06734982
0.6210004,0.06688999
0.6200004,0.06639952
0.6190004,0.06600101
0.6180004,0.06551053
0.6170004,0.06505071
0.6160004,0.06462154
0.6150004,0.06416172
0.6140004,0.0637019
0.6130004,0.06324207
0.6120004,0.06278225
0.6110004,0.06232243
0.6100004,0.06189326
0.6090004,0.06143344
0.6080004,0.06094296
0.6070004,0.06051379
0.6060004,0.06005397
0.6050004,0.05959415
0.6040004,0.05916498
0.6030004,0.05870516
0.6020004,0.05824534
0.6010004,0.05778552
0.6000004,0.05735635
0.5990004,0.05689653
0.5980004,0.05646735
0.5970004,0.05600753
0.5960004,0.05554771
0.5950004,0.05511854
0.5940004,0.05465872
0.5930004,0.05422956
0.5920004,0.05376973
0.5910004,0.05327926
0.5900004,0.05288074
0.5890004,0.05242092
0.5880004,0.0519611
0.5870004,0.05153193
0.5860004,0.05107211
0.5850004,0.05064294
0.5840004,0.05018312
0.5830004,0.0497846
0.5820004,0.04932478
0.5810004,0.04889562
0.5800004,0.04843579
0.5790004,0.04797597
0.5780004,0.04757746
0.5770004,0.04711764
0.5760004,0.04665781
0.5750004,0.04622864
0.5740004,0.04576882
0.5730004,0.04533966
0.5720004,0.04491049
0.5710004,0.04448132
0.5700004,0.0440215
0.5690004,0.04359233
0.5680004,0.04316316
0.5670004,0.04270334
0.5660004,0.04230483
0.5650004,0.04184501
0.5640004,0.04141584
0.5630004,0.04098667
0.5620004,0.0405575
0.5610004,0.04012834
0.5600004,0.03969917
0.5590004,0.03923934
0.5580004,0.03881018
0.5570004,0.03838101
0.5560004,0.0379825
0.5550004,0.03752267
0.5540004,0.03712416
0.5530004,0.03666434
0.5520004,0.03629648
0.5510004,0.03586731
0.5500004,0.03543815
0.5490004,0.03500898
0.5480004,0.03457981
0.5470004,0.03415065
0.5460004,0.03372148
0.5450004,0.03332296
0.5440004,0.0328938
0.5430004,0.03246463
0.5420004,0.03206612
0.5410004,0.03163695
0.5400004,0.03123844
0.5390004,0.03080927
0.5380004,0.03041076
0.5370004,0.02998159
0.5360004,0.02958308
0.5350004,0.02915391
0.5340004,0.02875539
0.5330004,0.02835688
0.5320004,0.02795837
0.5310004,0.0275292
0.5300004,0.02713069
0.5290004,0.02673218
0.5280004,0.02633366
0.5270004,0.0259045
0.5260004,0.02550598
0.5250004,0.02510747
0.5240004,0.02470896
0.5230004,0.0243411
0.5220004,0.02394259
0.5210004,0.02354407
0.5200004,0.02314556
0.5190004,0.02274705
0.5180004,0.02234854
0.5170004,0.02195002
0.5160004,0.02158217
0.5150004,0.02118365
0.5140004,0.0208158
0.5130004,0.02041728
0.5120004,0.02001877
0.5110004,0.01965091
0.5100004,0.01928305
0.5090004,0.0189152
0.5080004,0.01854734
0.5070004,0.01817948
0.5060004,0.01778097
0.5050004,0.01744376
0.5040004,0.01707591
0.5030004,0.01670805
0.5020004,0.01634019
0.5010004,0.01597233
0.5000004,0.01560447
0.4990004,0.01526727
0.4980004,0.01489941
0.4970004,0.01456221
0.4960004,0.01419435
0.4950004,0.01385715
0.4940004,0.01348929
0.4930004,0.01318274
0.4920004,0.01233868
0.4910004,0.01200761
0.4900004,0.0116796
0.4890004,0.01134853
0.4880004,0.01102666
0.4870004,0.01070478
0.4860004,0.01038597
0.4850004,0.01007023
0.4840004,0.009760614
0.4830004,0.009450999
0.4820004,0.00913832
0.4810004,0.008837903
0.4800004,0.008537485
0.4790004,0.008237069
0.4780004,0.007948913
0.4770004,0.007654627
0.4760004,0.007366471
0.4750004,0.007090578
0.4740004,0.006805488
0.4730004,0.006529594
0.4720004,0.006262898
0.4710004,0.005990069
0.4700004,0.005729503
0.4690004,0.005472003
0.4680004,0.005211437
0.4670004,0.004963133
0.4660004,0.004717894
0.4650004,0.00446959
0.4640004,0.004236614
0.4630004,0.004000572
0.4620004,0.00377066
0.4610004,0.00354688
0.4600004,0.003326165
0.4590004,0.003111582
0.4580004,0.002900063
0.4570004,0.002694676
0.4560004,0.002495419
0.4550004,0.002296163
0.4540004,0.002106103
0.4530004,0.001919109
0.4520004,0.001738245
0.4510004,0.001566578
0.4500004,0.00138878
0.4490004,0.001223244
0.4480004,0.001030627
0.4470004,0.0008703023
0.4460004,0.0007213198
0.4450004,0.0005744831
0.4440004,0.0004282596
0.4430004,0.0002927653
0.4420004,0.0001569644
0.4410004,2.606828E-05
0.4400004,-9.941243E-05
0.4390004,-0.0002209282
0.4380004,-0.0003357305
0.4370004,-0.0004481619
0.4360004,-0.0005563734
0.4350004,-0.0006569213
0.4340004,-0.0007577756
0.4330004,-0.0008540318
0.4320004,-0.0009450766
0.4310004,-0.001037348
0.4300004,-0.001120116
0.4290004,-0.001203497
0.4280004,-0.001284732
0.4270004,-0.001356771
0.4260004,-0.001433102
0.4250004,-0.001503301
0.4240004,-0.001567676
0.4230004,-0.001638182
0.4220004,-0.001698879
0.4210004,-0.001758043
0.4200004,-0.001818433
0.4190004,-0.001872079
0.4180004,-0.001926644
0.4170004,-0.001979371
0.4160004,-0.002029644
0.4150004,-0.002081144
0.4140004,-0.002125901
0.4130004,-0.002171883
0.4120004,-0.002216639
0.4110004,-0.002259249
0.4100004,-0.00230891
0.4090004,-0.002354586
0.4080004,-0.002389226
0.4070004,-0.00242969
0.4060004,-0.00246525
0.4050004,-0.002500196
0.4040004,-0.002539128
0.4030004,-0.002574074
0.4020004,-0.00261086
0.4010004,-0.00264458
0.4000004,-0.002676155
0.3990004,-0.002715699
0.3980004,-0.002746048
0.3970004,-0.002779768
0.3960004,-0.002815634
0.3950004,-0.002845063
0.3940004,-0.002879703
0.3930004,-0.00291281
0.3920004,-0.002942852
0.3910004,-0.002977185
0.3900004,-0.003010599
0.3890004,-0.003010187
0.3880004,-0.003040842
0.3870004,-0.003068431
0.3860004,-0.003105217
0.3850004,-0.003135872
0.3840004,-0.003166527
0.3830004,-0.003203312
0.3820004,-0.003233967
0.3810004,-0.003264622
0.3800004,-0.003304473
0.3790004,-0.003332063
0.3780004,-0.003371914
0.3770004,-0.0034087
0.3760004,-0.003439354
0.3750004,-0.00347614
0.3740004,-0.003509861
0.3730004,-0.003546647
0.3720004,-0.003583432
0.3710004,-0.003620218
0.3700004,-0.003657004
0.3690004,-0.00369379
0.3680004,-0.003733641
0.3670004,-0.003773492
0.3660004,-0.003807213
0.3650004,-0.003850129
0.3640004,-0.00388998
0.3630004,-0.003926767
0.3620004,-0.003972749
0.3610004,-0.004009534
0.3600004,-0.004049386
0.3590004,-0.004095368
0.3580004,-0.004138284
0.3570004,-0.004181202
0.3560004,-0.004224118
0.3550004,-0.00426397
0.3540004,-0.004309952
0.3530004,-0.004358999
0.3520004,-0.004401916
0.3510004,-0.004447898
0.3500004,-0.004493881
0.3490004,-0.004539863
0.3480004,-0.00458891
0.3470004,-0.004634893
0.3460004,-0.004687006
0.3450004,-0.004736054
0.3440004,-0.004785101
0.3430004,-0.004837214
0.3420004,-0.004889328
0.3410004,-0.004938376
0.3400004,-0.004990489
0.3390004,-0.005045668
0.3380004,-0.005097781
0.3370004,-0.005149893
0.3360004,-0.005205072
0.3350004,-0.005263316
0.3340004,-0.00531543
0.3330004,-0.005373674
0.3320004,-0.005431918
0.3310004,-0.005484032
0.3300004,-0.005545341
0.3290004,-0.00560665
0.3280004,-0.005661829
0.3270004,-0.005726204
0.3260004,-0.005787514
0.3250004,-0.005845758
0.3240004,-0.005907068
0.3230004,-0.005971443
0.3220004,-0.006032753
0.3210004,-0.006097128
0.3200004,-0.006164568
0.3190004,-0.006225878
0.3180004,-0.006293319
0.3170004,-0.006357694
0.3160004,-0.006425134
0.3150004,-0.006492575
0.3140004,-0.006563081
0.3130004,-0.006630522
0.3120004,-0.006694897
0.3110004,-0.006768468
0.3100004,-0.00683591
0.3090004,-0.006906416
0.3080004,-0.006976922
0.3070004,-0.007053559
0.3060004,-0.00712713
0.3050004,-0.007194571
0.3040004,-0.007265077
0.3030004,-0.007347845
0.3020004,-0.007418351
0.3010004,-0.007491923
0.3000004,-0.007565494
0.2990004,-0.007636
0.2980004,-0.007712637
0.2970004,-0.007789274
0.2960004,-0.007862846
0.2950004,-0.007942548
0.2940004,-0.008022251
0.2930004,-0.008095822
0.2920004,-0.008175525
0.2910004,-0.008252162
0.2900004,-0.008331865
0.2890004,-0.008411567
0.2880004,-0.008491269
0.2870004,-0.008574038
0.2860004,-0.008650675
0.2850004,-0.008736508
0.2840004,-0.008819276
0.2830004,-0.008898979
0.2820004,-0.008987878
0.2810004,-0.00906758
0.2800004,-0.009147284
0.2790004,-0.009236182
0.2780004,-0.00931895
0.2770004,-0.009410915
0.2760004,-0.009496748
0.2750004,-0.009585647
0.2740004,-0.009680677
0.2730004,-0.009763445
0.2720004,-0.009852344
0.2710004,-0.009950439
0.2700004,-0.01003627
0.2690004,-0.0101313
0.2680004,-0.01022633
0.2670004,-0.01031217
0.2660004,-0.01041333
0.2650004,-0.01051142
0.2640004,-0.01060032
0.2630004,-0.01070148
0.2620004,-0.01080264
0.2610004,-0.01090074
0.2600004,-0.01099883
0.2590004,-0.0110908
0.2580004,-0.0111797
0.2570004,-0.01126247
0.2560004,-0.0113391
0.2550004,-0.01140348
0.2540004,-0.0114464
0.2530004,-0.01147398
0.2520004,-0.01148012
0.2510004,-0.01146785
0.2500004,-0.01141881
0.2490004,-0.01134523
0.2480004,-0.01123488
0.2470004,-0.0110816
0.2460004,-0.01088541
0.2450004,-0.01064937
0.2440004,-0.01036122
0.2430004,-0.01003321
0.2420004,-0.00967148
0.2410004,-0.009282164
0.2400004,-0.00887752
0.2390004,-0.008475943
0.2380004,-0.00807743
0.2370004,-0.007691179
0.2360004,-0.007329452
0.2350004,-0.006976922
0.2340004,-0.006670373
0.2330004,-0.006376087
0.2320004,-0.006103259
0.2310004,-0.005867217
0.2300004,-0.005646502
0.2290004,-0.005434984
0.2280004,-0.005260251
0.2270004,-0.005085519
0.2260004,-0.004923048
0.2250004,-0.004775905
0.2240004,-0.004637958
0.2230004,-0.004506143
0.2220004,-0.004383523
0.2210004,-0.004273166
0.2200004,-0.004159743
0.2190004,-0.004055517
0.2180004,-0.003957421
0.2170004,-0.003862391
0.2160004,-0.003770427
0.2150004,-0.003687659
0.2140004,-0.003601825
0.2130004,-0.003522123
0.2120004,-0.003451617
0.2110004,-0.003374979
0.2100004,-0.003304473
0.2090004,-0.003237033
0.2080004,-0.003169592
0.2070004,-0.003105217
0.2060004,-0.003043907
0.2050004,-0.002985663
0.2040004,-0.002927419
0.2030004,-0.00287224
0.2020004,-0.002817062
0.2010004,-0.002764949
0.2000004,-0.002712835
0.1990004,-0.002660722
0.1980004,-0.002611674
0.1970004,-0.002559561
0.1960004,-0.002507448
0.1950004,-0.002455335
0.1940004,-0.002403222
0.1930004,-0.002351108
0.1920004,-0.002305126
0.1910004,-0.002259144
0.1900004,-0.002219293
0.1890004,-0.002179441
0.1880004,-0.002142655
0.1870004,-0.00210587
0.1860004,-0.002072149
0.1850004,-0.002041495
0.1840004,-0.00201084
0.1830004,-0.001980185
0.1820004,-0.001952596
0.1810004,-0.001925006
0.1800004,-0.001897417
0.1790004,-0.001872893
0.1780004,-0.001848369
0.1770004,-0.001823845
0.1760004,-0.001802387
0.1750004,-0.001777863
0.1740004,-0.001756405
0.1730004,-0.001734946
0.1720004,-0.001716554
0.1710004,-0.001695095
0.1700004,-0.001676702
0.1690004,-0.001655244
0.1680004,-0.001636851
0.1670004,-0.001618458
0.1660004,-0.001638489
0.1650004,-0.001621629
0.1640004,-0.001604462
0.1630004,-0.001588215
0.1620004,-0.001572274
0.1610004,-0.001556027
0.1600004,-0.001541313
0.1590004,-0.001526599
0.1580004,-0.001511271
0.1570004,-0.001497477
0.1560004,-0.001483682
0.1550004,-0.001469581
0.1540004,-0.001456399
0.1530004,-0.001443524
0.1520004,-0.001430036
0.1510004,-0.001417774
0.1500004,-0.001405206
0.1490004,-0.001392944
0.1480004,-0.001381295
0.1470004,-0.001369646
0.1460004,-0.001357691
0.1450004,-0.001346655
0.1440004,-0.001335313
0.1430004,-0.00132489
0.1420004,-0.001314161
0.1410004,-0.001303125
0.1400004,-0.001293316
0.1390004,-0.001282893
0.1380004,-0.001273083
0.1370004,-0.001263274
0.1360004,-0.001253464
0.1350004,-0.001243961
0.1340004,-0.001234765
0.1330004,-0.001225568
0.1320004,-0.001216678
0.1310004,-0.001207482
0.1300004,-0.001199205
0.1290004,-0.001190315
0.1280004,-0.001181732
0.1270004,-0.001173455
0.1260004,-0.001164872
0.1250004,-0.001157208
0.1240004,-0.001149238
0.1230004,-0.001141268
0.1220004,-0.001133604
0.1210004,-0.001126247
0.1200004,-0.001118277
0.1190004,-0.001110919
0.1180004,-0.001103869
0.1170004,-0.001096511
0.1160004,-0.001089461
0.1150004,-0.001082717
0.1140004,-0.001075666
0.1130004,-0.001069229
0.1120004,-0.001062485
0.1110004,-0.001055741
0.1100004,-0.001049303
0.1090004,-0.001042866
0.1080004,-0.001036735
0.1070004,-0.001030297
0.1060004,-0.001024166
0.1050004,-0.001017729
0.1040004,-0.001011598
0.1030004,-0.00100608
0.1020004,-0.001000255
0.1010004,-0.0009941244
0.1000004,-0.0009886065
0.09900038,-0.0009830886
0.09800038,-0.0009772643
0.09700038,-0.0009717464
0.09600038,-0.0009662285
0.09500038,-0.0009610172
0.09400038,-0.0009554993
0.09300038,-0.000950288
0.09200038,-0.0009450766
0.09100038,-0.0009398654
0.09000038,-0.000934654
0.08900038,-0.0009297492
0.08800038,-0.0009248445
0.08700038,-0.0009199397
0.08600038,-0.0009150349
0.08500038,-0.0009104367
0.08400038,-0.0009055319
0.08300038,-0.0009009338
0.08200038,-0.0008963355
0.08100038,-0.0008917373
0.08000038,-0.000887139
0.07900038,-0.0008825408
0.07800038,-0.0008782492
0.07700038,-0.0008736509
0.07600038,-0.0008693592
0.07500038,-0.000864761
0.07400038,-0.0008607759
0.07300038,-0.0008564842
0.07200038,-0.0008521925
0.07100038,-0.000848514
0.07000038,-0.0008442223
0.06900038,-0.0008399306
0.06800038,-0.000836252
0.06700038,-0.0008319604
0.06600038,-0.0008279752
0.06500039,-0.0008242966
0.06400038,-0.0008203115
0.06300038,-0.0008166329
0.06200038,-0.0008129543
0.06100038,-0.0008089693
0.06000038,-0.0008055972
0.05900038,-0.0008019186
0.05800038,-0.0007982401
0.05700038,-0.0007945614
0.05600038,-0.0007908829
0.05500038,-0.0007872043
0.05400038,-0.0007838323
0.05300038,-0.0007804602
0.05200038,-0.0007767816
0.05100038,-0.0007737162
0.05000038,-0.0007703441
0.04900038,-0.0007666656
0.04800038,-0.0007632935
0.04700038,-0.0007602281
0.04600038,-0.0007571626
0.04500038,-0.0007540971
0.04400038,-0.000750725
0.04300038,-0.0007476595
0.04200038,-0.0007445941
0.04100038,-0.0007415286
0.04000038,-0.0007381566
0.03900038,-0.0007353976
0.03800038,-0.0007323321
0.03700038,-0.0007292667
0.03600038,-0.0007262012
0.03500038,-0.0007231357
0.03400038,-0.0007200702
0.03300038,-0.0007173113
0.03200038,-0.0007142458
0.03100038,-0.0007114868
0.03000038,-0.0007087279
0.02900038,-0.0007056625
0.02800038,-0.0007029035
0.02700038,-0.0007001446
0.02600038,-0.0006973856
0.02500038,-0.0006946267
0.02400038,-0.0006918678
0.02300038,-0.0006894154
0.02200038,-0.0006863499
0.02100038,-0.0006838975
0.02000038,-0.0006814452
0.01900038,-0.0006786863
0.01800038,-0.0006759273
0.01700038,-0.0006734749
0.01600038,-0.0006707159
0.01500038,-0.0006685701
0.01400038,-0.0006661177
0.01300038,-0.0006633588
0.01200038,-0.0006609064
0.01100038,-0.000658454
0.01000038,-0.0006556951
0.009000381,-0.0006535492
0.008000381,-0.0006510969
0.007000382,-0.0006486445
0.006000381,-0.0006461921
0.005000381,-0.0006437397
0.004000382,-0.0006415938
0.003000381,-0.0006391415
0.002000381,-0.0006366891
0.001000381,-0.0006342367
3.814697E-07,-0.0006271861
0.0009996186,-0.0006161503
0.001999618,-0.0006066473
0.002999618,-0.000598064
0.003999618,-0.0005900938
0.004999619,-0.0005821235
0.005999619,-0.0005747664
0.006999618,-0.0005677157
0.007999619,-0.0005606651
0.008999619,-0.0005542276
0.009999619,-0.0005477901
0.01099962,-0.0005416591
0.01199962,-0.0005355282
0.01299962,-0.0005300103
0.01399962,-0.0005244924
0.01499962,-0.0005189746
0.01599962,-0.0005134566
0.01699962,-0.0005085519
0.01799962,-0.0005033406
0.01899962,-0.0004984358
0.01999962,-0.0004935311
0.02099962,-0.0004889328
0.02199962,-0.0004843346
0.02299962,-0.0004797364
0.02399962,-0.0004751382
0.02499962,-0.0004708465
0.02599962,-0.0004665548
0.02699962,-0.0004625697
0.02799962,-0.000458278
0.02899962,-0.0004542929
0.02999962,-0.0004503077
0.03099962,-0.0004463226
0.03199962,-0.0004423375
0.03299962,-0.0004386589
0.03399962,-0.0004349803
0.03499962,-0.0004313017
0.03599962,-0.0004276232
0.03699962,-0.0004239446
0.03799962,-0.0004205726
0.03899962,-0.000416894
0.03999962,-0.0004135219
0.04099962,-0.0004101499
0.04199962,-0.0004067779
0.04299962,-0.0004034059
0.04399962,-0.0004000338
0.04499962,-0.0003969684
0.04599962,-0.0003935963
0.04699962,-0.0003905308
0.04799962,-0.0003874653
0.04899962,-0.0003843998
0.04999962,-0.0003813344
0.05099962,-0.0003782689
0.05199962,-0.0003752034
0.05299962,-0.0003724445
0.05399962,-0.000369379
0.05499962,-0.0003666201
0.05599962,-0.0003635546
0.05699962,-0.0003607956
0.05799962,-0.0003580367
0.05899962,-0.0003552778
0.05999962,-0.0003525188
0.06099962,-0.0003497599
0.06199962,-0.000347001
0.06299962,-0.0003445486
0.06399962,-0.0003417897
0.06499962,-0.0003393373
0.06599962,-0.0003365783
0.06699962,-0.0003341259
0.06799962,-0.0003316735
0.06899962,-0.0003289146
0.06999962,-0.0003264622
0.07099961,-0.0003240099
0.07199962,-0.0003215575
0.07299962,-0.0003191051
0.07399962,-0.0003166527
0.07499962,-0.0003145068
0.07599962,-0.0003120545
0.07699962,-0.0003096021
0.07799962,-0.0003074562
0.07899962,-0.0003050039
0.07999962,-0.000302858
0.08099962,-0.0003007122
0.08199961,-0.0002982598
0.08299962,-0.000296114
0.08399962,-0.0002939681
0.08499962,-0.0002918223
0.08599962,-0.0002896764
0.08699962,-0.0002875306
0.08799962,-0.0002853848
0.08899962,-0.0002835455
0.08999962,-0.0002813996
0.09099962,-0.0002792538
0.09199962,-0.000277108
0.09299962,-0.0002749621
0.09399962,-0.0002731228
0.09499962,-0.0002712836
0.09599962,-0.0002691377
0.09699962,-0.0002672984
0.09799962,-0.0002651526
0.09899962,-0.0002633133
0.09999962,-0.0002611674
0.1009996,-0.0002596347
0.1019996,-0.0002574889
0.1029996,-0.0002556496
0.1039996,-0.0002538103
0.1049996,-0.000251971
0.1059996,-0.0002501317
0.1069996,-0.0002482924
0.1079996,-0.0002464531
0.1089996,-0.0002446139
0.1099996,-0.0002430811
0.1109996,-0.0002412418
0.1119996,-0.0002394025
0.1129996,-0.0002375632
0.1139996,-0.0002360305
0.1149996,-0.0002341912
0.1159996,-0.0002323519
0.1169996,-0.0002308192
0.1179996,-0.0002292864
0.1189996,-0.0002274471
0.1199996,-0.0002259144
0.1209996,-0.0002243817
0.1219996,-0.0002225424
0.1229996,-0.0002210096
0.1239996,-0.0002194769
0.1249996,-0.0002176376
0.1259996,-0.0002161049
0.1269996,-0.0002145721
0.1279996,-0.0002130394
0.1289996,-0.0002115066
0.1299996,-0.0002099739
0.1309996,-0.0002084412
0.1319996,-0.0002069084
0.1329996,-0.0002053757
0.1339996,-0.0002041495
0.1349996,-0.0002026167
0.1359996,-0.000201084
0.1369996,-0.0001995512
0.1379996,-0.0001980185
0.1389996,-0.0001967923
0.1399996,-0.0001952596
0.1409996,-0.0001937268
0.1419996,-0.0001925007
0.1429996,-0.0001909679
0.1439996,-0.0001897417
0.1449996,-0.000188209
0.1459996,-0.0001869828
0.1469996,-0.00018545
0.1479996,-0.0001842238
0.1489996,-0.0001826911
0.1499996,-0.0001814649
0.1509996,-0.0001799322
0.1519996,-0.000178706
0.1529996,-0.0001774798
0.1539996,-0.0001762536
0.1549996,-0.0001750274
0.1559996,-0.0001734946
0.1569996,-0.0001722685
0.1579996,-0.0001710423
0.1589996,-0.0001695095
0.1599996,-0.0001685899
0.1609996,-0.0001670571
0.1619996,-0.0001658309
0.1629996,-0.0001646047
0.1639996,-0.000163072
0.1649996,-0.0001618458
0.1659996,-0.0001609262
0.1669996,-0.0001593934
0.1679996,-0.0001614885
0.1689996,-0.0001603542
0.1699996,-0.0001590974
0.1709996,-0.0001579631
0.1719996,-0.0001566756
0.1729996,-0.0001554801
0.1739996,-0.0001542846
0.1749996,-0.0001530584
0.1759996,-0.0001518935
0.1769996,-0.0001506673
0.1779996,-0.0001494411
0.1789996,-0.0001483069
0.1799996,-0.000147142
0.1809996,-0.0001459158
0.1819996,-0.0001447203
0.1829996,-0.0001434941
0.1839996,-0.0001422985
0.1849996,-0.000141103
0.1859996,-0.0001399075
0.1869996,-0.0001388039
0.1879996,-0.000137547
0.1889996,-0.0001363515
0.1899996,-0.000135156
0.1909996,-0.0001339604
0.1919996,-0.0001327955
0.1929996,-0.0001316
0.1939996,-0.0001304351
0.1949996,-0.0001292702
0.1959996,-0.0001279521
0.1969996,-0.0001268179
0.1979996,-0.0001256223
0.1989996,-0.0001243655
0.1999996,-0.0001232926
0.2009996,-0.0001220357
0.2019996,-0.0001208095
0.2029996,-0.0001196753
0.2039996,-0.0001183571
0.2049996,-0.0001171309
0.2059996,-0.0001159354
0.2069996,-0.0001146785
0.2079996,-0.0001134523
0.2089996,-0.0001122568
0.2099996,-0.000110908
0.2109996,-0.0001096511
0.2119996,-0.0001083943
0.2129996,-0.0001071374
0.2139996,-0.0001058193
0.2149996,-0.0001044705
0.2159996,-0.0001031523
0.2169996,-0.0001018035
0.2179996,-0.000100424
0.2189996,-9.913654E-05
0.2199996,-9.769576E-05
0.2209996,-9.63163E-05
0.2219996,-9.496748E-05
0.2229996,-9.343474E-05
0.2239996,-9.208592E-05
0.2249996,-9.064515E-05
0.2259996,-8.911241E-05
0.2269996,-8.767164E-05
0.2279996,-8.607758E-05
0.2289996,-8.454484E-05
0.2299996,-8.304276E-05
0.2309996,-8.141805E-05
0.2319996,-7.991596E-05
0.2329996,-7.82606E-05
0.2339996,-7.651328E-05
0.2349996,-7.501119E-05
0.2359996,-7.323321E-05
0.2369996,-7.145523E-05
0.2379996,-6.967725E-05
0.2389996,-6.78073E-05
0.2399996,-6.602933E-05
0.2409996,-6.409807E-05
0.2419996,-6.210551E-05
0.2429996,-6.023556E-05
0.2439996,-5.812038E-05
0.2449996,-5.603585E-05
0.2459996,-5.395133E-05
0.2469996,-5.171352E-05
0.2479996,-4.959834E-05
0.2489996,-4.726858E-05
0.2499996,-4.490815E-05
0.2509996,-4.270101E-05
0.2519996,-4.0126E-05
0.2529996,-3.76123E-05
0.2539996,-3.506795E-05
0.2549996,-3.233967E-05
0.2559996,-2.961139E-05
0.2569996,-2.685246E-05
0.2579996,-2.39096E-05
0.2589996,-2.102804E-05
0.2599996,-1.790125E-05
0.2609996,-1.47438E-05
0.2619996,-1.149439E-05
0.2629996,-8.030396E-06
0.2639996,-4.687006E-06
0.2649996,-1.223011E-06
0.2659996,2.56286E-06
0.2669996,6.180129E-06
0.2679996,1.024802E-05
0.2689996,1.436803E-05
0.2699996,1.837768E-05
0.2709996,2.274906E-05
0.2719996,2.746789E-05
0.2729996,3.191284E-05
0.2739996,3.678696E-05
0.2749996,4.169173E-05
0.2759996,4.705632E-05
0.2769996,5.22983E-05
0.2779996,5.766289E-05
0.2789996,6.360994E-05
0.2799996,6.949566E-05
0.2809996,7.571858E-05
0.2819996,8.218676E-05
0.2829996,8.877754E-05
0.2839996,9.61347E-05
0.2849996,0.0001031546
0.2859996,0.0001107264
0.2869996,0.0001189112
0.2879996,0.0001269734
0.2889996,0.0001356488
0.2899996,0.0001449372
0.2909996,0.0001541336
0.2919996,0.000164403
0.2929996,0.0001744271
0.2939996,0.000185187
0.2949996,0.0001968664
0.2959996,0.0002084846
0.2969996,0.0002209612
0.2979996,0.0002341734
0.2989996,0.0002476002
0.2999996,0.0002625904
0.3009996,0.0002776113
0.3019996,0.0002932146
0.3029996,0.0003139171
0.3039996,0.0003310838
0.3049996,0.0003494767
0.3059996,0.0003694023
0.3069996,0.0003905542
0.3079996,0.0004129322
0.3089996,0.0004356168
0.3099996,0.0004601406
0.3109996,0.0004865038
0.3119996,0.0005131735
0.3129996,0.0005426022
0.3139996,0.00057387
0.3149996,0.0006063642
0.3159996,0.0006416172
0.3169996,0.0006780964
0.3179996,0.0007173347
0.3189996,0.0007593317
0.3199996,0.0008034747
0.3209996,0.0008512962
0.3219996,0.0009015701
0.3229996,0.0009549095
0.3239996,0.00101346
0.3249996,0.00107385
0.3259996,0.001139452
0.3269996,0.001209958
0.3279996,0.001283223
0.3289996,0.001363845
0.3299996,0.001449985
0.3309996,0.001539804
0.3319996,0.001639125
0.3329996,0.001743658
0.3339996,0.001854629
0.3349996,0.001976022
0.3359996,0.002104159
0.3369996,0.002241799
0.3379996,0.002389862
0.3389996,0.002547428
0.3399996,0.002717256
0.3409996,0.002895973
0.3419996,0.003086953
0.3429996,0.003320034
0.3439996,0.003528487
0.3449996,0.003755333
0.3459996,0.003997506
0.3469996,0.00424581
0.3479996,0.004506376
0.3489996,0.004776138
0.3499996,0.005055097
0.3509996,0.005343253
0.3519996,0.005637539
0.3529996,0.005944087
0.3539996,0.006250636
0.3549996,0.006563315
0.3559996,0.00687906
0.3569996,0.00719787
0.3579996,0.00751668
0.3589996,0.00783549
0.3599996,0.008148169
0.3609996,0.008463915
0.3619996,0.008767396
0.3629996,0.009067814
0.3639996,0.009371297
0.3649996,0.009659452
0.3659996,0.00993841
0.3669996,0.01022043
0.3679996,0.01048713
0.3689996,0.01075076
0.3699996,0.01101133
0.3709996,0.01125657
0.3719996,0.01150794
0.3729996,0.01174398
0.3739996,0.01197389
0.3749996,0.0122038
0.3759996,0.01242145
0.3769996,0.01263297
0.3779996,0.01284142
0.3789996,0.01303761
0.3799996,0.01322767
0.3809996,0.01340854
0.3819996,0.01358633
0.3829996,0.01374881
0.3839996,0.01390821
0.3849996,0.01405842
0.3859996,0.0141933
0.3869996,0.01432512
0.3879996,0.0144416
0.3889996,0.0145489
0.3899996,0.01465312
0.3909996,0.01474202
0.3919996,0.01481866
0.3929996,0.01489223
0.3939996,0.01495047
0.3949996,0.01499952
0.3959996,0.01505163
0.3969996,0.01508536
0.3979996,0.01511601
0.3989996,0.01514053
0.3999996,0.0151528
0.4009996,0.01515893
0.4019996,0.01516812
0.4029996,0.01516506
0.4039996,0.01516199
0.4049996,0.01514667
0.4059996,0.01513134
0.4069996,0.01510681
0.4079996,0.01507616
0.4089996,0.0150455
0.4099996,0.01501485
0.4109996,0.01497193
0.4119996,0.01491675
0.4129996,0.01486158
0.4139996,0.0147972
0.4149996,0.01472669
0.4159996,0.01465619
0.4169996,0.01457036
0.4179996,0.01448146
0.4189996,0.01438949
0.4199996,0.01428833
0.4209996,0.01418717
0.4219996,0.01407375
0.4229996,0.01395419
0.4239996,0.01383157
0.4249996,0.01369976
0.4259996,0.01355875
0.4269996,0.01341467
0.4279996,0.01327059
0.4289996,0.01310812
0.4299996,0.01294871
0.4309996,0.01278931
0.4319996,0.01260231
0.4329996,0.01243371
0.4339996,0.01224978
0.4349996,0.01205666
0.4359996,0.01187886
0.4369996,0.01167654
0.4379996,0.01148035
0.4389996,0.01129029
0.4399996,0.01108184
0.4409996,0.01088564
0.4419996,0.01069252
0.4429996,0.01048407
0.4439996,0.01030014
0.4449996,0.01010701
0.4459996,0.009913887
0.4469996,0.009736089
0.4479996,0.009561357
0.4489996,0.009395821
0.4499996,0.009230284
0.4509996,0.009080076
0.4519996,0.008935998
0.4529996,0.008801118
0.4539996,0.008681564
0.4549996,0.008565075
0.4559996,0.008460849
0.4569996,0.008368884
0.4579996,0.008283051
0.4589996,0.008212545
0.4599996,0.008157366
0.4609996,0.008105253
0.4619996,0.008074597
0.4629996,0.008050074
0.4639996,0.008031681
0.4649996,0.008034746
0.4659996,0.008043943
0.4669996,0.008065402
0.4679996,0.008108318
0.4689996,0.008145104
0.4699996,0.008203348
0.4709996,0.00827692
0.4719996,0.008347426
0.4729996,0.008448587
0.4739996,0.008555878
0.4749996,0.00866317
0.4759996,0.008798052
0.4769996,0.008932933
0.4779996,0.00907088
0.4789996,0.00923335
0.4799996,0.009401952
0.4809996,0.009573619
0.4819996,0.009766744
0.4829996,0.009956804
0.4839996,0.01016219
0.4849996,0.01037984
0.4859996,0.01060055
0.4869996,0.01082433
0.4879996,0.01106344
0.4889996,0.01130868
0.4899996,0.01155392
0.4909996,0.01181449
0.4919996,0.01208731
0.4929996,0.01235094
0.4939996,0.0126299
0.4949996,0.01291499
0.4959996,0.01319702
0.4969996,0.0135005
0.4979996,0.01379479
0.4989996,0.01410134
0.4999996,0.01442321
0.5009996,0.01472669
0.5019996,0.01504857
0.5029996,0.01537964
0.5039996,0.01569845
0.5049996,0.01602646
0.5059996,0.01637286
0.5069996,0.01670393
0.5079996,0.01705033
0.5089996,0.01740593
0.5099996,0.01774619
0.5109996,0.01810485
0.5119996,0.01847271
0.5129996,0.01882524
0.5139996,0.01918697
0.5149996,0.01955177
0.5159996,0.01991962
0.5169996,0.02028748
0.5179996,0.02066453
0.5189996,0.02103852
0.5199996,0.02140945
0.5209996,0.02179876
0.5219996,0.02217275
0.5229996,0.022559
0.5239996,0.02295751
0.5249996,0.02333457
0.5259996,0.02373308
0.5269996,0.0241224
0.5279996,0.02450558
0.5289996,0.02490716
0.5299996,0.02530261
0.5309996,0.02569499
0.5319996,0.02610577
0.5329996,0.02649815
0.5339996,0.02690892
0.5349996,0.02731663
0.5359996,0.02770901
0.5369996,0.02812285
0.5379996,0.02853363
0.5389996,0.02894134
0.5399996,0.02935211
0.5409996,0.02976902
0.5419996,0.03017673
0.5429996,0.03136105
0.5439996,0.03175957
0.5449996,0.03218874
0.5459996,0.03258725
0.5469996,0.03301642
0.5479996,0.03344558
0.5489996,0.03387475
0.5499996,0.03430392
0.5509996,0.03473309
0.5519996,0.03516225
0.5529996,0.03559142
0.5539996,0.03602059
0.5549996,0.03644976
0.5559996,0.03687892
0.5569996,0.03730809
0.5579996,0.03773726
0.5589996,0.03819708
0.5599996,0.03862625
0.5609996,0.03905542
0.5619996,0.03948459
0.5629996,0.03994441
0.5639996,0.04040423
0.5649996,0.04083339
0.5659996,0.04126256
0.5669996,0.04172239
0.5679996,0.04215155
0.5689996,0.04261138
0.5699996,0.0430712
0.5709996,0.04350037
0.5719996,0.04392953
0.5729996,0.04438936
0.5739996,0.04481852
0.5749996,0.04527835
0.5759996,0.04573817
0.5769996,0.04616734
0.5779996,0.04662716
0.5789996,0.04708698
0.5799996,0.04751615
0.5809996,0.04797597
0.5819996,0.04843579
0.5829996,0.04886496
0.5839996,0.04932478
0.5849996,0.0497846
0.5859996,0.05021377
0.5869996,0.05067359
0.5879996,0.05113342
0.5889996,0.05156258
0.5899996,0.05205306
0.5909996,0.05248223
0.5919996,0.0529114
0.5929996,0.05340188
0.5939996,0.0538617
0.5949996,0.05429087
0.5959996,0.05478134
0.5969996,0.05521051
0.5979996,0.05567033
0.5989996,0.05613015
0.5999996,0.05658998
0.6009996,0.0570498
0.6019996,0.05750962
0.6029996,0.05796945
0.6039996,0.05842927
0.6049996,0.05888909
0.6059996,0.05934891
0.6069996,0.05980873
0.6079996,0.06026856
0.6089996,0.06072838
0.6099996,0.0611882
0.6109996,0.06164802
0.6119996,0.0621385
0.6129996,0.06256767
0.6139996,0.06305815
0.6149996,0.06351797
0.6159996,0.06394713
0.6169996,0.06446826
0.6179996,0.06492809
0.6189996,0.06535726
0.6199996,0.06584774
0.6209996,0.0662769
0.6219996,0.06676738
0.6229996,0.06722721
0.6239996,0.06768703
0.6249996,0.06814685
0.6259996,0.06863733
0.6269996,0.06909715
0.6279996,0.06958763
0.6289996,0.07001679
0.6299996,0.07050727
0.6309996,0.07099774
0.6319996,0.07142691
0.6329996,0.07188674
0.6339996,0.07237721
0.6349996,0.07283704
0.6359996,0.07329686
0.6369996,0.07378733
0.6379996,0.07424716
0.6389996,0.07470698
0.6399996,0.07519746
0.6409996,0.07562663
0.6419996,0.0761171
0.6429996,0.07660758
0.6439996,0.0770674
0.6449996,0.07752723
0.6459996,0.07804836
0.6469996,0.07847752
0.6479996,0.078968
0.6489996,0.07942782
0.6499996,0.07988765
0.6509996,0.08034747
0.6519996,0.08083794
0.6529996,0.08129777
0.6539996,0.08178824
0.6549996,0.08224807
0.6559996,0.08267724
0.6569996,0.08319836
0.6579996,0.08365819
0.6589996,0.08411801
0.6599996,0.08463915
0.6609996,0.08506831
0.6619996,0.08555879
0.6629996,0.08607992
0.6639996,0.08650909
0.6649996,0.08696891
0.6659996,0.08745939
0.6669996,0.08791921
0.6679996,0.08840968
0.6689996,0.0888695
0.6699996,0.08935999
0.6709996,0.08985046
0.6719996,0.09031029
0.6729996,0.09077011
0.6739996,0.09126058
0.6749996,0.09172041
0.6759996,0.09221088
0.6769996,0.09267071
0.6779996,0.09316119
0.6789996,0.09365166
0.6799996,0.09411149
0.6809996,0.09460196
0.6819996,0.09506179
0.6829996,0.09552161
0.6839996,0.09601208
0.6849996,0.09647191
0.6859996,0.09696238
0.6869996,0.09745286
0.6879996,0.09791268
0.6889996,0.09840316
0.6899996,0.09889363
0.6909996,0.0993228
0.6919996,0.09981328
0.6929996,0.1003038
0.6939996,0.1007942
0.6949996,0.101254
0.6959996,0.1017445
0.6969996,0.1022043
0.6979996,0.1026948
0.6989996,0.1031853
0.6999996,0.1033079
0.6990005,0.1028788
0.6980005,0.1023883
0.6970005,0.1019285
0.6960005,0.1014993
0.6950005,0.1010088
0.6940005,0.1005183
0.6930005,0.1000585
0.6920004,0.09956805
0.6910005,0.09910822
0.6900005,0.09867906
0.6890005,0.09815792
0.6880005,0.09772875
0.6870005,0.09723828
0.6860005,0.09677845
0.6850005,0.09631863
0.6840005,0.09588946
0.6830005,0.09536833
0.6820005,0.09490851
0.6810005,0.09447934
0.6800005,0.09398887
0.6790005,0.09352904
0.6780005,0.09306922
0.6770005,0.09257875
0.6760005,0.09211892
0.6750005,0.0916591
0.6740005,0.09116862
0.6730005,0.09073945
0.6720005,0.09024898
0.6710005,0.08978915
0.6700005,0.08932933
0.6690005,0.0888695
0.6680005,0.08837903
0.6670005,0.08791921
0.6660005,0.08745939
0.6650005,0.08699957
0.6640005,0.08650909
0.6630005,0.08607992
0.6620005,0.0856201
0.6610005,0.08516028
0.6600005,0.0846698
0.6590005,0.08420997
0.6580005,0.08375015
0.6570005,0.08329033
0.6560005,0.08283051
0.6550004,0.08237069
0.6540005,0.08191086
0.6530005,0.08145104
0.6520005,0.08099122
0.6510005,0.0805314
0.6500005,0.08004092
0.6490005,0.07961175
0.6480005,0.07915193
0.6470005,0.07866146
0.6460005,0.07823228
0.6450005,0.07774181
0.6440005,0.07728198
0.6430005,0.07685282
0.6420005,0.07636234
0.6410004,0.07593317
0.6400005,0.07544269
0.6390005,0.07498287
0.6380005,0.07455371
0.6370005,0.07406323
0.6360005,0.07363406
0.6350005,0.07317424
0.6340005,0.07268376
0.6330005,0.07225459
0.6320005,0.07179477
0.6310005,0.07133495
0.6300005,0.07087513
0.6290005,0.0704153
0.6280005,0.06995548
0.6270005,0.06949566
0.6260005,0.06903584
0.6250005,0.06857602
0.6240005,0.06811619
0.6230005,0.06768703
0.6220005,0.06719655
0.6210005,0.06676738
0.6200005,0.06630756
0.6190005,0.06584774
0.6180004,0.06538791
0.6170005,0.06492809
0.6160005,0.06449892
0.6150005,0.0640391
0.6140005,0.06357928
0.6130005,0.06311946
0.6120005,0.06265964
0.6110005,0.06219981
0.6100005,0.06173999
0.6090005,0.06131082
0.6080005,0.060851
0.6070005,0.06039118
0.6060005,0.059962
0.6050005,0.05950218
0.6040004,0.05904236
0.6030005,0.05858254
0.6020005,0.05815337
0.6010005,0.05769355
0.6000005,0.05723373
0.5990005,0.05680456
0.5980005,0.05634474
0.5970005,0.05591557
0.5960005,0.05545575
0.5950005,0.05499592
0.5940005,0.05456676
0.5930005,0.05410693
0.5920005,0.05364711
0.5910005,0.05318729
0.5900005,0.05275812
0.5890005,0.0522983
0.5880005,0.05186913
0.5870005,0.05143997
0.5860005,0.05098015
0.5850005,0.05052032
0.5840005,0.05012181
0.5830005,0.04966199
0.5820005,0.04920216
0.5810004,0.04880365
0.5800005,0.04834383
0.5790005,0.04791466
0.5780005,0.04748549
0.5770005,0.04702567
0.5760005,0.0465965
0.5750005,0.04616734
0.5740005,0.04570751
0.5730005,0.04527835
0.5720005,0.04481852
0.5710005,0.04438936
0.5700005,0.04396019
0.5690005,0.04353102
0.5680005,0.0430712
0.5670004,0.04264203
0.5660005,0.04221286
0.5650005,0.0417837
0.5640005,0.04135453
0.5630005,0.04092536
0.5620005,0.04046554
0.5610005,0.04006703
0.5600005,0.03963786
0.5590005,0.03920869
0.5580005,0.03877952
0.5570005,0.03835035
0.5560005,0.03792119
0.5550005,0.03749202
0.5540005,0.03706285
0.5530005,0.03663369
0.5520005,0.03620452
0.5510005,0.03577535
0.5500005,0.03537684
0.5490005,0.03494767
0.5480005,0.0345185
0.5470005,0.03411999
0.5460005,0.03369082
0.5450005,0.03326165
0.5440005,0.03286314
0.5430005,0.03243398
0.5420005,0.03203546
0.5410005,0.03160629
0.5400005,0.03120778
0.5390005,0.03077861
0.5380005,0.0303801
0.5370005,0.02995093
0.5360005,0.02952177
0.5350005,0.02912325
0.5340005,0.02872474
0.5330005,0.02832623
0.5320005,0.02792772
0.5310005,0.02749855
0.5300004,0.02710003
0.5290005,0.02670152
0.5280005,0.02630301
0.5270005,0.0259045
0.5260005,0.02550598
0.5250005,0.02510747
0.5240005,0.0246783
0.5230005,0.02431045
0.5220005,0.02391193
0.5210005,0.02351342
0.5200005,0.02311491
0.5190005,0.02274705
0.5180005,0.02234854
0.5170005,0.02195002
0.5160004,0.02155151
0.5150005,0.02118365
0.5140005,0.02078514
0.5130005,0.02041728
0.5120005,0.02001877
0.5110005,0.01965091
0.5100005,0.01928305
0.5090005,0.01888454
0.5080005,0.01854734
0.5070005,0.01817948
0.5060005,0.01781162
0.5050005,0.01744376
0.5040005,0.01707591
0.5030005,0.01670805
0.5020005,0.01634019
0.5010005,0.01600299
0.5000005,0.01563513
0.4990005,0.01526727
0.4980005,0.01493007
0.4970005,0.01456221
0.4960005,0.01422501
0.4950005,0.01385715
0.4940005,0.01351995
0.4930005,0.01318274
0.4920005,0.01235708
0.4910005,0.01202907
0.4900005,0.011698
0.4890005,0.01136999
0.4880005,0.01105118
0.4870005,0.01072317
0.4860005,0.01041049
0.4850005,0.01009782
0.4840005,0.009779006
0.4830005,0.009475523
0.4820005,0.00916591
0.4810005,0.008862427
0.4800005,0.008565075
0.4790005,0.008267723
0.4780005,0.007976502
0.4770005,0.007688347
0.4760005,0.007400192
0.4750005,0.007118167
0.4740005,0.006836143
0.4730005,0.006563315
0.4720005,0.006293552
0.4710005,0.006020725
0.4700005,0.005760158
0.4690005,0.005499593
0.4680005,0.005245158
0.4670005,0.004993788
0.4660005,0.004745483
0.4650005,0.004506376
0.4640005,0.004267268
0.4630005,0.004031226
0.4620005,0.003804381
0.4610005,0.003574469
0.4600005,0.003353755
0.4590005,0.003142236
0.4580005,0.002930718
0.4570005,0.002725331
0.4560005,0.002526074
0.4550005,0.002326818
0.4540005,0.002136758
0.4530005,0.001946698
0.4520005,0.001765835
0.4510005,0.001594168
0.4500005,0.00141637
0.4490005,0.001247768
0.4480005,0.00105607
0.4470005,0.0008948261
0.4460005,0.0007458436
0.4450005,0.0005977808
0.4440005,0.0004491049
0.4430005,0.0003142237
0.4420005,0.0001771966
0.4410005,4.446118E-05
0.4400005,-8.17859E-05
0.4390005,-0.0002049263
0.4380005,-0.0003210162
0.4370005,-0.0004334476
0.4360005,-0.0005431919
0.4350005,-0.0006446594
0.4340005,-0.000747353
0.4330005,-0.0008439157
0.4320005,-0.0009355737
0.4310005,-0.001029377
0.4300005,-0.001113065
0.4290005,-0.001198286
0.4280005,-0.001281054
0.4270005,-0.001354012
0.4260005,-0.001430956
0.4250005,-0.001502995
0.4240005,-0.001568596
0.4230005,-0.001638489
0.4220005,-0.001701638
0.4210005,-0.001760495
0.4200005,-0.001822724
0.4190005,-0.001877597
0.4180005,-0.001932469
0.4170005,-0.001986115
0.4160005,-0.002036388
0.4150005,-0.002088808
0.4140005,-0.002134484
0.4130005,-0.002181386
0.4120005,-0.002227368
0.4110005,-0.002269672
0.4100005,-0.002320865
0.4090005,-0.002367461
0.4080005,-0.002402407
0.4070005,-0.002444711
0.4060005,-0.002479351
0.4050005,-0.002517056
0.4040005,-0.002555988
0.4030005,-0.002588482
0.4020005,-0.002627414
0.4010005,-0.00266328
0.4000005,-0.002694241
0.3990005,-0.002731333
0.3980005,-0.002765054
0.3970005,-0.002798774
0.3960005,-0.002834334
0.3950005,-0.002865908
0.3940005,-0.002898709
0.3930005,-0.002932735
0.3920005,-0.00296339
0.3910005,-0.00299803
0.3900005,-0.002997925
0.3890005,-0.00302858
0.3880005,-0.003059235
0.3870005,-0.003089889
0.3860005,-0.003126675
0.3850005,-0.00315733
0.3840005,-0.003187985
0.3830005,-0.003224771
0.3820005,-0.00325236
0.3810005,-0.003289146
0.3800005,-0.003325932
0.3790005,-0.003356587
0.3780005,-0.003393373
0.3770005,-0.003430158
0.3760005,-0.003460813
0.3750005,-0.003500664
0.3740005,-0.003534385
0.3730005,-0.003568105
0.3720005,-0.003607956
0.3710005,-0.003644742
0.3700005,-0.003681528
0.3690005,-0.003721379
0.3680005,-0.003755099
0.3670005,-0.003794951
0.3660005,-0.003831736
0.3650005,-0.003874653
0.3640005,-0.003914505
0.3630005,-0.00395129
0.3620005,-0.003994207
0.3610005,-0.004034058
0.3600005,-0.004076975
0.3590005,-0.004122957
0.3580005,-0.004162808
0.3570005,-0.004205726
0.3560005,-0.004251707
0.3550005,-0.004294624
0.3540005,-0.004340607
0.3530005,-0.004386589
0.3520005,-0.004429505
0.3510005,-0.004478553
0.3500005,-0.00452147
0.3490005,-0.004567452
0.3480005,-0.004619565
0.3470005,-0.004662482
0.3460005,-0.004714595
0.3450005,-0.004763643
0.3440005,-0.004812691
0.3430005,-0.004867869
0.3420005,-0.004916917
0.3410005,-0.004969031
0.3400005,-0.005024209
0.3390005,-0.005073257
0.3380005,-0.005131501
0.3370005,-0.005183614
0.3360005,-0.005235727
0.3350005,-0.005297037
0.3340005,-0.005352216
0.3330005,-0.005404329
0.3320005,-0.005462573
0.3310005,-0.005520817
0.3300005,-0.005579061
0.3290005,-0.005640371
0.3280005,-0.005698615
0.3270005,-0.005759925
0.3260005,-0.005821235
0.3250005,-0.005882544
0.3240005,-0.005940788
0.3230005,-0.006005164
0.3220005,-0.006069539
0.3210005,-0.006127783
0.3200005,-0.006195223
0.3190005,-0.00626573
0.3180005,-0.006323974
0.3170005,-0.00639448
0.3160005,-0.006461921
0.3150005,-0.006520165
0.3140005,-0.006596802
0.3130005,-0.006664242
0.3120005,-0.006725552
0.3110005,-0.006802189
0.3100005,-0.006866564
0.3090005,-0.006934005
0.3080005,-0.007007576
0.3070005,-0.007084213
0.3060005,-0.007154719
0.3050005,-0.007225225
0.3040005,-0.007295732
0.3030005,-0.007369304
0.3020005,-0.007439809
0.3010005,-0.007516447
0.3000005,-0.007590018
0.2990005,-0.007657459
0.2980005,-0.007737161
0.2970005,-0.007807667
0.2960005,-0.007881239
0.2950005,-0.007960942
0.2940005,-0.008037578
0.2930005,-0.008114216
0.2920005,-0.008193919
0.2910005,-0.008267489
0.2900005,-0.008347192
0.2890005,-0.008426895
0.2880005,-0.008500466
0.2870005,-0.0085863
0.2860005,-0.008662937
0.2850005,-0.008739574
0.2840005,-0.008825407
0.2830005,-0.00890511
0.2820005,-0.008984813
0.2810005,-0.009070646
0.2800005,-0.009150349
0.2790005,-0.009233117
0.2780005,-0.00931895
0.2770005,-0.009404784
0.2760005,-0.009487552
0.2750005,-0.009576451
0.2740005,-0.009668415
0.2730005,-0.009754249
0.2720005,-0.009843147
0.2710005,-0.009932047
0.2700005,-0.01002095
0.2690005,-0.01011291
0.2680005,-0.01020181
0.2670005,-0.01029071
0.2660005,-0.0103888
0.2650005,-0.01048077
0.2640005,-0.0105758
0.2630005,-0.01067389
0.2620005,-0.01076279
0.2610005,-0.01085782
0.2600005,-0.01095285
0.2590005,-0.01102949
0.2580005,-0.01111839
0.2570005,-0.01118583
0.2560005,-0.01124101
0.2550005,-0.01129312
0.2540005,-0.01131458
0.2530005,-0.01131151
0.2520005,-0.01129312
0.2510005,-0.01124101
0.2500005,-0.01115824
0.2490005,-0.01103869
0.2480005,-0.01087622
0.2470005,-0.01067083
0.2460005,-0.01041946
0.2450005,-0.01012824
0.2440005,-0.009791034
0.2430005,-0.009426242
0.2420005,-0.009039992
0.2410005,-0.00864761
0.2400005,-0.008258293
0.2390005,-0.007865911
0.2380005,-0.007501119
0.2370005,-0.007157785
0.2360005,-0.006823647
0.2350005,-0.006526296
0.2340005,-0.006256533
0.2330005,-0.005999033
0.2320005,-0.005772187
0.2310005,-0.005569865
0.2300005,-0.005373674
0.2290005,-0.005195876
0.2280005,-0.005039536
0.2270005,-0.004886262
0.2260005,-0.00474525
0.2250005,-0.0046165
0.2240005,-0.004484684
0.2230005,-0.004377393
0.2220005,-0.004260904
0.2210005,-0.004153612
0.2200005,-0.004058582
0.2190005,-0.003960487
0.2180005,-0.003868522
0.2170005,-0.003785754
0.2160005,-0.003699921
0.2150005,-0.003620218
0.2140005,-0.003546647
0.2130005,-0.003470009
0.2120005,-0.003399503
0.2110005,-0.003332063
0.2100005,-0.003267688
0.2090005,-0.003200247
0.2080005,-0.003142003
0.2070005,-0.003080693
0.2060005,-0.003019383
0.2050005,-0.00296727
0.2040005,-0.002912092
0.2030005,-0.002856913
0.2020005,-0.002807865
0.2010005,-0.002755752
0.2000005,-0.002706704
0.1990005,-0.002660722
0.1980005,-0.002611674
0.1970005,-0.002562626
0.1960005,-0.002516645
0.1950005,-0.002467597
0.1940005,-0.002415484
0.1930005,-0.002366436
0.1920005,-0.002320454
0.1910005,-0.002277537
0.1900005,-0.00223462
0.1890005,-0.002194769
0.1880005,-0.002157983
0.1870005,-0.002124263
0.1860005,-0.002090542
0.1850005,-0.002056822
0.1840005,-0.002026167
0.1830005,-0.001998578
0.1820005,-0.001970988
0.1810005,-0.001940334
0.1800005,-0.00191581
0.1790005,-0.001891286
0.1780005,-0.001866762
0.1770005,-0.001842238
0.1760005,-0.001817714
0.1750005,-0.001796256
0.1740005,-0.001774798
0.1730005,-0.001753339
0.1720005,-0.001731881
0.1710005,-0.001710422
0.1700005,-0.00169203
0.1690005,-0.001673637
0.1680005,-0.001652178
0.1670005,-0.001636851
0.1660005,-0.001618458
0.1650005,-0.001636343
0.1640005,-0.001619483
0.1630005,-0.001602929
0.1620005,-0.001586682
0.1610005,-0.001571048
0.1600005,-0.001555414
0.1590005,-0.00153978
0.1580005,-0.001525373
0.1570005,-0.001510658
0.1560005,-0.001495944
0.1550005,-0.001482456
0.1540005,-0.001468355
0.1530005,-0.00145548
0.1520005,-0.001442298
0.1510005,-0.001429423
0.1500005,-0.001416855
0.1490005,-0.001404593
0.1480005,-0.001392637
0.1470005,-0.001380988
0.1460005,-0.00136934
0.1450005,-0.001357997
0.1440005,-0.001346962
0.1430005,-0.001335926
0.1420005,-0.001325197
0.1410005,-0.00131508
0.1400005,-0.001304351
0.1390005,-0.001294235
0.1380005,-0.001284426
0.1370005,-0.001274616
0.1360005,-0.001264807
0.1350005,-0.001255304
0.1340005,-0.001245801
0.1330005,-0.001236911
0.1320005,-0.001228021
0.1310005,-0.001219131
0.1300005,-0.001210548
0.1290005,-0.001201964
0.1280005,-0.001193381
0.1270005,-0.001185104
0.1260005,-0.001176827
0.1250005,-0.001168857
0.1240005,-0.001161193
0.1230005,-0.001153223
0.1220005,-0.001145253
0.1210005,-0.001137896
0.1200005,-0.001130538
0.1190005,-0.001123181
0.1180005,-0.001116131
0.1170005,-0.001108774
0.1160005,-0.001101723
0.1150005,-0.001094979
0.1140005,-0.001087928
0.1130005,-0.001081491
0.1120005,-0.001074747
0.1110005,-0.001068309
0.1100005,-0.001061565
0.1090005,-0.001055434
0.1080005,-0.001048997
0.1070005,-0.001042866
0.1060005,-0.001036735
0.1050005,-0.001030297
0.1040005,-0.001024166
0.1030005,-0.001018648
0.1020005,-0.001012517
0.1010005,-0.001006999
0.1000005,-0.001001482
0.09900048,-0.0009956572
0.09800047,-0.0009901392
0.09700048,-0.0009846214
0.09600048,-0.0009791035
0.09500048,-0.0009738922
0.09400047,-0.0009686808
0.09300048,-0.000963163
0.09200048,-0.0009582583
0.09100047,-0.0009530469
0.09000048,-0.0009481421
0.08900048,-0.0009432373
0.08800048,-0.0009380261
0.08700047,-0.0009331212
0.08600048,-0.0009285231
0.08500048,-0.0009239248
0.08400048,-0.00091902
0.08300047,-0.0009144219
0.08200048,-0.0009098236
0.08100048,-0.0009052254
0.08000048,-0.0009006272
0.07900048,-0.0008963355
0.07800048,-0.0008920438
0.07700048,-0.0008874455
0.07600047,-0.0008831539
0.07500048,-0.0008788622
0.07400048,-0.0008745705
0.07300048,-0.0008702789
0.07200047,-0.0008662938
0.07100048,-0.0008620021
0.07000048,-0.000858017
0.06900048,-0.0008540318
0.06800048,-0.0008503532
0.06700048,-0.0008460616
0.06600048,-0.000842383
0.06500047,-0.0008383978
0.06400048,-0.0008344128
0.06300048,-0.0008310407
0.06200048,-0.0008270555
0.06100048,-0.000823377
0.06000048,-0.000820005
0.05900048,-0.0008160198
0.05800048,-0.0008126478
0.05700048,-0.0008089693
0.05600048,-0.0008052906
0.05500048,-0.0008019186
0.05400048,-0.0007985466
0.05300048,-0.000794868
0.05200048,-0.000791496
0.05100048,-0.0007881239
0.05000048,-0.0007847519
0.04900048,-0.0007813799
0.04800048,-0.0007780078
0.04700048,-0.0007749424
0.04600048,-0.0007715704
0.04500048,-0.0007681983
0.04400048,-0.0007651328
0.04300048,-0.0007620673
0.04200048,-0.0007586953
0.04100048,-0.0007559364
0.04000048,-0.0007525643
0.03900048,-0.0007498054
0.03800048,-0.0007467399
0.03700048,-0.0007436744
0.03600048,-0.0007409155
0.03500048,-0.00073785
0.03400048,-0.0007347845
0.03300048,-0.0007320256
0.03200048,-0.0007292667
0.03100048,-0.0007265077
0.03000048,-0.0007234422
0.02900048,-0.0007206833
0.02800048,-0.0007176179
0.02700048,-0.0007148589
0.02600048,-0.0007124065
0.02500048,-0.000709341
0.02400048,-0.0007065821
0.02300048,-0.0007041298
0.02200048,-0.0007013708
0.02100048,-0.0006986118
0.02000048,-0.0006961594
0.01900048,-0.0006934005
0.01800048,-0.0006906416
0.01700048,-0.0006881892
0.01600048,-0.0006854302
0.01500048,-0.0006829779
0.01400048,-0.0006805255
0.01300048,-0.0006780731
0.01200048,-0.0006756207
0.01100048,-0.0006728618
0.01000048,-0.0006704094
0.009000476,-0.0006679571
0.008000477,-0.0006655046
0.007000477,-0.0006630523
0.006000477,-0.0006605998
0.005000477,-0.0006581475
0.004000477,-0.0006556951
0.003000477,-0.0006532427
0.002000477,-0.0006507903
0.001000477,-0.0006486445
