EXPID. 0793
[电化学]: CV : 0 >> 0.7 >> 0 >> 0(V) @ 0.01(V/s) X 10(Seg)
起始电位 (V),0
上限电位 (V),0.7
下限电位 (V),0
终止电位 (V),0
扫速 (V/s),0.01
电解液 信息:
KOH,1
0.001,-9.015467E-06
0.002,-8.862193E-06
0.003,-8.794753E-06
0.004,-8.699722E-06
0.005,-8.598562E-06
0.006,-8.494335E-06
0.007,-8.322669E-06
0.008,-8.196984E-06
0.009,-8.040643E-06
0.01,-7.954811E-06
0.011,-7.85365E-06
0.012,-7.767816E-06
0.013,-7.718769E-06
0.014,-7.596149E-06
0.015,-7.537905E-06
0.016,-7.473529E-06
0.017,-7.455137E-06
0.018,-7.35091E-06
0.019,-7.243618E-06
0.02,-7.065821E-06
0.021,-6.97079E-06
0.022,-6.838975E-06
0.023,-6.728617E-06
0.024,-6.636653E-06
0.025,-6.615195E-06
0.026,-6.474183E-06
0.027,-6.443528E-06
0.028,-6.357694E-06
0.029,-6.330105E-06
0.03,-6.256533E-06
0.031,-6.090997E-06
0.032,-5.949985E-06
0.033,-5.821234E-06
0.034,-5.69555E-06
0.035,-5.674091E-06
0.036,-5.594389E-06
0.037,-5.533079E-06
0.038,-5.438049E-06
0.039,-5.385936E-06
0.04,-5.238793E-06
0.041,-5.067126E-06
0.042,-4.975162E-06
0.043,-4.913852E-06
0.044,-4.797364E-06
0.045,-4.803494E-06
0.046,-4.751381E-06
0.047,-4.659416E-06
0.048,-4.469357E-06
0.049,-4.303821E-06
0.05,-4.239445E-06
0.051,-4.144416E-06
0.052,-4.104565E-06
0.053,-3.988076E-06
0.054,-4.015665E-06
0.055,-3.834802E-06
0.056,-3.586498E-06
0.057,-3.546646E-06
0.058,-3.451617E-06
0.059,-3.445486E-06
0.06,-3.344325E-06
0.061,-3.264622E-06
0.062,-3.068431E-06
0.063,-3.000991E-06
0.064,-2.902895E-06
0.065,-2.87224E-06
0.066,-2.826258E-06
0.067,-2.68218E-06
0.068,-2.42468E-06
0.069,-2.357239E-06
0.07,-2.323519E-06
0.071,-2.213162E-06
0.072,-2.240751E-06
0.073,-2.130394E-06
0.074,-1.875959E-06
0.075,-1.765601E-06
0.076,-1.673637E-06
0.077,-1.581672E-06
0.078,-1.578607E-06
0.079,-1.517297E-06
0.08,-1.34563E-06
0.081,-1.15557E-06
0.082,-1.066671E-06
0.083,-9.747067E-07
0.084,-8.766112E-07
0.085,-8.551529E-07
0.086,-7.938432E-07
0.087,-6.344382E-07
0.088,-4.229198E-07
0.089,-3.156279E-07
0.09,-2.14467E-07
0.091,-1.562229E-07
0.092,-7.652033E-08
0.093,1.544415E-08
0.094,8.595024E-08
0.095,2.300279E-07
0.096,4.599391E-07
0.097,5.549691E-07
0.098,6.683919E-07
0.099,7.021122E-07
0.1,8.461899E-07
0.101,8.553864E-07
0.102,9.626782E-07
0.103,1.106756E-06
0.104,1.250834E-06
0.105,1.410239E-06
0.106,1.572709E-06
0.107,1.588037E-06
0.108,1.710656E-06
0.109,1.817948E-06
0.11,1.827144E-06
0.111,1.931371E-06
0.112,2.124496E-06
0.113,2.228722E-06
0.114,2.470896E-06
0.115,2.575122E-06
0.116,2.679348E-06
0.117,2.795837E-06
0.118,2.860212E-06
0.119,2.952177E-06
0.12,3.041075E-06
0.121,3.047206E-06
0.122,3.182088E-06
0.123,3.335362E-06
0.124,3.559142E-06
0.125,3.73694E-06
0.126,3.801315E-06
0.127,3.920869E-06
0.128,4.018964E-06
0.129,4.077208E-06
0.13,4.184501E-06
0.131,4.300989E-06
0.132,4.350037E-06
0.133,4.503311E-06
0.134,4.632061E-06
0.135,4.803728E-06
0.136,4.963133E-06
0.137,5.070424E-06
0.138,5.171586E-06
0.139,5.254354E-06
0.14,5.416824E-06
0.141,5.502658E-06
0.142,5.637539E-06
0.143,5.711111E-06
0.144,5.766289E-06
0.145,5.891975E-06
0.146,5.983939E-06
0.147,6.075903E-06
0.148,6.226112E-06
0.149,6.287421E-06
0.15,6.49894E-06
0.151,6.658345E-06
0.152,6.811619E-06
0.153,6.949566E-06
0.154,7.056858E-06
0.155,7.130429E-06
0.156,7.302096E-06
0.157,7.397126E-06
0.158,7.452305E-06
0.159,7.605579E-06
0.16,7.722067E-06
0.161,7.771115E-06
0.162,7.847751E-06
0.163,7.96424E-06
0.164,8.105253E-06
0.165,8.218675E-06
0.166,8.37195E-06
0.167,8.543616E-06
0.168,8.684629E-06
0.169,8.822575E-06
0.17,8.935998E-06
0.171,9.003439E-06
0.172,9.156714E-06
0.173,9.248677E-06
0.174,9.331446E-06
0.175,9.460196E-06
0.176,9.582815E-06
0.177,9.653321E-06
0.178,9.745286E-06
0.179,9.83725E-06
0.18,9.944541E-06
0.181,1.007942E-05
0.182,1.02327E-05
0.183,1.042276E-05
0.184,1.054231E-05
0.185,1.067719E-05
0.186,1.082127E-05
0.187,1.093776E-05
0.188,1.10849E-05
0.189,1.11738E-05
0.19,1.121978E-05
0.191,1.136999E-05
0.192,1.154779E-05
0.193,1.15999E-05
0.194,1.172252E-05
0.195,1.17777E-05
0.196,1.190338E-05
0.197,1.201068E-05
0.198,1.211797E-05
0.199,1.227737E-05
0.2,1.241839E-05
0.201,1.254407E-05
0.202,1.2728E-05
0.203,1.285675E-05
0.204,1.302842E-05
0.205,1.314491E-05
0.206,1.327059E-05
0.207,1.339321E-05
0.208,1.348517E-05
0.209,1.359553E-05
0.21,1.374267E-05
0.211,1.381931E-05
0.212,1.392967E-05
0.213,1.402776E-05
0.214,1.41136E-05
0.215,1.419943E-05
0.216,1.435577E-05
0.217,1.454276E-05
0.218,1.473283E-05
0.219,1.48769E-05
0.22,1.503324E-05
0.221,1.514666E-05
0.222,1.525396E-05
0.223,1.535205E-05
0.224,1.549613E-05
0.225,1.559116E-05
0.226,1.572911E-05
0.227,1.578122E-05
0.228,1.595902E-05
0.229,1.606938E-05
0.23,1.614908E-05
0.231,1.633914E-05
0.232,1.648322E-05
0.233,1.6707E-05
0.234,1.690012E-05
0.235,1.696143E-05
0.236,1.710551E-05
0.237,1.728331E-05
0.238,1.735688E-05
0.239,1.748563E-05
0.24,1.755307E-05
0.241,1.768795E-05
0.242,1.777378E-05
0.243,1.788414E-05
0.244,1.814164E-05
0.245,1.834396E-05
0.246,1.850643E-05
0.247,1.863518E-05
0.248,1.877313E-05
0.249,1.889268E-05
0.25,1.903983E-05
0.251,1.915938E-05
0.252,1.923602E-05
0.253,1.941075E-05
0.254,1.958855E-05
0.255,1.986444E-05
0.256,2.002998E-05
0.257,2.013421E-05
0.258,2.03212E-05
0.259,2.037332E-05
0.26,2.054498E-05
0.261,2.064001E-05
0.262,2.071665E-05
0.263,2.092204E-05
0.264,2.114888E-05
0.265,2.130522E-05
0.266,2.159031E-05
0.267,2.168534E-05
0.268,2.18662E-05
0.269,2.203787E-05
0.27,2.216969E-05
0.271,2.232296E-05
0.272,2.245171E-05
0.273,2.254981E-05
0.274,2.27368E-05
0.275,2.290234E-05
0.276,2.309546E-05
0.277,2.333151E-05
0.278,2.353383E-05
0.279,2.370856E-05
0.28,2.389555E-05
0.281,2.408255E-05
0.282,2.432166E-05
0.283,2.444427E-05
0.284,2.464966E-05
0.285,2.484279E-05
0.286,2.500219E-05
0.287,2.556729E-05
0.288,2.572057E-05
0.289,2.593515E-05
0.29,2.602712E-05
0.291,2.618039E-05
0.292,2.639497E-05
0.293,2.65789E-05
0.294,2.679348E-05
0.295,2.703872E-05
0.296,2.722265E-05
0.297,2.740658E-05
0.298,2.774378E-05
0.299,2.789706E-05
0.3,2.811164E-05
0.301,2.835688E-05
0.302,2.854081E-05
0.303,2.872474E-05
0.304,2.890867E-05
0.305,2.912325E-05
0.306,2.936849E-05
0.307,2.958307E-05
0.308,2.970569E-05
0.309,2.992028E-05
0.31,3.016552E-05
0.311,3.044141E-05
0.312,3.074796E-05
0.313,3.102385E-05
0.314,3.126909E-05
0.315,3.148367E-05
0.316,3.16676E-05
0.317,3.191284E-05
0.318,3.215808E-05
0.319,3.237266E-05
0.32,3.258725E-05
0.321,3.280183E-05
0.322,3.304707E-05
0.323,3.332296E-05
0.324,3.362951E-05
0.325,3.39054E-05
0.326,3.421195E-05
0.327,3.45185E-05
0.328,3.47944E-05
0.329,3.507029E-05
0.33,3.534618E-05
0.331,3.559142E-05
0.332,3.583666E-05
0.333,3.617386E-05
0.334,3.64191E-05
0.335,3.669499E-05
0.336,3.700154E-05
0.337,3.727743E-05
0.338,3.761464E-05
0.339,3.789053E-05
0.34,3.825839E-05
0.341,3.850363E-05
0.342,3.881018E-05
0.343,3.914738E-05
0.344,3.951524E-05
0.345,3.982179E-05
0.346,4.015899E-05
0.347,4.046554E-05
0.348,4.080274E-05
0.349,4.120125E-05
0.35,4.15078E-05
0.351,4.190631E-05
0.352,4.233548E-05
0.353,4.273399E-05
0.354,4.316316E-05
0.355,4.353102E-05
0.356,4.396019E-05
0.357,4.448132E-05
0.358,4.491049E-05
0.359,4.549293E-05
0.36,4.601406E-05
0.361,4.65965E-05
0.362,4.724025E-05
0.363,4.782269E-05
0.364,4.855841E-05
0.365,4.932478E-05
0.366,5.018312E-05
0.367,5.119473E-05
0.368,5.220633E-05
0.369,5.330991E-05
0.37,5.468938E-05
0.371,5.613015E-05
0.372,5.775486E-05
0.373,5.950218E-05
0.374,6.140278E-05
0.375,6.357927E-05
0.376,6.590904E-05
0.377,6.85147E-05
0.378,7.145757E-05
0.379,7.452305E-05
0.38,7.807901E-05
0.381,8.172693E-05
0.382,8.580402E-05
0.383,9.027963E-05
0.384,9.503113E-05
0.385,0.0001002731
0.386,0.0001060055
0.387,0.0001120752
0.388,0.0001188499
0.389,0.0001261151
0.39,0.0001339321
0.391,0.0001424541
0.392,0.000151528
0.393,0.0001614601
0.394,0.00017222
0.395,0.0001837768
0.396,0.0001964679
0.397,0.00021014
0.398,0.0002249769
0.399,0.0002411933
0.4,0.0002586053
0.401,0.0002780404
0.402,0.0002988551
0.403,0.0003252594
0.404,0.0003507029
0.405,0.0003776792
0.406,0.0004077209
0.407,0.0004408281
0.408,0.0004760812
0.409,0.0005159324
0.41,0.0005600754
0.411,0.0006063642
0.412,0.0006572512
0.413,0.0007118168
0.414,0.000770674
0.415,0.0008344361
0.416,0.0009024898
0.417,0.0009760614
0.418,0.001053618
0.419,0.001136079
0.42,0.001223752
0.421,0.001314491
0.422,0.00141136
0.423,0.001512521
0.424,0.001615828
0.425,0.001725572
0.426,0.001836849
0.427,0.001951191
0.428,0.002070745
0.429,0.002190912
0.43,0.002315064
0.431,0.002441975
0.432,0.00256858
0.433,0.002699476
0.434,0.002831905
0.435,0.002964027
0.436,0.003129974
0.437,0.003267921
0.438,0.003402802
0.439,0.003540749
0.44,0.003678696
0.441,0.003819708
0.442,0.003963786
0.443,0.004104798
0.444,0.004248876
0.445,0.004389888
0.446,0.004533966
0.447,0.004681109
0.448,0.004828252
0.449,0.00497846
0.45,0.005125604
0.451,0.005275812
0.452,0.005432152
0.453,0.005582361
0.454,0.0057387
0.455,0.005898105
0.456,0.00605751
0.457,0.006219981
0.458,0.006388582
0.459,0.006554118
0.46,0.006728851
0.461,0.006906649
0.462,0.007084447
0.463,0.007271441
0.464,0.007458436
0.465,0.007651561
0.466,0.007850817
0.467,0.008053139
0.468,0.008261592
0.469,0.00847311
0.47,0.00869689
0.471,0.008920671
0.472,0.009150582
0.473,0.009392755
0.474,0.009634929
0.475,0.009889363
0.476,0.0101438
0.477,0.01041049
0.478,0.01068332
0.479,0.01096228
0.48,0.01124737
0.481,0.01154166
0.482,0.01183901
0.483,0.01214556
0.484,0.0124613
0.485,0.01277705
0.486,0.01310812
0.487,0.01343919
0.488,0.0137764
0.489,0.01412893
0.49,0.01447533
0.491,0.01483092
0.492,0.01519878
0.493,0.01556664
0.494,0.01593756
0.495,0.01631768
0.496,0.0166978
0.497,0.01708711
0.498,0.01747337
0.499,0.01786881
0.5,0.01827039
0.501,0.01866584
0.502,0.01907048
0.503,0.01947513
0.504,0.01987671
0.505,0.02029055
0.506,0.02070132
0.507,0.02110903
0.508,0.02152594
0.509,0.02193365
0.51,0.02234749
0.511,0.02276439
0.512,0.0231813
0.513,0.0235982
0.514,0.02401204
0.515,0.02442282
0.516,0.02483666
0.517,0.02525356
0.518,0.02566434
0.519,0.02607205
0.52,0.02648589
0.521,0.0268936
0.522,0.02729824
0.523,0.02771208
0.524,0.02811366
0.525,0.02852137
0.526,0.02892601
0.527,0.02933065
0.528,0.0297353
0.529,0.03013075
0.53,0.0313304
0.531,0.03169826
0.532,0.03209677
0.533,0.03249529
0.534,0.03292445
0.535,0.03332296
0.536,0.03372148
0.537,0.03415065
0.538,0.03454916
0.539,0.03494767
0.54,0.03537684
0.541,0.03577535
0.542,0.03617386
0.543,0.03660303
0.544,0.03700154
0.545,0.03743071
0.546,0.03782922
0.547,0.03825839
0.548,0.03868756
0.549,0.03908607
0.55,0.03951524
0.551,0.03994441
0.552,0.04034292
0.553,0.04077209
0.554,0.0411706
0.555,0.04159977
0.556,0.04202893
0.557,0.0424581
0.558,0.04285662
0.559,0.04328578
0.56,0.04371495
0.561,0.04414412
0.562,0.04454263
0.563,0.0449718
0.564,0.04540097
0.565,0.04583013
0.566,0.0462593
0.567,0.04671912
0.568,0.04711764
0.569,0.0475468
0.57,0.04797597
0.571,0.04840514
0.572,0.04883431
0.573,0.04926347
0.574,0.04969264
0.575,0.05009115
0.576,0.05052032
0.577,0.05094949
0.578,0.05137866
0.579,0.05180782
0.58,0.05220634
0.581,0.0526355
0.582,0.05306467
0.583,0.05349384
0.584,0.05392301
0.585,0.05435218
0.586,0.05478134
0.587,0.05521051
0.588,0.05563968
0.589,0.05603819
0.59,0.05646735
0.591,0.05689653
0.592,0.05729504
0.593,0.05778552
0.594,0.05818403
0.595,0.05861319
0.596,0.05904236
0.597,0.05947153
0.598,0.0599007
0.599,0.06036052
0.6,0.06075903
0.601,0.0611882
0.602,0.06164802
0.603,0.06207719
0.604,0.06250636
0.605,0.06293552
0.606,0.06336469
0.607,0.06379386
0.608,0.06422303
0.609,0.06468286
0.61,0.06511202
0.611,0.06554119
0.612,0.06597035
0.613,0.06639952
0.614,0.06685934
0.615,0.06731917
0.616,0.06771768
0.617,0.06817751
0.618,0.06863733
0.619,0.06906649
0.62,0.06952631
0.621,0.06998613
0.622,0.0704153
0.623,0.07087513
0.624,0.07130429
0.625,0.07176412
0.626,0.07222394
0.627,0.07265311
0.628,0.07308228
0.629,0.0735421
0.63,0.07400192
0.631,0.07446174
0.632,0.07492156
0.633,0.07535073
0.634,0.0757799
0.635,0.07627037
0.636,0.0767302
0.637,0.07715937
0.638,0.07761919
0.639,0.07807901
0.64,0.07853883
0.641,0.07899866
0.642,0.07945848
0.643,0.07988765
0.644,0.08037812
0.645,0.08080729
0.646,0.08126711
0.647,0.08172693
0.648,0.08218676
0.649,0.08264658
0.65,0.08307575
0.651,0.08356623
0.652,0.08399539
0.653,0.08448587
0.654,0.08494569
0.655,0.08537485
0.656,0.08586534
0.657,0.08635581
0.658,0.08678498
0.659,0.08727546
0.66,0.08773528
0.661,0.08816445
0.662,0.08865493
0.663,0.08911475
0.664,0.08957457
0.665,0.09006505
0.666,0.09052487
0.667,0.09101535
0.668,0.09147517
0.669,0.09193499
0.67,0.09242547
0.671,0.09288529
0.672,0.09334511
0.673,0.09383559
0.674,0.09429541
0.675,0.09472458
0.676,0.09521506
0.677,0.09564423
0.678,0.0960734
0.679,0.09656387
0.68,0.09699304
0.681,0.0974222
0.682,0.09791268
0.683,0.09834184
0.684,0.09880167
0.685,0.09926149
0.686,0.09969067
0.687,0.1001505
0.688,0.1006103
0.689,0.1010395
0.69,0.1014993
0.691,0.1019898
0.692,0.1024189
0.693,0.1028788
0.694,0.1033692
0.695,0.1037984
0.696,0.1042889
0.697,0.1047487
0.698,0.1052085
0.699,0.105699
0.7,0.1058216
0.6990001,0.1053311
0.6980001,0.104902
0.6970001,0.1044115
0.6960001,0.103921
0.6950001,0.1035225
0.6940001,0.103032
0.6930001,0.1025416
0.6920001,0.1021124
0.6910001,0.1016219
0.6900001,0.1011314
0.6890001,0.1007023
0.6880001,0.1002118
0.6870001,0.09975197
0.6860001,0.0993228
0.6850001,0.09883233
0.6840001,0.09837251
0.6830001,0.09794334
0.6820001,0.09745286
0.6810001,0.09702369
0.6800001,0.09656387
0.6790001,0.09610405
0.6780001,0.09561357
0.6770001,0.09518441
0.6760001,0.09472458
0.6750001,0.0942341
0.6740001,0.09380494
0.6730001,0.09331446
0.6720001,0.09285464
0.6710001,0.09239481
0.6700001,0.09193499
0.6690001,0.09144451
0.6680001,0.09101535
0.6670001,0.09052487
0.6660001,0.0900957
0.6650001,0.08960523
0.6640001,0.08911475
0.6630001,0.08865493
0.6620001,0.08819511
0.6610001,0.08773528
0.6600001,0.08727546
0.6590001,0.08681564
0.6580001,0.08632516
0.6570001,0.08586534
0.6560001,0.08540551
0.6550001,0.08491503
0.6540001,0.08442456
0.6530001,0.08396474
0.6520001,0.08350492
0.6510001,0.08304509
0.6500001,0.08258527
0.6490001,0.08212545
0.6480001,0.08163497
0.6470001,0.08117515
0.6460001,0.08074598
0.6450001,0.0802555
0.6440001,0.07979568
0.6430001,0.07933586
0.6420001,0.07887604
0.6410001,0.07841621
0.6400001,0.07795639
0.6390001,0.07746591
0.6380001,0.07703675
0.6370001,0.07654627
0.6360001,0.07608645
0.6350001,0.07562663
0.6340001,0.07516681
0.6330001,0.07470698
0.6320001,0.07424716
0.6310001,0.07378733
0.6300001,0.07329686
0.6290001,0.07283704
0.6280001,0.07240786
0.6270001,0.07191739
0.6260001,0.07148822
0.6250001,0.0710284
0.6240001,0.07053792
0.6230001,0.07010876
0.6220001,0.06964894
0.6210001,0.06915846
0.6200001,0.06869864
0.6190001,0.06826947
0.6180001,0.06777899
0.6170001,0.06731917
0.6160001,0.06688999
0.6150001,0.06639952
0.6140001,0.06597035
0.6130001,0.06551053
0.6120001,0.06505071
0.6110001,0.06462154
0.6100001,0.06416172
0.6090001,0.06367125
0.6080001,0.06324207
0.6070001,0.06278225
0.6060001,0.06232243
0.6050001,0.06189326
0.6040001,0.06143344
0.6030001,0.06097361
0.6020001,0.06051379
0.6010001,0.06005397
0.6000001,0.0596248
0.5990001,0.05916498
0.5980001,0.05870516
0.5970001,0.05824534
0.5960001,0.05781617
0.5950001,0.05735635
0.5940001,0.05689653
0.5930001,0.05646735
0.5920001,0.05600753
0.5910001,0.05557837
0.5900001,0.05511854
0.5890001,0.05468938
0.5880001,0.05422956
0.5870001,0.05376973
0.5860001,0.05330991
0.5850001,0.05288074
0.5840001,0.05245158
0.5830001,0.05199176
0.5820001,0.05153193
0.5810001,0.05110276
0.5800001,0.05067359
0.5790001,0.05021377
0.5780001,0.0497846
0.5770001,0.04935544
0.5760001,0.04889562
0.5750001,0.04846645
0.5740001,0.04803728
0.5730001,0.04757746
0.5720001,0.04714829
0.5710001,0.04671912
0.5700001,0.0462593
0.5690001,0.04583013
0.5680001,0.04540097
0.5670001,0.04494114
0.5660001,0.04451197
0.5650001,0.04408281
0.5640001,0.04365364
0.5630001,0.04322447
0.5620001,0.0427953
0.5610001,0.04236614
0.5600001,0.04193697
0.5590001,0.04147715
0.5580001,0.04104798
0.5570001,0.04064947
0.5560001,0.04018965
0.5550001,0.03976048
0.5540001,0.03933131
0.5530001,0.0389328
0.5520001,0.03847298
0.5510001,0.03807446
0.5500001,0.0376453
0.5490001,0.03721613
0.5480001,0.03678696
0.5470001,0.03635779
0.5460001,0.03592863
0.5450001,0.03553011
0.5440001,0.03510094
0.5430001,0.03467178
0.5420001,0.03424261
0.5410001,0.03384409
0.5400001,0.03341493
0.5390001,0.03301642
0.5380001,0.03258725
0.5370001,0.03218874
0.5360001,0.03175957
0.5350001,0.03136105
0.5340001,0.03093189
0.5330001,0.03053337
0.5320001,0.03010421
0.5310001,0.02970569
0.5300001,0.02927653
0.5290001,0.02887801
0.5280001,0.0284795
0.5270001,0.02808099
0.5260001,0.02765182
0.5250001,0.02725331
0.5240001,0.0268548
0.5230001,0.02645628
0.5220001,0.02605777
0.5210001,0.02565926
0.5200001,0.02526074
0.5190001,0.02486223
0.5180001,0.02446372
0.5170001,0.02406521
0.5160001,0.02369735
0.5150001,0.02329884
0.5140001,0.02290032
0.5130001,0.02250181
0.5120001,0.0221033
0.5110001,0.02170478
0.5100001,0.02133693
0.5090001,0.02093842
0.5080001,0.02057056
0.5070001,0.0202027
0.5060001,0.01980419
0.5050001,0.01943633
0.5040001,0.01906847
0.5030001,0.01866996
0.5020001,0.01833276
0.5010001,0.0179649
0.5000001,0.01756638
0.4990001,0.01722918
0.4980001,0.01686132
0.4970001,0.01649346
0.4960001,0.01612561
0.4950001,0.0157884
0.4940001,0.01542055
0.4930001,0.01505269
0.4920001,0.01471548
0.4910001,0.01434763
0.4900001,0.01397977
0.4890001,0.01364256
0.4880001,0.01330536
0.4870001,0.01246743
0.4860001,0.01213943
0.4850001,0.01180835
0.4840001,0.01147422
0.4830001,0.01115541
0.4820001,0.0108274
0.4810001,0.01050552
0.4800001,0.01018672
0.4790001,0.009867905
0.4780001,0.009558291
0.4770001,0.009248678
0.4760001,0.008939064
0.4750001,0.008638646
0.4740001,0.008332099
0.4730001,0.008034746
0.4720001,0.007743525
0.4710001,0.007446174
0.4700001,0.007161084
0.4690001,0.00687906
0.4680001,0.00659397
0.4670001,0.006318076
0.4660001,0.006042183
0.4650001,0.005772421
0.4640001,0.005505723
0.4630001,0.005242092
0.4620001,0.004984592
0.4610001,0.004727091
0.4600001,0.004472656
0.4590001,0.004227417
0.4580001,0.003985244
0.4570001,0.003743071
0.4560001,0.003510094
0.4550001,0.003277118
0.4540001,0.003050272
0.4530001,0.002829557
0.4520001,0.002605777
0.4510001,0.002394259
0.4500001,0.00218274
0.4490001,0.001974287
0.4480001,0.001775031
0.4470001,0.001575775
0.4460001,0.001382649
0.4450001,0.001192589
0.4440001,0.0009714631
0.4430001,0.000792439
0.4420001,0.0006121886
0.4410001,0.0004371495
0.4400001,0.000268548
0.4390001,9.994642E-05
0.4380001,-6.191107E-05
0.4370001,-0.0002260782
0.4360001,-0.0003823871
0.4350001,-0.0005309299
0.4340001,-0.0006820582
0.4330001,-0.0008270555
0.4320001,-0.0009680677
0.4310001,-0.001111839
0.4300001,-0.001247946
0.4290001,-0.001384054
0.4280001,-0.001517709
0.4270001,-0.001645233
0.4260001,-0.001774596
0.4250001,-0.001900588
0.4240001,-0.002021674
0.4230001,-0.002146746
0.4220001,-0.0022663
0.4210001,-0.002384934
0.4200001,-0.002502955
0.4190001,-0.002615458
0.4180001,-0.002732253
0.4170001,-0.002844143
0.4160001,-0.002956646
0.4150001,-0.003072215
0.4140001,-0.003142003
0.4130001,-0.00325236
0.4120001,-0.003362718
0.4110001,-0.003470009
0.4100001,-0.003586498
0.4090001,-0.003702986
0.4080001,-0.003804147
0.4070001,-0.003914505
0.4060001,-0.004021796
0.4050001,-0.004129088
0.4040001,-0.004239446
0.4030001,-0.004349803
0.4020001,-0.00446016
0.4010001,-0.004570518
0.4000001,-0.004680875
0.3990001,-0.004791233
0.3980001,-0.004904655
0.3970001,-0.005018078
0.3960001,-0.005131501
0.3950001,-0.005241858
0.3940001,-0.005358347
0.3930001,-0.005468704
0.3920001,-0.005582127
0.3910001,-0.005701681
0.3900001,-0.005812038
0.3890001,-0.005928526
0.3880001,-0.006045015
0.3870001,-0.006152307
0.3860001,-0.006268795
0.3850001,-0.006385284
0.3840001,-0.00648951
0.3830001,-0.006605998
0.3820001,-0.006719421
0.3810001,-0.006826713
0.3800001,-0.006940136
0.3790001,-0.007047428
0.3780001,-0.007157785
0.3770001,-0.007265077
0.3760001,-0.007372369
0.3750001,-0.007476595
0.3740001,-0.007577756
0.3730001,-0.007685048
0.3720001,-0.007786209
0.3710001,-0.00788737
0.3700001,-0.007994662
0.3690001,-0.008086626
0.3680001,-0.008184722
0.3670001,-0.008285882
0.3660001,-0.008374781
0.3650001,-0.008472877
0.3640001,-0.008567907
0.3630001,-0.008650675
0.3620001,-0.008745705
0.3610001,-0.008834604
0.3600001,-0.008914307
0.3590001,-0.00900014
0.3580001,-0.009082908
0.3570001,-0.009153415
0.3560001,-0.009230051
0.3550001,-0.009297492
0.3540001,-0.009358802
0.3530001,-0.009417046
0.3520001,-0.009469159
0.3510001,-0.009518206
0.3500001,-0.009554992
0.3490001,-0.009585647
0.3480001,-0.009607106
0.3470001,-0.009616302
0.3460001,-0.009619367
0.3450001,-0.009610171
0.3440001,-0.009585647
0.3430001,-0.009554992
0.3420001,-0.00950901
0.3410001,-0.009450765
0.3400001,-0.00938026
0.3390001,-0.009294426
0.3380001,-0.009196331
0.3370001,-0.009085974
0.3360001,-0.008960289
0.3350001,-0.008816211
0.3340001,-0.008656806
0.3330001,-0.008482073
0.3320001,-0.008288948
0.3310001,-0.008074365
0.3300001,-0.007841388
0.3290001,-0.007599215
0.3280001,-0.007332517
0.3270001,-0.007053559
0.3260001,-0.006765403
0.3250001,-0.006464986
0.3240001,-0.006155372
0.3230001,-0.005845758
0.3220001,-0.005542276
0.3210001,-0.005238793
0.3200001,-0.004950637
0.3190001,-0.00467781
0.3180001,-0.004417243
0.3170001,-0.004178136
0.3160001,-0.003960487
0.3150001,-0.003758165
0.3140001,-0.003577302
0.3130001,-0.003414831
0.3120001,-0.003264622
0.3110001,-0.003129741
0.3100001,-0.003013253
0.3090001,-0.002902895
0.3080001,-0.0028048
0.3070001,-0.002715901
0.3060001,-0.002633133
0.3050001,-0.002556496
0.3040001,-0.00248599
0.3030001,-0.002418549
0.3020001,-0.002357239
0.3010001,-0.002298995
0.3000001,-0.002243817
0.2990001,-0.002194769
0.2980001,-0.002145721
0.2970001,-0.002099739
0.2960001,-0.002053756
0.2950001,-0.002013905
0.2940001,-0.001974054
0.2930001,-0.001934203
0.2920001,-0.001900482
0.2910001,-0.001863697
0.2900001,-0.001829976
0.2890001,-0.001799321
0.2880001,-0.001768667
0.2870001,-0.001738012
0.2860001,-0.001710422
0.2850001,-0.001679768
0.2840001,-0.001652178
0.2830001,-0.001627655
0.2820001,-0.001603131
0.2810001,-0.001615804
0.2800001,-0.0015922
0.2790001,-0.001569516
0.2780001,-0.001547444
0.2770001,-0.001525986
0.2760001,-0.00150514
0.2750001,-0.001484908
0.2740001,-0.001465289
0.2730001,-0.001445977
0.2720001,-0.001426971
0.2710001,-0.001409191
0.2700001,-0.001391411
0.2690001,-0.001374244
0.2680001,-0.001357691
0.2670001,-0.001341137
0.2660001,-0.001325197
0.2650001,-0.001309563
0.2640001,-0.001294235
0.2630001,-0.001279214
0.2620001,-0.0012645
0.2610001,-0.001250399
0.2600001,-0.001236604
0.2590001,-0.001223116
0.2580001,-0.001209628
0.2570001,-0.001197059
0.2560001,-0.001184184
0.2550001,-0.001171922
0.2540001,-0.001159354
0.2530001,-0.001147398
0.2520001,-0.00113575
0.2510001,-0.001124101
0.2500001,-0.001112759
0.2490001,-0.001101723
0.2480001,-0.001090687
0.2470001,-0.001080264
0.2460001,-0.001069842
0.2450001,-0.001059419
0.2440001,-0.00104961
0.2430001,-0.0010398
0.2420001,-0.001029991
0.2410001,-0.001020488
0.2400001,-0.001010985
0.2390001,-0.001001788
0.2380001,-0.0009928982
0.2370001,-0.0009840083
0.2360001,-0.0009754249
0.2350001,-0.0009668416
0.2340001,-0.0009582583
0.2330001,-0.0009499814
0.2320001,-0.0009417046
0.2310001,-0.0009337344
0.2300001,-0.0009257642
0.2290001,-0.0009181004
0.2280001,-0.0009104367
0.2270001,-0.000902773
0.2260001,-0.0008954158
0.2250001,-0.0008883653
0.2240001,-0.000881008
0.2230001,-0.0008739574
0.2220001,-0.0008666003
0.2210001,-0.0008595497
0.2200001,-0.0008531122
0.2190001,-0.0008463681
0.2180001,-0.0008399306
0.2170001,-0.0008334931
0.2160001,-0.0008270555
0.2150001,-0.0008206181
0.2140001,-0.0008144871
0.2130001,-0.0008083562
0.2120001,-0.0008025317
0.2110001,-0.0007960942
0.2100001,-0.0007902698
0.2090001,-0.0007847519
0.2080001,-0.0007786209
0.2070001,-0.0007731031
0.2060001,-0.0007675852
0.2050001,-0.0007620673
0.2040001,-0.000756856
0.2030001,-0.0007516447
0.2020001,-0.0007464333
0.2010001,-0.0007409155
0.2000001,-0.0007357041
0.1990001,-0.0007307994
0.1980001,-0.0007255881
0.1970001,-0.0007206833
0.1960001,-0.0007160851
0.1950001,-0.0007108737
0.1940001,-0.0007065821
0.1930001,-0.0007016773
0.1920001,-0.0006970791
0.1910001,-0.0006924809
0.1900001,-0.0006878827
0.1890001,-0.0006832844
0.1880001,-0.0006789928
0.1870001,-0.0006743945
0.1860001,-0.0006701029
0.1850001,-0.0006658112
0.1840001,-0.0006615195
0.1830001,-0.0006575344
0.1820001,-0.0006535492
0.1810001,-0.0006492576
0.1800001,-0.0006452725
0.1790001,-0.0006412873
0.1780001,-0.0006373022
0.1770001,-0.0006333171
0.1760001,-0.0006293319
0.1750001,-0.0006256534
0.1740001,-0.0006219748
0.1730001,-0.0006182962
0.1720001,-0.0006146176
0.1710001,-0.0006109391
0.1700001,-0.0006069539
0.1690001,-0.0006035819
0.1680001,-0.0005999033
0.1670001,-0.0005965313
0.1660001,-0.0005931592
0.1650001,-0.0005897872
0.1640001,-0.0005864152
0.1630001,-0.0005830431
0.1620001,-0.0005796711
0.1610001,-0.0005762991
0.1600001,-0.000572927
0.1590001,-0.0005698616
0.1580001,-0.0005667961
0.1570001,-0.0005634241
0.1560001,-0.0005606651
0.1550001,-0.0005572931
0.1540001,-0.0005542276
0.1530001,-0.0005514687
0.1520001,-0.0005480966
0.1510001,-0.0005450312
0.1500001,-0.0005422722
0.1490001,-0.0005395133
0.1480001,-0.0005364478
0.1470001,-0.0005336889
0.1460001,-0.0005309299
0.1450001,-0.000528171
0.1440001,-0.000525412
0.1430001,-0.0005226531
0.1420001,-0.0005198942
0.1410001,-0.0005171353
0.1400001,-0.0005143763
0.1390001,-0.0005119239
0.1380001,-0.000509165
0.1370001,-0.0005067126
0.1360001,-0.0005039537
0.1350001,-0.0005015013
0.1340001,-0.0004990489
0.1330001,-0.0004969031
0.1320001,-0.0004941442
0.1310001,-0.0004916918
0.1300001,-0.0004892393
0.1290001,-0.000486787
0.1280001,-0.0004846411
0.1270001,-0.0004821887
0.1260001,-0.0004800429
0.1250001,-0.0004775905
0.1240001,-0.0004754447
0.1230001,-0.0004732989
0.1220001,-0.000471153
0.1210001,-0.0004690072
0.1200001,-0.0004665548
0.1190001,-0.0004644089
0.1180001,-0.0004622631
0.1170001,-0.0004601173
0.1160001,-0.0004579714
0.1150001,-0.0004558256
0.1140001,-0.0004539863
0.1130001,-0.0004518405
0.1120001,-0.0004496947
0.1110001,-0.0004475488
0.1100001,-0.0004457095
0.1090001,-0.0004435637
0.1080001,-0.0004420309
0.1070001,-0.0004398851
0.1060001,-0.0004380458
0.1050001,-0.0004362065
0.1040001,-0.0004343672
0.1030001,-0.0004322214
0.1020001,-0.0004303821
0.1010001,-0.0004285428
0.1000001,-0.0004270101
0.0990001,-0.0004248642
0.09800009,-0.0004230249
0.09700009,-0.0004214922
0.0960001,-0.0004196529
0.0950001,-0.0004178136
0.09400009,-0.0004159743
0.0930001,-0.0004144416
0.0920001,-0.0004126023
0.0910001,-0.0004110696
0.09000009,-0.0004092303
0.0890001,-0.0004076975
0.0880001,-0.0004058582
0.08700009,-0.0004043255
0.08600009,-0.0004024862
0.0850001,-0.0004009535
0.0840001,-0.0003994207
0.08300009,-0.000397888
0.08200009,-0.0003963552
0.0810001,-0.0003948225
0.0800001,-0.0003932898
0.07900009,-0.0003914505
0.0780001,-0.0003899177
0.0770001,-0.000388385
0.07600009,-0.0003868522
0.07500009,-0.0003853195
0.0740001,-0.0003840933
0.0730001,-0.0003825606
0.07200009,-0.0003810278
0.07100009,-0.0003798016
0.0700001,-0.0003782689
0.0690001,-0.0003767362
0.06800009,-0.00037551
0.0670001,-0.0003742838
0.0660001,-0.000372751
0.06500009,-0.0003715248
0.06400009,-0.0003699921
0.0630001,-0.0003687659
0.0620001,-0.0003672332
0.06100009,-0.0003660069
0.0600001,-0.0003647808
0.0590001,-0.0003632481
0.0580001,-0.0003623284
0.0570001,-0.0003607956
0.05600009,-0.0003595694
0.0550001,-0.0003583433
0.05400009,-0.0003571171
0.0530001,-0.0003558909
0.05200009,-0.0003546647
0.0510001,-0.0003534385
0.05000009,-0.0003522123
0.0490001,-0.0003509861
0.04800009,-0.0003497599
0.0470001,-0.0003488403
0.0460001,-0.0003476141
0.04500009,-0.0003463879
0.0440001,-0.0003451617
0.04300009,-0.0003439355
0.0420001,-0.0003430158
0.04100009,-0.0003417897
0.0400001,-0.0003405634
0.03900009,-0.0003393373
0.0380001,-0.0003384176
0.03700009,-0.0003371914
0.0360001,-0.0003362718
0.0350001,-0.0003350456
0.03400009,-0.0003338194
0.0330001,-0.0003328998
0.03200009,-0.0003316735
0.03100009,-0.0003307539
0.0300001,-0.0003295277
0.0290001,-0.0003286081
0.0280001,-0.0003276884
0.0270001,-0.0003267688
0.0260001,-0.0003255426
0.0250001,-0.0003246229
0.0240001,-0.0003233968
0.0230001,-0.0003224771
0.02200009,-0.0003215575
0.02100009,-0.0003206378
0.02000009,-0.0003197182
0.0190001,-0.0003187985
0.0180001,-0.0003175724
0.0170001,-0.0003166527
0.0160001,-0.0003157331
0.0150001,-0.0003148134
0.0140001,-0.0003138937
0.0130001,-0.0003129741
0.0120001,-0.0003120545
0.01100009,-0.0003111348
0.0100001,-0.0003105217
0.009000096,-0.0003092955
0.008000095,-0.0003083759
0.007000095,-0.0003077628
0.006000096,-0.0003068431
0.005000095,-0.0003059235
0.004000095,-0.0003050039
0.003000095,-0.0003040842
0.002000095,-0.0003031646
0.001000095,-0.0003025515
9.536743E-08,-0.0002985664
0.0009999046,-0.0002924354
0.001999905,-0.0002872241
0.002999905,-0.0002826258
0.003999905,-0.0002783342
0.004999904,-0.0002740425
0.005999905,-0.0002700574
0.006999905,-0.0002663788
0.007999904,-0.0002627002
0.008999905,-0.0002593282
0.009999905,-0.0002562627
0.0109999,-0.0002528907
0.0119999,-0.0002498252
0.0129999,-0.0002470662
0.0139999,-0.0002440007
0.0149999,-0.0002412418
0.0159999,-0.0002387894
0.0169999,-0.0002360305
0.0179999,-0.0002335781
0.0189999,-0.0002311257
0.0199999,-0.0002286733
0.0209999,-0.0002262209
0.0219999,-0.0002240751
0.02299991,-0.0002219293
0.02399991,-0.0002197834
0.02499991,-0.0002176376
0.02599991,-0.0002154918
0.0269999,-0.0002133459
0.0279999,-0.0002115066
0.0289999,-0.0002093608
0.0299999,-0.0002075215
0.0309999,-0.0002056822
0.0319999,-0.0002038429
0.0329999,-0.0002020036
0.0339999,-0.0002001643
0.0349999,-0.0001983251
0.03599991,-0.0001967923
0.0369999,-0.000194953
0.03799991,-0.0001934203
0.0389999,-0.000191581
0.03999991,-0.0001900483
0.0409999,-0.0001885155
0.04199991,-0.0001866762
0.0429999,-0.0001851435
0.0439999,-0.0001836107
0.0449999,-0.000182078
0.0459999,-0.0001805453
0.04699991,-0.0001790125
0.0479999,-0.0001774798
0.04899991,-0.0001762536
0.0499999,-0.0001747208
0.05099991,-0.0001731881
0.0519999,-0.0001719619
0.05299991,-0.0001704292
0.0539999,-0.000169203
0.0549999,-0.0001679768
0.0559999,-0.000166444
0.0569999,-0.0001652178
0.05799991,-0.0001639917
0.0589999,-0.0001627655
0.05999991,-0.0001612327
0.0609999,-0.0001600065
0.06199991,-0.0001622242
0.0629999,-0.0001609367
0.06399991,-0.0001597718
0.06499991,-0.0001586069
0.0659999,-0.0001573807
0.0669999,-0.0001562158
0.06799991,-0.0001549896
0.0689999,-0.0001538248
0.0699999,-0.0001527212
0.07099991,-0.0001515256
0.07199991,-0.0001504221
0.0729999,-0.0001492878
0.0739999,-0.0001482149
0.07499991,-0.000147142
0.07599991,-0.0001460384
0.0769999,-0.0001449962
0.0779999,-0.0001439232
0.07899991,-0.000142789
0.0799999,-0.0001417774
0.0809999,-0.0001407658
0.08199991,-0.0001397542
0.08299991,-0.0001386813
0.0839999,-0.0001376697
0.0849999,-0.0001366274
0.08599991,-0.0001356771
0.08699991,-0.0001346348
0.0879999,-0.0001337152
0.0889999,-0.0001327342
0.08999991,-0.0001317533
0.0909999,-0.000130803
0.0919999,-0.000129822
0.09299991,-0.0001288717
0.09399991,-0.0001279521
0.0949999,-0.0001269711
0.0959999,-0.0001260515
0.09699991,-0.0001251625
0.09799991,-0.0001242429
0.0989999,-0.0001233232
0.0999999,-0.0001223422
0.1009999,-0.0001214533
0.1019999,-0.0001205336
0.1029999,-0.0001196446
0.1039999,-0.0001187863
0.1049999,-0.000117928
0.1059999,-0.000117039
0.1069999,-0.0001162419
0.1079999,-0.000115353
0.1089999,-0.0001145253
0.1099999,-0.0001136976
0.1109999,-0.0001128393
0.1119999,-0.0001120729
0.1129999,-0.0001112758
0.1139999,-0.0001104482
0.1149999,-0.0001096511
0.1159999,-0.0001088235
0.1169999,-0.0001080571
0.1179999,-0.0001072294
0.1189999,-0.0001064017
0.1199999,-0.0001056967
0.1209999,-0.0001048997
0.1219999,-0.0001041026
0.1229999,-0.0001033669
0.1239999,-0.0001025699
0.1249999,-0.0001018342
0.1259999,-0.0001011291
0.1269999,-0.0001003627
0.1279999,-9.962702E-05
0.1289999,-9.898326E-05
0.1299999,-9.824755E-05
0.1309999,-9.757314E-05
0.1319999,-9.677612E-05
0.1329999,-9.613237E-05
0.1339999,-9.536599E-05
0.1349999,-9.466094E-05
0.1359999,-9.392522E-05
0.1369999,-9.328147E-05
0.1379999,-9.25764E-05
0.1389999,-9.190199E-05
0.1399999,-9.119694E-05
0.1409999,-9.046122E-05
0.1419999,-8.984812E-05
0.1429999,-8.914307E-05
0.1439999,-8.846866E-05
0.1449999,-8.779425E-05
0.1459999,-8.711984E-05
0.1469999,-8.653741E-05
0.1479999,-8.5863E-05
0.1489999,-8.518859E-05
0.1499999,-8.454484E-05
0.1509999,-8.390109E-05
0.1519999,-8.331865E-05
0.1529999,-8.27362E-05
0.1539999,-8.203115E-05
0.1549999,-8.141805E-05
0.1559999,-8.083561E-05
0.1569999,-8.022251E-05
0.1579999,-7.964007E-05
0.1589999,-7.896566E-05
0.1599999,-7.838322E-05
0.1609999,-7.783144E-05
0.1619999,-7.724899E-05
0.1629999,-7.666655E-05
0.1639999,-7.608411E-05
0.1649999,-7.553232E-05
0.1659999,-7.494988E-05
0.1669999,-7.439809E-05
0.1679999,-7.381565E-05
0.1689999,-7.31719E-05
0.1699999,-7.268143E-05
0.1709999,-7.212964E-05
0.1719999,-7.160851E-05
0.1729999,-7.09954E-05
0.1739999,-7.050493E-05
0.1749999,-6.992248E-05
0.1759999,-6.93094E-05
0.1769999,-6.884957E-05
0.1779999,-6.823648E-05
0.1789999,-6.774599E-05
0.1799999,-6.725552E-05
0.1809999,-6.667308E-05
0.1819999,-6.612129E-05
0.1829999,-6.566147E-05
0.1839999,-6.507902E-05
0.1849999,-6.458855E-05
0.1859999,-6.406742E-05
0.1869999,-6.357694E-05
0.1879999,-6.302515E-05
0.1889999,-6.256533E-05
0.1899999,-6.201354E-05
0.1909999,-6.152307E-05
0.1919999,-6.100194E-05
0.1929999,-6.051145E-05
0.1939999,-5.999033E-05
0.1949999,-5.949985E-05
0.1959999,-5.904003E-05
0.1969999,-5.848824E-05
0.1979999,-5.799776E-05
0.1989999,-5.753794E-05
0.1999999,-5.704746E-05
0.2009999,-5.655699E-05
0.2019999,-5.606651E-05
0.2029999,-5.5668E-05
0.2039999,-5.514687E-05
0.2049999,-5.468704E-05
0.2059999,-5.422722E-05
0.2069999,-5.373674E-05
0.2079999,-5.333823E-05
0.2089999,-5.284775E-05
0.2099999,-5.238793E-05
0.2109999,-5.189745E-05
0.2119999,-5.146828E-05
0.2129999,-5.103911E-05
0.2139999,-5.05793E-05
0.2149999,-5.011947E-05
0.2159999,-4.96903E-05
0.2169999,-4.923048E-05
0.2179999,-4.877066E-05
0.2189999,-4.843346E-05
0.2199999,-4.797363E-05
0.2209999,-4.751381E-05
0.2219999,-4.708464E-05
0.2229999,-4.668613E-05
0.2239999,-4.628762E-05
0.2249999,-4.58891E-05
0.2259999,-4.545994E-05
0.2269999,-4.506143E-05
0.2279999,-4.463226E-05
0.2289999,-4.423374E-05
0.2299999,-4.383523E-05
0.2309999,-4.340606E-05
0.2319999,-4.300755E-05
0.2329999,-4.263969E-05
0.2339999,-4.224118E-05
0.2349999,-4.187332E-05
0.2359999,-4.144416E-05
0.2369999,-4.104565E-05
0.2379999,-4.070844E-05
0.2389999,-4.027928E-05
0.2399999,-3.988076E-05
0.2409999,-3.95129E-05
0.2419999,-3.908373E-05
0.2429999,-3.871588E-05
0.2439999,-3.831736E-05
0.2449999,-3.78882E-05
0.2459999,-3.7551E-05
0.2469999,-3.712183E-05
0.2479999,-3.672331E-05
0.2489999,-3.641676E-05
0.2499999,-3.595694E-05
0.2509999,-3.552777E-05
0.2519999,-3.512926E-05
0.2529999,-3.470009E-05
0.2539999,-3.436289E-05
0.2549999,-3.399503E-05
0.2559999,-3.362718E-05
0.2569999,-3.328997E-05
0.2579999,-3.286081E-05
0.2589999,-3.258491E-05
0.2599999,-3.221706E-05
0.2609999,-3.187985E-05
0.2619999,-3.160396E-05
0.2629999,-3.117479E-05
0.2639999,-3.077627E-05
0.2649999,-3.040842E-05
0.2659999,-2.99486E-05
0.2669999,-2.958074E-05
0.2679999,-2.924354E-05
0.2689999,-2.887568E-05
0.2699999,-2.856913E-05
0.2709999,-2.820127E-05
0.2719999,-2.789472E-05
0.2729999,-2.755752E-05
0.2739999,-2.722032E-05
0.2749999,-2.68218E-05
0.2759999,-2.633133E-05
0.2769999,-2.596347E-05
0.2779999,-2.562626E-05
0.2789999,-2.528906E-05
0.2799999,-2.49212E-05
0.2809999,-2.464531E-05
0.2819999,-2.430811E-05
0.2829999,-2.400156E-05
0.2839999,-2.357239E-05
0.2849999,-2.317388E-05
0.2859999,-2.277537E-05
0.2869999,-2.240751E-05
0.2879999,-2.210096E-05
0.2889999,-2.176376E-05
0.2899999,-2.13959E-05
0.2909999,-2.108935E-05
0.2919999,-2.07828E-05
0.2929999,-2.038429E-05
0.2939999,-2.001643E-05
0.2949999,-1.955661E-05
0.2959999,-1.918875E-05
0.2969999,-1.882089E-05
0.2979999,-1.848369E-05
0.2989999,-1.814649E-05
0.2999999,-1.780929E-05
0.3009999,-1.744143E-05
0.3019999,-1.713488E-05
0.3029999,-1.673637E-05
0.3039999,-1.639916E-05
0.3049999,-1.600065E-05
0.3059999,-1.554083E-05
0.3069999,-1.511166E-05
0.3079999,-1.477446E-05
0.3089999,-1.443726E-05
0.3099999,-1.40694E-05
0.3109999,-1.395703E-05
0.3119999,-1.365967E-05
0.3129999,-1.331941E-05
0.3139999,-1.287798E-05
0.3149999,-1.250092E-05
0.3159999,-1.205336E-05
0.3169999,-1.158434E-05
0.3179999,-1.123794E-05
0.3189999,-1.080571E-05
0.3199999,-1.044705E-05
0.3209999,-1.006999E-05
0.3219999,-9.646957E-06
0.3229999,-9.303622E-06
0.3239999,-8.846866E-06
0.3249999,-8.42996E-06
0.3259999,-8.013055E-06
0.3269999,-7.470464E-06
0.3279999,-6.976921E-06
0.3289999,-6.587605E-06
0.3299999,-6.10939E-06
0.3309999,-5.717008E-06
0.3319999,-5.263316E-06
0.3329999,-4.837214E-06
0.3339999,-4.414178E-06
0.3349999,-3.911439E-06
0.3359999,-3.402569E-06
0.3369999,-2.83852E-06
0.3379999,-2.262209E-06
0.3389999,-1.768667E-06
0.3399999,-1.256731E-06
0.3409999,-7.172061E-07
0.3419999,-2.083361E-07
0.3429999,3.342543E-07
0.3439999,9.473508E-07
0.3449999,1.505269E-06
0.3459999,2.029466E-06
0.3469999,2.618039E-06
0.3479999,3.267921E-06
0.3489999,3.853428E-06
0.3499999,4.491048E-06
0.3509999,5.226765E-06
0.3519999,5.907302E-06
0.3529999,6.578642E-06
0.3539999,7.409388E-06
0.3549999,8.105253E-06
0.3559999,9.003439E-06
0.3569999,9.809661E-06
0.3579999,1.064654E-05
0.3589999,1.162443E-05
0.3599999,1.255327E-05
0.3609999,1.35005E-05
0.3619999,1.462553E-05
0.3629999,1.570458E-05
0.3639999,1.694917E-05
0.3649999,1.830718E-05
0.3659999,1.967745E-05
0.3669999,2.117647E-05
0.3679999,2.280731E-05
0.3689999,2.457609E-05
0.3699999,2.685479E-05
0.3709999,2.893932E-05
0.3719999,3.126909E-05
0.3729999,3.369082E-05
0.3739999,3.648041E-05
0.3749999,3.957655E-05
0.3759999,4.294858E-05
0.3769999,4.678043E-05
0.3779999,5.113342E-05
0.3789999,5.606884E-05
0.3799999,6.180129E-05
0.3809999,6.84534E-05
0.3819999,7.623972E-05
0.3829999,8.549747E-05
0.3839999,9.64719E-05
0.3849999,0.0001097761
0.3859999,0.0001257166
0.3869999,0.0001449065
0.3879999,0.0001680203
0.3889999,0.0001949965
0.3899999,0.0002269388
0.3909999,0.0002637246
0.3919999,0.0003048634
0.3929999,0.0003540749
0.3939999,0.0004037358
0.3949999,0.0004561555
0.3959999,0.0005113342
0.3969999,0.0005683522
0.3979999,0.0006256767
0.3989999,0.0006833078
0.3999999,0.0007409389
0.4009999,0.0007982634
0.4019999,0.0008546683
0.4029999,0.0009107666
0.4039999,0.0009671715
0.4049999,0.00102143
0.4059999,0.001076303
0.4069999,0.001131481
0.4079999,0.001185434
0.4089999,0.001242452
0.4099999,0.001300389
0.4109999,0.001355262
0.4119999,0.001412893
0.4129999,0.001469297
0.4139999,0.001526929
0.4149999,0.001586706
0.4159999,0.001646176
0.4169999,0.001708405
0.4179999,0.001770941
0.4189999,0.001834397
0.4199999,0.001900611
0.4209999,0.001965906
0.4219999,0.002035186
0.4229999,0.002105385
0.4239999,0.002175585
0.4249999,0.00224977
0.4259999,0.002324874
0.4269999,0.002401511
0.4279999,0.002482133
0.4289999,0.002561836
0.4299999,0.002646136
0.4309999,0.00273197
0.4319999,0.002818417
0.4329999,0.002909768
0.4339999,0.003002959
0.4349999,0.003126909
0.4359999,0.003225004
0.4369999,0.0033231
0.4379999,0.003427326
0.4389999,0.003537684
0.4399999,0.003644975
0.4409999,0.003758398
0.4419999,0.003881018
0.4429999,0.004000572
0.4439999,0.004126256
0.4449999,0.004255007
0.4459999,0.004389888
0.4469999,0.004527835
0.4479999,0.004671912
0.4489999,0.004822121
0.4499999,0.004972329
0.4509999,0.005131735
0.4519999,0.005294205
0.4529999,0.005459741
0.4539999,0.005637539
0.4549999,0.005818403
0.4559999,0.006002332
0.4569999,0.006198522
0.4579999,0.006391648
0.4589999,0.006597036
0.4599999,0.006808553
0.4609999,0.007026203
0.4619999,0.007249983
0.4629999,0.007482959
0.4639999,0.007715936
0.4649999,0.007961174
0.4659999,0.008209479
0.4669999,0.008463915
0.4679999,0.008733677
0.4689999,0.009000373
0.4699999,0.009276267
0.4709999,0.009558291
0.4719999,0.009843381
0.4729999,0.01014073
0.4739999,0.01044115
0.4749999,0.0107477
0.4759999,0.01106344
0.4769999,0.01137919
0.4779999,0.01170413
0.4789999,0.01203214
0.4799999,0.01236321
0.4809999,0.01270348
0.4819999,0.01304374
0.4829999,0.01338708
0.4839999,0.01374267
0.4849999,0.01408907
0.4859999,0.01444467
0.4869999,0.01480333
0.4879999,0.01515586
0.4889999,0.01552679
0.4899999,0.01589158
0.4909999,0.0162533
0.4919999,0.01662729
0.4929999,0.01699515
0.4939999,0.01736301
0.4949999,0.01773393
0.4959999,0.01810485
0.4969999,0.01847578
0.4979999,0.01884364
0.4989999,0.01922376
0.4999999,0.01959161
0.5009999,0.01995947
0.5019999,0.02033346
0.5029999,0.02070132
0.5039999,0.02107224
0.5049999,0.0214493
0.5059999,0.02181409
0.5069999,0.02218808
0.5079999,0.02256207
0.5089999,0.02292073
0.5099999,0.02329165
0.5109999,0.02366258
0.5119999,0.0240243
0.5129999,0.02439523
0.5139999,0.02476308
0.5149999,0.02512481
0.5159999,0.02549574
0.5169999,0.02585133
0.5179999,0.02621613
0.5189999,0.02659011
0.5199999,0.02694264
0.5209999,0.02730437
0.5219999,0.02766916
0.5229999,0.02802476
0.5239999,0.02838342
0.5249999,0.02874821
0.5259999,0.02910994
0.5269999,0.0294686
0.5279999,0.02983033
0.5289999,0.03020125
0.5299999,0.0313304
0.5309999,0.0316676
0.5319999,0.03206612
0.5329999,0.03240332
0.5339999,0.03277118
0.5349999,0.03316969
0.5359999,0.03353755
0.5369999,0.03390541
0.5379999,0.03430392
0.5389999,0.03467178
0.5399999,0.03503963
0.5409999,0.03543815
0.5419999,0.035806
0.5429999,0.03620452
0.5439999,0.03657238
0.5449999,0.03697089
0.5459999,0.0373694
0.5469999,0.03773726
0.5479999,0.03816643
0.5489999,0.03856494
0.5499999,0.03896345
0.5509999,0.03936196
0.5519999,0.03976048
0.5529999,0.04015899
0.5539999,0.0405575
0.5549999,0.04095602
0.5559999,0.04135453
0.5569999,0.04175304
0.5579999,0.04218221
0.5589999,0.04258072
0.5599999,0.04300989
0.5609999,0.0434084
0.5619999,0.04383757
0.5629999,0.04423608
0.5639999,0.04466525
0.5649999,0.04509442
0.5659999,0.04549293
0.5669999,0.0459221
0.5679999,0.04632061
0.5689999,0.04674978
0.5699999,0.04717895
0.5709999,0.04757746
0.5719999,0.04800662
0.5729999,0.04843579
0.5739999,0.04883431
0.5749999,0.04926347
0.5759999,0.04969264
0.5769999,0.05009115
0.5779999,0.05052032
0.5789999,0.05094949
0.5799999,0.05137866
0.5809999,0.05180782
0.5819999,0.05223699
0.5829999,0.05266616
0.5839999,0.05309533
0.5849999,0.05352449
0.5859999,0.05398431
0.5869999,0.05438283
0.5879999,0.05484265
0.5889999,0.05527182
0.5899999,0.05570099
0.5909999,0.05613015
0.5919999,0.05658998
0.5929999,0.05701914
0.5939999,0.05744831
0.5949999,0.05790814
0.5959999,0.05830665
0.5969999,0.05876647
0.5979999,0.05922629
0.5989999,0.05965546
0.5999999,0.06008463
0.6009999,0.06051379
0.6019999,0.06094296
0.6029999,0.06140279
0.6039999,0.06186261
0.6049999,0.06229177
0.6059999,0.0627516
0.6069999,0.06318077
0.6079999,0.06360994
0.6089999,0.06406976
0.6099999,0.06449892
0.6109999,0.06492809
0.6119999,0.06541856
0.6129999,0.06584774
0.6139999,0.06630756
0.6149999,0.06676738
0.6159999,0.06719655
0.6169999,0.06762572
0.6179999,0.06811619
0.6189999,0.06854536
0.6199999,0.06900518
0.6209999,0.069465
0.6219999,0.06989417
0.6229999,0.07035399
0.6239999,0.07081382
0.6249999,0.07124298
0.6259999,0.07170281
0.6269999,0.07216263
0.6279999,0.0725918
0.6289999,0.07305162
0.6299999,0.07351144
0.6309999,0.0739406
0.6319999,0.07440043
0.6329999,0.07486025
0.6339999,0.07528942
0.6349999,0.07574924
0.6359999,0.07620906
0.6369999,0.07666889
0.6379999,0.07712871
0.6389999,0.07758854
0.6399999,0.07804836
0.6409999,0.07850818
0.6419999,0.078968
0.6429999,0.07939716
0.6439999,0.07988765
0.6449999,0.08031681
0.6459999,0.08077663
0.6469999,0.08123646
0.6479999,0.08169628
0.6489999,0.08215611
0.6499999,0.08261593
0.6509999,0.08304509
0.6519999,0.08350492
0.6529999,0.08396474
0.6539999,0.0843939
0.6549999,0.08488438
0.6559999,0.0853442
0.6569999,0.08577337
0.6579999,0.08626385
0.6589999,0.08675433
0.6599999,0.0871835
0.6609999,0.08764332
0.6619999,0.0881338
0.6629999,0.08853231
0.6639999,0.08905344
0.6649999,0.08951326
0.6659999,0.08994243
0.6669999,0.0904329
0.6679999,0.09089272
0.6689999,0.09132189
0.6699999,0.09184303
0.6709999,0.09227219
0.6719999,0.09273202
0.6729999,0.09322249
0.6739999,0.09365166
0.6749999,0.09411149
0.6759999,0.09460196
0.6769999,0.09503113
0.6779999,0.09552161
0.6789999,0.09601208
0.6799999,0.09644125
0.6809999,0.09693173
0.6819999,0.09739155
0.6829999,0.09782072
0.6839999,0.09828054
0.6849999,0.09877102
0.6859999,0.09920018
0.6869999,0.09966001
0.6879999,0.1001505
0.6889999,0.1006103
0.6899999,0.1011008
0.6909999,0.1015913
0.6919999,0.1020204
0.6929999,0.1024802
0.6939999,0.1029707
0.6949999,0.1034305
0.6959999,0.1038904
0.6969999,0.1043502
0.6979999,0.1048407
0.6989999,0.1052698
0.6999999,0.1054231
0.6990002,0.1049326
0.6980002,0.1044422
0.6970002,0.104013
0.6960002,0.1035225
0.6950002,0.1030627
0.6940002,0.1026335
0.6930002,0.1021124
0.6920002,0.1016526
0.6910002,0.1011927
0.6900002,0.1007329
0.6890002,0.1002425
0.6880002,0.09978263
0.6870002,0.0993228
0.6860002,0.09883233
0.6850002,0.09837251
0.6840002,0.09791268
0.6830002,0.0974222
0.6820002,0.09702369
0.6810002,0.09650256
0.6800002,0.0960734
0.6790002,0.09564423
0.6780002,0.0951231
0.6770002,0.09466327
0.6760002,0.09420345
0.6750002,0.09371297
0.6740002,0.09325315
0.6730002,0.09282398
0.6720002,0.0923335
0.6710002,0.09184303
0.6700002,0.09141386
0.6690002,0.09095404
0.6680002,0.0904329
0.6670002,0.09000374
0.6660002,0.08954392
0.6650002,0.08902278
0.6640002,0.08862427
0.6630002,0.0881338
0.6620002,0.08767397
0.6610002,0.0872448
0.6600002,0.08675433
0.6590002,0.0862945
0.6580002,0.08583468
0.6570002,0.0853442
0.6560002,0.08491503
0.6550002,0.08445521
0.6540002,0.08396474
0.6530002,0.08353557
0.6520002,0.08304509
0.6510002,0.08258527
0.6500002,0.08215611
0.6490002,0.08166563
0.6480002,0.08120581
0.6470002,0.08077663
0.6460002,0.08031681
0.6450002,0.07985699
0.6440002,0.07939716
0.6430002,0.07893734
0.6420002,0.07847752
0.6410002,0.0780177
0.6400002,0.07755788
0.6390002,0.0770674
0.6380002,0.07663824
0.6370002,0.07617841
0.6360002,0.07571859
0.6350002,0.07528942
0.6340002,0.07479894
0.6330002,0.07433912
0.6320002,0.07387929
0.6310002,0.07345013
0.6300002,0.07295965
0.6290002,0.07253049
0.6280002,0.07207067
0.6270002,0.07161084
0.6260002,0.07118168
0.6250002,0.07072186
0.6240002,0.07023137
0.6230002,0.06983286
0.6220002,0.06934239
0.6210002,0.06888256
0.6200002,0.06842274
0.6190002,0.06796291
0.6180002,0.06753375
0.6170002,0.06707393
0.6160002,0.06661411
0.6150002,0.06615429
0.6140002,0.06572511
0.6130002,0.06526529
0.6120002,0.06480547
0.6110002,0.0643763
0.6100002,0.06391648
0.6090002,0.06345665
0.6080002,0.06302749
0.6070002,0.06256767
0.6060002,0.06210784
0.6050002,0.06167868
0.6040002,0.06121886
0.6030002,0.06075903
0.6020002,0.06032987
0.6010002,0.05987004
0.6000002,0.05941022
0.5990002,0.05898106
0.5980002,0.05852123
0.5970002,0.05809207
0.5960002,0.05763224
0.5950002,0.05720307
0.5940002,0.05674325
0.5930002,0.05631408
0.5920002,0.05585426
0.5910002,0.0554251
0.5900002,0.05499592
0.5890002,0.0545361
0.5880002,0.05410693
0.5870002,0.05364711
0.5860002,0.05321795
0.5850002,0.05278878
0.5840002,0.05232896
0.5830002,0.05189979
0.5820002,0.05147062
0.5810002,0.0510108
0.5800002,0.05058163
0.5790002,0.05015246
0.5780002,0.04972329
0.5770002,0.04926347
0.5760002,0.04883431
0.5750002,0.04840514
0.5740002,0.04797597
0.5730002,0.0475468
0.5720002,0.04708698
0.5710002,0.04665781
0.5700002,0.04622864
0.5690002,0.04579948
0.5680002,0.04537031
0.5670002,0.04491049
0.5660002,0.04451197
0.5650002,0.04405215
0.5640002,0.04362299
0.5630002,0.04319382
0.5620002,0.04276465
0.5610002,0.04236614
0.5600002,0.04190632
0.5590002,0.0415078
0.5580002,0.04107863
0.5570002,0.04061881
0.5560002,0.0402203
0.5550002,0.03979113
0.5540002,0.03936196
0.5530002,0.0389328
0.5520002,0.03853428
0.5510002,0.03807446
0.5500002,0.03767595
0.5490002,0.03724678
0.5480002,0.03681761
0.5470002,0.03638845
0.5460002,0.03598994
0.5450002,0.03556077
0.5440002,0.0351316
0.5430002,0.03473309
0.5420002,0.03430392
0.5410002,0.03390541
0.5400002,0.03350689
0.5390002,0.03307773
0.5380002,0.03267921
0.5370002,0.03225004
0.5360002,0.03185153
0.5350002,0.03145302
0.5340002,0.03102385
0.5330002,0.03062534
0.5320002,0.03022683
0.5310002,0.02982831
0.5300002,0.02939915
0.5290002,0.02900063
0.5280002,0.02860212
0.5270002,0.02820361
0.5260002,0.0278051
0.5250002,0.02740658
0.5240002,0.02700807
0.5230002,0.02660956
0.5220002,0.02621104
0.5210002,0.02581253
0.5200002,0.02541402
0.5190002,0.02504616
0.5180002,0.02461699
0.5170002,0.02424913
0.5160002,0.02385062
0.5150002,0.02348276
0.5140002,0.02308425
0.5130002,0.02271639
0.5120002,0.02228723
0.5110002,0.02191937
0.5100002,0.02155151
0.5090002,0.021153
0.5080002,0.02078514
0.5070002,0.02041728
0.5060002,0.02001877
0.5050002,0.01965091
0.5040002,0.01931371
0.5030002,0.0189152
0.5020002,0.01854734
0.5010002,0.01821013
0.5000002,0.01784228
0.4990002,0.01747442
0.4980002,0.01710656
0.4970002,0.01676936
0.4960002,0.0164015
0.4950002,0.01603364
0.4940002,0.01569644
0.4930002,0.01535923
0.4920002,0.01499138
0.4910002,0.01465417
0.4900002,0.01428632
0.4890002,0.01394911
0.4880002,0.01361191
0.4870002,0.01327471
0.4860002,0.01245211
0.4850002,0.01212717
0.4840002,0.01180222
0.4830002,0.01147728
0.4820002,0.01115847
0.4810002,0.01084273
0.4800002,0.01052392
0.4790002,0.01020817
0.4780002,0.009901625
0.4770002,0.009595077
0.4760002,0.009288529
0.4750002,0.008991177
0.4740002,0.008687695
0.4730002,0.008390343
0.4720002,0.008105253
0.4710002,0.007810966
0.4700002,0.007525877
0.4690002,0.007243852
0.4680002,0.006961828
0.4670002,0.006688999
0.4660002,0.006413106
0.4650002,0.006143344
0.4640002,0.005879712
0.4630002,0.005613015
0.4620002,0.005355515
0.4610002,0.00510108
0.4600002,0.004846645
0.4590002,0.004601406
0.4580002,0.004359233
0.4570002,0.004120125
0.4560002,0.003884083
0.4550002,0.003651106
0.4540002,0.003424261
0.4530002,0.00320048
0.4520002,0.002979766
0.4510002,0.002765182
0.4500002,0.002550598
0.4490002,0.002345211
0.4480002,0.002139824
0.4470002,0.001937502
0.4460002,0.001744376
0.4450002,0.001554316
0.4440002,0.001361191
0.4430002,0.001183393
0.4420002,0.0009690108
0.4410002,0.0007915193
0.4400002,0.0006210785
0.4390002,0.0004503311
0.4380002,0.0002857147
0.4370002,0.0001247768
0.4360002,-3.493483E-05
0.4350002,-0.000191193
0.4340002,-0.0003429344
0.4330002,-0.000490159
0.4320002,-0.0006339302
0.4310002,-0.0007780078
0.4300002,-0.0009150349
0.4290002,-0.001053288
0.4280002,-0.001188476
0.4270002,-0.001316613
0.4260002,-0.001447509
0.4250002,-0.001574727
0.4240002,-0.001696427
0.4230002,-0.001822418
0.4220002,-0.001943504
0.4210002,-0.002060912
0.4200002,-0.00218016
0.4190002,-0.002292969
0.4180002,-0.002408232
0.4170002,-0.002522267
0.4160002,-0.002633545
0.4150002,-0.002746354
0.4140002,-0.002854872
0.4130002,-0.002964617
0.4120002,-0.003074361
0.4110002,-0.003145068
0.4100002,-0.003258491
0.4090002,-0.003371914
0.4080002,-0.00347614
0.4070002,-0.003583432
0.4060002,-0.003684593
0.4050002,-0.003794951
0.4040002,-0.003902242
0.4030002,-0.004006469
0.4020002,-0.004116826
0.4010002,-0.004224118
0.4000002,-0.004328344
0.3990002,-0.004441767
0.3980002,-0.00454906
0.3970002,-0.004659417
0.3960002,-0.004769774
0.3950002,-0.004880131
0.3940002,-0.004990489
0.3930002,-0.005100846
0.3920002,-0.005214269
0.3910002,-0.005327692
0.3900002,-0.005438049
0.3890002,-0.005548407
0.3880002,-0.005661829
0.3870002,-0.005772187
0.3860002,-0.00588561
0.3850002,-0.005995967
0.3840002,-0.006103259
0.3830002,-0.006219747
0.3820002,-0.006323974
0.3810002,-0.006434331
0.3800002,-0.006547754
0.3790002,-0.006648915
0.3780002,-0.006759272
0.3770002,-0.006869629
0.3760002,-0.006970791
0.3750002,-0.007078082
0.3740002,-0.007185374
0.3730002,-0.007286535
0.3720002,-0.007390762
0.3710002,-0.007494988
0.3700002,-0.007593083
0.3690002,-0.007694244
0.3680002,-0.007795405
0.3670002,-0.007893501
0.3660002,-0.007991596
0.3650002,-0.008092757
0.3640002,-0.008187788
0.3630002,-0.008279751
0.3620002,-0.008377847
0.3610002,-0.008463681
0.3600002,-0.00855258
0.3590002,-0.008641479
0.3580002,-0.008721181
0.3570002,-0.008800884
0.3560002,-0.00887752
0.3550002,-0.00893883
0.3540002,-0.009003206
0.3530002,-0.009061449
0.3520002,-0.009104366
0.3510002,-0.009141153
0.3500002,-0.009177938
0.3490002,-0.009193265
0.3480002,-0.009205527
0.3470002,-0.009208593
0.3460002,-0.009193265
0.3450002,-0.009174872
0.3440002,-0.009141153
0.3430002,-0.00909517
0.3420002,-0.009033861
0.3410002,-0.008963354
0.3400002,-0.008880586
0.3390002,-0.008788622
0.3380002,-0.008684396
0.3370002,-0.008558711
0.3360002,-0.00842996
0.3350002,-0.008288948
0.3340002,-0.008123412
0.3330002,-0.00794868
0.3320002,-0.00775862
0.3310002,-0.007550166
0.3300002,-0.007332517
0.3290002,-0.00709341
0.3280002,-0.006838975
0.3270002,-0.006575344
0.3260002,-0.006296384
0.3250002,-0.006008229
0.3240002,-0.005726204
0.3230002,-0.005438049
0.3220002,-0.005152959
0.3210002,-0.004880131
0.3200002,-0.0046165
0.3190002,-0.004371261
0.3180002,-0.004138284
0.3170002,-0.003923701
0.3160002,-0.00372751
0.3150002,-0.003549712
0.3140002,-0.003390307
0.3130002,-0.003243164
0.3120002,-0.003111348
0.3110002,-0.002991794
0.3100002,-0.002884502
0.3090002,-0.002786407
0.3080002,-0.002697508
0.3070002,-0.00261474
0.3060002,-0.002541168
0.3050002,-0.002470662
0.3040002,-0.002403222
0.3030002,-0.002344977
0.3020002,-0.002286733
0.3010002,-0.00223462
0.3000002,-0.002185572
0.2990002,-0.002136525
0.2980002,-0.002093608
0.2970002,-0.002047626
0.2960002,-0.002007774
0.2950002,-0.001970988
0.2940002,-0.001934203
0.2930002,-0.001897417
0.2920002,-0.001863697
0.2910002,-0.001833042
0.2900002,-0.001799321
0.2890002,-0.001771732
0.2880002,-0.001741077
0.2870002,-0.001713488
0.2860002,-0.001685899
0.2850002,-0.001658309
0.2840002,-0.001633785
0.2830002,-0.001609262
0.2820002,-0.001623161
0.2810002,-0.001600783
0.2800002,-0.001578099
0.2790002,-0.001557254
0.2780002,-0.001536408
0.2770002,-0.00151587
0.2760002,-0.001496251
0.2750002,-0.001476938
0.2740002,-0.001458239
0.2730002,-0.001440152
0.2720002,-0.001422372
0.2710002,-0.001405206
0.2700002,-0.001388345
0.2690002,-0.001372405
0.2680002,-0.001356464
0.2670002,-0.00134083
0.2660002,-0.001325503
0.2650002,-0.001310482
0.2640002,-0.001295768
0.2630002,-0.001281973
0.2620002,-0.001267872
0.2610002,-0.001254384
0.2600002,-0.001241202
0.2590002,-0.001228021
0.2580002,-0.001215759
0.2570002,-0.00120319
0.2560002,-0.001190928
0.2550002,-0.001178973
0.2540002,-0.001167018
0.2530002,-0.001155675
0.2520002,-0.001144333
0.2510002,-0.001133297
0.2500002,-0.001122262
0.2490002,-0.001111839
0.2480002,-0.00110111
0.2470002,-0.001090994
0.2460002,-0.001080878
0.2450002,-0.001071068
0.2440002,-0.001061565
0.2430002,-0.001052062
0.2420002,-0.001042866
0.2410002,-0.001033669
0.2400002,-0.001024473
0.2390002,-0.001015889
0.2380002,-0.001006999
0.2370002,-0.0009987226
0.2360002,-0.0009904457
0.2350002,-0.0009818624
0.2340002,-0.0009735856
0.2330002,-0.0009656154
0.2320002,-0.0009576452
0.2310002,-0.0009499814
0.2300002,-0.0009423177
0.2290002,-0.000934654
0.2280002,-0.0009272969
0.2270002,-0.0009199397
0.2260002,-0.0009128891
0.2250002,-0.0009058384
0.2240002,-0.0008987879
0.2230002,-0.0008917373
0.2220002,-0.0008849932
0.2210002,-0.0008785557
0.2200002,-0.0008718116
0.2190002,-0.0008650676
0.2180002,-0.0008589366
0.2170002,-0.0008528056
0.2160002,-0.0008463681
0.2150002,-0.0008405437
0.2140002,-0.0008344128
0.2130002,-0.0008285883
0.2120002,-0.0008227639
0.2110002,-0.0008166329
0.2100002,-0.0008111151
0.2090002,-0.0008055972
0.2080002,-0.0007997728
0.2070002,-0.0007942549
0.2060002,-0.000788737
0.2050002,-0.0007835258
0.2040002,-0.0007783144
0.2030002,-0.0007731031
0.2020002,-0.0007678918
0.2010002,-0.000762987
0.2000002,-0.0007577756
0.1990002,-0.0007531774
0.1980002,-0.0007482726
0.1970002,-0.0007433679
0.1960002,-0.0007384631
0.1950002,-0.0007338649
0.1940002,-0.0007289601
0.1930002,-0.0007243619
0.1920002,-0.0007197637
0.1910002,-0.000715472
0.1900002,-0.0007108737
0.1890002,-0.0007065821
0.1880002,-0.0007019839
0.1870002,-0.0006976922
0.1860002,-0.0006937071
0.1850002,-0.0006894154
0.1840002,-0.0006851237
0.1830002,-0.0006811386
0.1820002,-0.0006771535
0.1810002,-0.0006728618
0.1800002,-0.0006688767
0.1790002,-0.0006648915
0.1780002,-0.000661213
0.1770002,-0.0006575344
0.1760002,-0.0006535492
0.1750002,-0.0006498707
0.1740002,-0.0006461921
0.1730002,-0.0006425135
0.1720002,-0.0006388349
0.1710002,-0.0006351563
0.1700002,-0.0006314777
0.1690002,-0.0006281057
0.1680002,-0.0006244272
0.1670002,-0.0006210551
0.1660002,-0.0006179896
0.1650002,-0.0006146176
0.1640002,-0.0006112456
0.1630002,-0.0006078735
0.1620002,-0.000604808
0.1610002,-0.0006014361
0.1600002,-0.0005983706
0.1590002,-0.0005949985
0.1580002,-0.000591933
0.1570002,-0.0005888676
0.1560002,-0.0005858021
0.1550002,-0.0005827366
0.1540002,-0.0005796711
0.1530002,-0.0005769122
0.1520002,-0.0005738467
0.1510002,-0.0005710878
0.1500002,-0.0005680223
0.1490002,-0.0005649568
0.1480002,-0.0005621978
0.1470002,-0.0005594389
0.1460002,-0.00055668
0.1450002,-0.0005539211
0.1440002,-0.0005511622
0.1430002,-0.0005484032
0.1420002,-0.0005456443
0.1410002,-0.0005431919
0.1400002,-0.0005407395
0.1390002,-0.0005379805
0.1380002,-0.0005355282
0.1370002,-0.0005330758
0.1360002,-0.0005303168
0.1350002,-0.0005278645
0.1340002,-0.000525412
0.1330002,-0.0005229597
0.1320002,-0.0005205073
0.1310002,-0.0005180549
0.1300002,-0.0005156025
0.1290002,-0.0005131501
0.1280002,-0.0005110043
0.1270002,-0.0005085519
0.1260002,-0.0005064061
0.1250002,-0.0005039537
0.1240002,-0.0005018078
0.1230002,-0.0004999685
0.1220002,-0.0004975162
0.1210002,-0.0004953703
0.1200002,-0.0004932245
0.1190002,-0.0004910787
0.1180002,-0.0004889328
0.1170002,-0.000486787
0.1160002,-0.0004846411
0.1150002,-0.0004824953
0.1140002,-0.0004803495
0.1130002,-0.0004782036
0.1120002,-0.0004763643
0.1110002,-0.0004742185
0.1100002,-0.0004723792
0.1090002,-0.0004702334
0.1080002,-0.0004683941
0.1070002,-0.0004665548
0.1060002,-0.0004647155
0.1050002,-0.0004625697
0.1040002,-0.0004607304
0.1030002,-0.0004588911
0.1020002,-0.0004570518
0.1010002,-0.0004555191
0.1000002,-0.0004536798
0.09900019,-0.0004518405
0.09800019,-0.0004500012
0.09700019,-0.0004481619
0.09600019,-0.0004463226
0.09500019,-0.0004444833
0.09400019,-0.0004429506
0.09300019,-0.0004411113
0.09200019,-0.0004395786
0.09100019,-0.0004380458
0.09000019,-0.0004362065
0.08900019,-0.0004346738
0.08800019,-0.0004328345
0.08700019,-0.0004309952
0.08600019,-0.0004294625
0.08500019,-0.0004279297
0.08400019,-0.000426397
0.08300019,-0.0004248642
0.08200019,-0.0004233315
0.08100019,-0.0004217988
0.08000019,-0.000420266
0.07900019,-0.0004187333
0.07800019,-0.000416894
0.07700019,-0.0004156678
0.07600019,-0.0004141351
0.07500019,-0.0004126023
0.07400019,-0.0004113761
0.07300019,-0.0004095368
0.07200019,-0.0004083106
0.07100019,-0.0004070844
0.07000019,-0.0004052451
0.06900019,-0.000404019
0.06800019,-0.0004024862
0.06700019,-0.00040126
0.06600019,-0.0003997273
0.06500019,-0.0003985011
0.06400019,-0.0003969684
0.06300019,-0.0003957421
0.06200019,-0.000394516
0.06100019,-0.0003929832
0.06000019,-0.0003914505
0.05900019,-0.0003902243
0.05800019,-0.0003889981
0.05700019,-0.0003877719
0.05600019,-0.0003865457
0.05500019,-0.0003853195
0.05400019,-0.0003837868
0.05300019,-0.0003825606
0.05200019,-0.0003813344
0.05100019,-0.0003801082
0.05000019,-0.000378882
0.04900019,-0.0003779623
0.04800019,-0.0003767362
0.04700019,-0.00037551
0.04600019,-0.0003739772
0.04500019,-0.000372751
0.04400019,-0.0003718314
0.04300019,-0.0003706052
0.04200019,-0.0003696856
0.04100019,-0.0003684594
0.04000019,-0.0003672332
0.03900019,-0.0003660069
0.03800019,-0.0003650873
0.03700019,-0.0003638611
0.03600019,-0.0003626349
0.03500019,-0.0003614087
0.03400019,-0.0003604891
0.03300019,-0.0003595694
0.03200019,-0.0003583433
0.03100019,-0.0003574236
0.03000019,-0.0003561974
0.02900019,-0.0003549712
0.02800019,-0.0003540516
0.02700019,-0.0003531319
0.02600019,-0.0003522123
0.02500019,-0.0003509861
0.02400019,-0.0003500664
0.02300019,-0.0003488403
0.02200019,-0.0003479206
0.02100019,-0.0003466944
0.02000019,-0.0003457748
0.01900019,-0.0003448552
0.01800019,-0.0003439355
0.01700019,-0.0003430158
0.01600019,-0.0003420962
0.01500019,-0.0003411766
0.01400019,-0.0003399504
0.01300019,-0.0003390307
0.01200019,-0.0003381111
0.01100019,-0.0003368849
0.01000019,-0.0003362718
0.009000191,-0.0003353521
0.00800019,-0.0003344325
0.007000191,-0.0003335129
0.006000191,-0.0003325932
0.005000191,-0.000331367
0.004000191,-0.0003307539
0.003000191,-0.0003298343
0.002000191,-0.0003289146
0.001000191,-0.000327995
1.907349E-07,-0.0003237033
0.0009998092,-0.0003172658
0.001999809,-0.0003117479
0.002999809,-0.0003068431
0.003999809,-0.0003019384
0.004999809,-0.0002976467
0.005999809,-0.000293355
0.006999809,-0.0002893699
0.007999809,-0.0002856913
0.00899981,-0.0002823193
0.009999809,-0.0002786407
0.01099981,-0.0002755752
0.01199981,-0.0002722032
0.01299981,-0.0002688312
0.01399981,-0.0002660722
0.01499981,-0.0002630067
0.01599981,-0.0002602478
0.01699981,-0.0002574889
0.01799981,-0.0002547299
0.01899981,-0.000251971
0.01999981,-0.0002495186
0.02099981,-0.0002470662
0.02199981,-0.0002446139
0.02299981,-0.0002421615
0.02399981,-0.0002397091
0.02499981,-0.0002375632
0.02599981,-0.0002351108
0.02699981,-0.000232965
0.02799981,-0.0002308192
0.02899981,-0.0002286733
0.02999981,-0.0002265275
0.03099981,-0.0002243817
0.03199981,-0.0002225424
0.03299981,-0.0002203965
0.03399981,-0.0002185573
0.03499981,-0.0002167179
0.03599981,-0.0002145721
0.03699981,-0.0002127328
0.03799981,-0.0002108935
0.03899981,-0.0002090542
0.03999981,-0.000207215
0.04099981,-0.0002056822
0.04199981,-0.0002038429
0.04299981,-0.0002020036
0.04399981,-0.0002004709
0.04499981,-0.0001986316
0.04599981,-0.0001967923
0.04699981,-0.0001952596
0.04799981,-0.0001937268
0.04899981,-0.0001921941
0.04999981,-0.0001903548
0.05099981,-0.0001888221
0.05199981,-0.0001872893
0.05299981,-0.0001857566
0.05399981,-0.0001842238
0.05499981,-0.0001826911
0.05599981,-0.0001811584
0.05699981,-0.0001796256
0.05799981,-0.0001783994
0.05899981,-0.0001768667
0.05999981,-0.0001753339
0.06099981,-0.0001738012
0.06199981,-0.000172575
0.06299981,-0.0001710423
0.06399981,-0.0001698161
0.06499981,-0.0001682833
0.06599981,-0.0001670571
0.06699981,-0.0001655244
0.06799981,-0.0001642982
0.06899981,-0.000163072
0.06999981,-0.0001615393
0.07099981,-0.0001603131
0.07199981,-0.0001623468
0.07299981,-0.0001611513
0.07399981,-0.0001599864
0.07499981,-0.0001587602
0.07599981,-0.0001573194
0.07699981,-0.0001561239
0.07799981,-0.0001549896
0.07899981,-0.0001537635
0.07999981,-0.0001525986
0.08099981,-0.0001514643
0.08199981,-0.0001502075
0.08299981,-0.0001490119
0.08399981,-0.0001478164
0.08499981,-0.0001466515
0.08599981,-0.0001455786
0.08699981,-0.0001444137
0.08799981,-0.0001434021
0.08899981,-0.0001422679
0.08999981,-0.000141195
0.09099981,-0.0001400607
0.09199981,-0.0001388652
0.09299981,-0.0001377923
0.09399981,-0.00013675
0.09499981,-0.0001357077
0.09599981,-0.0001346655
0.09699981,-0.0001336539
0.09799981,-0.0001326423
0.09899981,-0.0001316307
0.09999981,-0.0001304964
0.1009998,-0.0001294542
0.1019998,-0.0001284732
0.1029998,-0.0001274309
0.1039998,-0.000126542
0.1049998,-0.0001255917
0.1059998,-0.0001245494
0.1069998,-0.0001236911
0.1079998,-0.0001225875
0.1089998,-0.0001216065
0.1099998,-0.0001206256
0.1109998,-0.0001197366
0.1119998,-0.0001187556
0.1129998,-0.000117928
0.1139998,-0.000116947
0.1149998,-0.00011615
0.1159998,-0.0001152916
0.1169998,-0.0001144026
0.1179998,-0.0001135443
0.1189998,-0.000112502
0.1199998,-0.0001115824
0.1209998,-0.0001107547
0.1219998,-0.0001098657
0.1229998,-0.0001090381
0.1239998,-0.0001081797
0.1249998,-0.000107444
0.1259998,-0.0001066776
0.1269998,-0.0001057886
0.1279998,-0.0001049303
0.1289998,-0.0001041026
0.1299998,-0.0001032443
0.1309998,-0.0001025392
0.1319998,-0.0001017422
0.1329998,-0.0001009452
0.1339998,-0.0001002401
0.1349998,-9.941243E-05
0.1359998,-9.86154E-05
0.1369998,-9.778772E-05
0.1379998,-9.705201E-05
0.1389998,-9.63163E-05
0.1399998,-9.561123E-05
0.1409998,-9.490617E-05
0.1419998,-9.417046E-05
0.1429998,-9.343474E-05
0.1439998,-9.266837E-05
0.1449998,-9.187134E-05
0.1459998,-9.113563E-05
0.1469998,-9.046122E-05
0.1479998,-8.978682E-05
0.1489998,-8.914307E-05
0.1499998,-8.846866E-05
0.1509998,-8.779425E-05
0.1519998,-8.705854E-05
0.1529998,-8.629217E-05
0.1539998,-8.561776E-05
0.1549998,-8.494335E-05
0.1559998,-8.42996E-05
0.1569998,-8.371716E-05
0.1579998,-8.313472E-05
0.1589998,-8.246031E-05
0.1599998,-8.17859E-05
0.1609998,-8.117281E-05
0.1619998,-8.052905E-05
0.1629998,-7.988531E-05
0.1639998,-7.914959E-05
0.1649998,-7.85365E-05
0.1659998,-7.795405E-05
0.1669998,-7.737162E-05
0.1679998,-7.675852E-05
0.1689998,-7.617607E-05
0.1699998,-7.553232E-05
0.1709998,-7.501119E-05
0.1719998,-7.436744E-05
0.1729998,-7.384631E-05
0.1739998,-7.326387E-05
0.1749998,-7.271208E-05
0.1759998,-7.203767E-05
0.1769998,-7.151654E-05
0.1779998,-7.084214E-05
0.1789998,-7.022904E-05
0.1799998,-6.97079E-05
0.1809998,-6.912547E-05
0.1819998,-6.860433E-05
0.1829998,-6.805255E-05
0.1839998,-6.756207E-05
0.1849998,-6.707159E-05
0.1859998,-6.645849E-05
0.1869998,-6.593736E-05
0.1879998,-6.52323E-05
0.1889998,-6.477248E-05
0.1899998,-6.425134E-05
0.1909998,-6.369956E-05
0.1919998,-6.330105E-05
0.1929998,-6.27186E-05
0.1939998,-6.213617E-05
0.1949998,-6.155372E-05
0.1959998,-6.10939E-05
0.1969998,-6.057277E-05
0.1979998,-6.017425E-05
0.1989998,-5.962246E-05
0.1999998,-5.91933E-05
0.2009998,-5.873348E-05
0.2019998,-5.812038E-05
0.2029998,-5.759925E-05
0.2039998,-5.710877E-05
0.2049998,-5.66183E-05
0.2059998,-5.621978E-05
0.2069998,-5.575996E-05
0.2079998,-5.526948E-05
0.2089998,-5.480966E-05
0.2099998,-5.425787E-05
0.2109998,-5.373674E-05
0.2119998,-5.324627E-05
0.2129998,-5.287841E-05
0.2139998,-5.241858E-05
0.2149998,-5.202007E-05
0.2159998,-5.152959E-05
0.2169998,-5.106977E-05
0.2179998,-5.051799E-05
0.2189998,-5.011947E-05
0.2199998,-4.962899E-05
0.2209998,-4.923048E-05
0.2219998,-4.880131E-05
0.2229998,-4.843346E-05
0.2239998,-4.800429E-05
0.2249998,-4.754446E-05
0.2259998,-4.708464E-05
0.2269998,-4.659417E-05
0.2279998,-4.613434E-05
0.2289998,-4.570518E-05
0.2299998,-4.527601E-05
0.2309998,-4.490815E-05
0.2319998,-4.450964E-05
0.2329998,-4.417243E-05
0.2339998,-4.374327E-05
0.2349998,-4.325279E-05
0.2359998,-4.276231E-05
0.2369998,-4.233315E-05
0.2379998,-4.190398E-05
0.2389998,-4.150547E-05
0.2399998,-4.110695E-05
0.2409998,-4.073909E-05
0.2419998,-4.040189E-05
0.2429998,-4.000338E-05
0.2439998,-3.954356E-05
0.2449998,-3.905308E-05
0.2459998,-3.862391E-05
0.2469998,-3.82254E-05
0.2479998,-3.779623E-05
0.2489998,-3.745903E-05
0.2499998,-3.696855E-05
0.2509998,-3.669266E-05
0.2519998,-3.629415E-05
0.2529998,-3.589563E-05
0.2539998,-3.552777E-05
0.2549998,-3.522123E-05
0.2559998,-3.482271E-05
0.2569998,-3.44242E-05
0.2579998,-3.402569E-05
0.2589998,-3.362718E-05
0.2599998,-3.325932E-05
0.2609998,-3.27995E-05
0.2619998,-3.243164E-05
0.2629998,-3.203312E-05
0.2639998,-3.163461E-05
0.2649998,-3.117479E-05
0.2659998,-3.074562E-05
0.2669998,-3.043907E-05
0.2679998,-3.004056E-05
0.2689998,-2.964205E-05
0.2699998,-2.930485E-05
0.2709998,-2.884502E-05
0.2719998,-2.856913E-05
0.2729998,-2.817062E-05
0.2739998,-2.780276E-05
0.2749998,-2.737359E-05
0.2759998,-2.706704E-05
0.2769998,-2.672984E-05
0.2779998,-2.633133E-05
0.2789998,-2.596347E-05
0.2799998,-2.556496E-05
0.2809998,-2.51971E-05
0.2819998,-2.479859E-05
0.2829998,-2.443073E-05
0.2839998,-2.400156E-05
0.2849998,-2.360305E-05
0.2859998,-2.320453E-05
0.2869998,-2.280602E-05
0.2879998,-2.237685E-05
0.2889998,-2.2009E-05
0.2899998,-2.161048E-05
0.2909998,-2.124263E-05
0.2919998,-2.081346E-05
0.2929998,-2.04456E-05
0.2939998,-2.007774E-05
0.2949998,-1.967923E-05
0.2959998,-1.931137E-05
0.2969998,-1.891286E-05
0.2979998,-1.851435E-05
0.2989998,-1.814649E-05
0.2999998,-1.771732E-05
0.3009998,-1.731881E-05
0.3019998,-1.695095E-05
0.3029998,-1.655244E-05
0.3039998,-1.618458E-05
0.3049998,-1.575541E-05
0.3059998,-1.532624E-05
0.3069998,-1.492773E-05
0.3079998,-1.452922E-05
0.3089998,-1.442604E-05
0.3099998,-1.408271E-05
0.3109998,-1.363515E-05
0.3119998,-1.321518E-05
0.3129998,-1.283506E-05
0.3139998,-1.240283E-05
0.3149998,-1.197979E-05
0.3159998,-1.15966E-05
0.3169998,-1.116744E-05
0.3179998,-1.075053E-05
0.3189998,-1.036428E-05
0.3199998,-9.870737E-06
0.3209998,-9.426242E-06
0.3219998,-9.024664E-06
0.3229998,-8.555645E-06
0.3239998,-8.11115E-06
0.3249998,-7.608411E-06
0.3259998,-7.179243E-06
0.3269998,-6.615195E-06
0.3279998,-6.146176E-06
0.3289998,-5.62811E-06
0.3299998,-5.024209E-06
0.3309998,-4.601172E-06
0.3319998,-4.024862E-06
0.3329998,-3.531319E-06
0.3339998,-3.040842E-06
0.3349998,-2.467597E-06
0.3359998,-1.921941E-06
0.3369998,-1.437595E-06
0.3379998,-8.735458E-07
0.3389998,-3.340209E-07
0.3399998,2.760102E-07
0.3409998,8.032732E-07
0.3419998,1.361191E-06
0.3429998,1.989615E-06
0.3439998,2.572056E-06
0.3449998,3.218873E-06
0.3459998,3.874887E-06
0.3469998,4.515573E-06
0.3479998,5.278877E-06
0.3489998,5.953284E-06
0.3499998,6.701262E-06
0.3509998,7.541204E-06
0.3519998,8.31064E-06
0.3529998,9.144452E-06
0.3539998,9.944541E-06
0.3549998,1.071704E-05
0.3559998,1.16796E-05
0.3569998,1.253794E-05
0.3579998,1.345758E-05
0.3589998,1.441095E-05
0.3599998,1.545628E-05
0.3609998,1.649854E-05
0.3619998,1.767875E-05
0.3629998,1.888042E-05
0.3639998,2.020165E-05
0.3649998,2.166388E-05
0.3659998,2.316597E-05
0.3669998,2.48152E-05
0.3679998,2.700807E-05
0.3689998,2.875539E-05
0.3699998,3.087058E-05
0.3709998,3.310838E-05
0.3719998,3.562207E-05
0.3729998,3.819708E-05
0.3739998,4.120125E-05
0.3749998,4.454263E-05
0.3759998,4.834383E-05
0.3769998,5.266616E-05
0.3779998,5.763223E-05
0.3789998,6.315011E-05
0.3799998,6.977155E-05
0.3809998,7.746591E-05
0.3819998,8.657039E-05
0.3829998,9.763679E-05
0.3839998,0.0001107877
0.3849998,0.0001269428
0.3859998,0.000146194
0.3869998,0.0001694304
0.3879998,0.000197265
0.3889998,0.0002294832
0.3899998,0.0002671886
0.3909998,0.0003099215
0.3919998,0.0003598994
0.3929998,0.0004110929
0.3939998,0.0004656585
0.3949998,0.0005220634
0.3959998,0.0005809207
0.3969998,0.000640391
0.3979998,0.0006995549
0.3989998,0.0007596383
0.3999998,0.000818189
0.4009998,0.0008767397
0.4019998,0.0009343708
0.4029998,0.0009916953
0.4039998,0.00104902
0.4049998,0.001104812
0.4059998,0.001161523
0.4069998,0.001217621
0.4079998,0.001273107
0.4089998,0.001331964
0.4099998,0.001391434
0.4109998,0.001448759
0.4119998,0.001508842
0.4129998,0.00156678
0.4139998,0.00162717
0.4149998,0.001690012
0.4159998,0.001751628
0.4169998,0.001815697
0.4179998,0.001881912
0.4189998,0.001947206
0.4199998,0.002016486
0.4209998,0.002085766
0.4219998,0.002156579
0.4229998,0.002230763
0.4239998,0.002304029
0.4249998,0.002381279
0.4259998,0.002460675
0.4269998,0.002540377
0.4279998,0.002624065
0.4289998,0.002708366
0.4299998,0.002795119
0.4309998,0.002884631
0.4319998,0.002975676
0.4329998,0.00309932
0.4339998,0.00319435
0.4349998,0.003292445
0.4359998,0.003399737
0.4369998,0.003500898
0.4379998,0.003611255
0.4389998,0.003721613
0.4399998,0.003835035
0.4409998,0.003957655
0.4419998,0.004080274
0.4429998,0.004205959
0.4439998,0.004343905
0.4449998,0.004475721
0.4459998,0.004616733
0.4469998,0.004763877
0.4479998,0.004911019
0.4489998,0.005067359
0.4499998,0.005226764
0.4509998,0.005389235
0.4519998,0.005560902
0.4529998,0.005735634
0.4539998,0.005916498
0.4549998,0.006106558
0.4559998,0.006299683
0.4569998,0.00649894
0.4579998,0.006707393
0.4589998,0.006915845
0.4599998,0.007133495
0.4609998,0.00736034
0.4619998,0.007590252
0.4629998,0.007826294
0.4639998,0.008068467
0.4649998,0.00831677
0.4659998,0.008571207
0.4669998,0.008837903
0.4679998,0.0091046
0.4689998,0.009374362
0.4699998,0.009659452
0.4709998,0.009941476
0.4719998,0.0102327
0.4729998,0.01053618
0.4739998,0.0108366
0.4749998,0.01114621
0.4759998,0.01146502
0.4769998,0.0117777
0.4779998,0.01210264
0.4789998,0.01243371
0.4799998,0.01275865
0.4809998,0.01310199
0.4819998,0.01344226
0.4829998,0.01377946
0.4839998,0.01412893
0.4849998,0.01447226
0.4859998,0.01481866
0.4869998,0.01517119
0.4879998,0.01552372
0.4889998,0.01587932
0.4899998,0.01623185
0.4909998,0.01659051
0.4919998,0.01694917
0.4929998,0.01730477
0.4939998,0.01766649
0.4949998,0.01802822
0.4959998,0.01838688
0.4969998,0.01874861
0.4979998,0.01910727
0.4989998,0.019469
0.4999998,0.01983379
0.5009998,0.02018939
0.5019998,0.02055111
0.5029998,0.0209159
0.5039998,0.02127457
0.5049998,0.02163323
0.5059998,0.02200108
0.5069998,0.02235362
0.5079998,0.02271534
0.5089998,0.023074
0.5099998,0.02342653
0.5109998,0.02379439
0.5119998,0.02415919
0.5129998,0.02451172
0.5139998,0.02487957
0.5149998,0.02523517
0.5159998,0.02559076
0.5169998,0.02594943
0.5179998,0.02630809
0.5189998,0.02666062
0.5199998,0.02701928
0.5209998,0.02738407
0.5219998,0.02773047
0.5229998,0.0280922
0.5239998,0.02845699
0.5249998,0.02880646
0.5259998,0.02917431
0.5269998,0.02954217
0.5279998,0.02988857
0.5289998,0.03102385
0.5299998,0.03136105
0.5309998,0.03172891
0.5319998,0.03209677
0.5329998,0.03246463
0.5339998,0.03286314
0.5349998,0.033231
0.5359998,0.03359886
0.5369998,0.03399737
0.5379998,0.03436523
0.5389998,0.03473309
0.5399998,0.0351316
0.5409998,0.03549946
0.5419998,0.03589797
0.5429998,0.03629648
0.5439998,0.03666434
0.5449998,0.03706285
0.5459998,0.03746137
0.5469998,0.03785988
0.5479998,0.03825839
0.5489998,0.03862625
0.5499998,0.03905542
0.5509998,0.03945393
0.5519998,0.03985244
0.5529998,0.04025095
0.5539998,0.04064947
0.5549998,0.04104798
0.5559998,0.04147715
0.5569998,0.04187566
0.5579998,0.04227417
0.5589998,0.04270334
0.5599998,0.04310185
0.5609998,0.04350037
0.5619998,0.04392953
0.5629998,0.0443587
0.5639998,0.04472656
0.5649998,0.04515573
0.5659998,0.04558489
0.5669998,0.04601406
0.5679998,0.04644323
0.5689998,0.04684174
0.5699998,0.04727091
0.5709998,0.04770008
0.5719998,0.04812925
0.5729998,0.04852776
0.5739998,0.04895693
0.5749998,0.0493861
0.5759998,0.0497846
0.5769998,0.05021377
0.5779998,0.05064294
0.5789998,0.05104145
0.5799998,0.05150127
0.5809998,0.05193045
0.5819998,0.05235961
0.5829998,0.05281943
0.5839998,0.05321795
0.5849998,0.05364711
0.5859998,0.05410693
0.5869998,0.0545361
0.5879998,0.05496527
0.5889998,0.05539444
0.5899998,0.05582361
0.5909998,0.05625277
0.5919998,0.05668194
0.5929998,0.05714176
0.5939998,0.05754028
0.5949998,0.0580001
0.5959998,0.05842927
0.5969998,0.05888909
0.5979998,0.05931826
0.5989998,0.05974742
0.5999998,0.06017659
0.6009998,0.06063641
0.6019998,0.06106558
0.6029998,0.0615254
0.6039998,0.06198522
0.6049998,0.0624144
0.6059998,0.06284356
0.6069998,0.06330338
0.6079998,0.06373256
0.6089998,0.06419238
0.6099998,0.06459089
0.6109998,0.06505071
0.6119998,0.06551053
0.6129998,0.06590905
0.6139998,0.06636887
0.6149998,0.06685934
0.6159998,0.06725786
0.6169998,0.06771768
0.6179998,0.06817751
0.6189998,0.06857602
0.6199998,0.06906649
0.6209998,0.06952631
0.6219998,0.06995548
0.6229998,0.0704153
0.6239998,0.07087513
0.6249998,0.07130429
0.6259998,0.07176412
0.6269998,0.07222394
0.6279998,0.07265311
0.6289998,0.07311293
0.6299998,0.07357275
0.6309998,0.07400192
0.6319998,0.07446174
0.6329998,0.07492156
0.6339998,0.07535073
0.6349998,0.07584121
0.6359998,0.07627037
0.6369998,0.07669955
0.6379998,0.07719002
0.6389998,0.07761919
0.6399998,0.07807901
0.6409998,0.07856949
0.6419998,0.078968
0.6429998,0.07942782
0.6439998,0.0799183
0.6449998,0.08034747
0.6459998,0.08077663
0.6469998,0.08123646
0.6479998,0.08166563
0.6489998,0.08212545
0.6499998,0.08261593
0.6509998,0.08304509
0.6519998,0.08350492
0.6529998,0.08396474
0.6539998,0.0843939
0.6549998,0.08488438
0.6559998,0.0853442
0.6569998,0.08577337
0.6579998,0.08623319
0.6589998,0.08672367
0.6599998,0.08715284
0.6609998,0.08761266
0.6619998,0.08810314
0.6629998,0.08850165
0.6639998,0.08899213
0.6649998,0.08948261
0.6659998,0.08991177
0.6669998,0.09040225
0.6679998,0.09083142
0.6689998,0.09129124
0.6699998,0.09175106
0.6709998,0.09221088
0.6719998,0.09267071
0.6729998,0.09313053
0.6739998,0.09359035
0.6749998,0.09405018
0.6759998,0.09454065
0.6769998,0.09496982
0.6779998,0.09542964
0.6789998,0.09592012
0.6799998,0.09637994
0.6809998,0.09680911
0.6819998,0.09729959
0.6829998,0.09775941
0.6839998,0.09821923
0.6849998,0.09867906
0.6859998,0.09913888
0.6869998,0.09956805
0.6879998,0.1000585
0.6889998,0.100549
0.6899998,0.1009782
0.6909998,0.1014686
0.6919998,0.1019285
0.6929998,0.1023576
0.6939998,0.1028481
0.6949998,0.1033079
0.6959998,0.1037371
0.6969998,0.1042276
0.6979998,0.1046874
0.6989998,0.1051472
0.6999998,0.1052698
0.6990003,0.1048407
0.6980003,0.1043502
0.6970003,0.1038597
0.6960003,0.1034612
0.6950003,0.1029707
0.6940003,0.1024802
0.6930003,0.1020511
0.6920003,0.1015606
0.6910003,0.1011008
0.6900003,0.100641
0.6890003,0.1001198
0.6880003,0.09969067
0.6870003,0.09920018
0.6860003,0.09870971
0.6850003,0.09828054
0.6840003,0.09779006
0.6830003,0.09733024
0.6820003,0.09690107
0.6810003,0.09641059
0.6800003,0.09592012
0.6790003,0.0954603
0.6780003,0.09500048
0.6770003,0.09451
0.6760003,0.09408083
0.6750003,0.09359035
0.6740003,0.09316119
0.6730003,0.09270137
0.6720003,0.09224154
0.6710003,0.09175106
0.6700003,0.09132189
0.6690003,0.09083142
0.6680003,0.0903716
0.6670003,0.08994243
0.6660003,0.08942129
0.6650003,0.08899213
0.6640003,0.08853231
0.6630003,0.08804183
0.6620003,0.08758201
0.6610003,0.08715284
0.6600003,0.08666236
0.6590003,0.08620254
0.6580003,0.08577337
0.6570003,0.08528289
0.6560003,0.08482307
0.6550003,0.08436324
0.6540003,0.08390342
0.6530003,0.08341295
0.6520003,0.08298378
0.6510003,0.08252396
0.6500003,0.08206414
0.6490003,0.08160432
0.6480003,0.0811445
0.6470003,0.08068467
0.6460003,0.08022485
0.6450003,0.07976502
0.6440003,0.07933586
0.6430003,0.07887604
0.6420003,0.07838555
0.6410003,0.07795639
0.6400003,0.07749657
0.6390003,0.07700609
0.6380003,0.07660758
0.6370003,0.0761171
0.6360003,0.07565728
0.6350003,0.07522812
0.6340003,0.07476829
0.6330003,0.07427781
0.6320003,0.07384864
0.6310003,0.07338882
0.6300003,0.072929
0.6290003,0.07246917
0.6280003,0.07204001
0.6270003,0.07158019
0.6260003,0.07108971
0.6250003,0.07066055
0.6240003,0.07020072
0.6230003,0.0697409
0.6220003,0.06931173
0.6210003,0.06882125
0.6200003,0.06839209
0.6190003,0.06796291
0.6180003,0.06747244
0.6170003,0.06707393
0.6160003,0.06661411
0.6150003,0.06615429
0.6140003,0.06569446
0.6130003,0.06526529
0.6120003,0.06480547
0.6110003,0.06434565
0.6100003,0.06391648
0.6090003,0.06345665
0.6080003,0.06302749
0.6070003,0.06256767
0.6060003,0.06207719
0.6050003,0.06164802
0.6040003,0.06121886
0.6030003,0.06075903
0.6020003,0.06029921
0.6010003,0.05987004
0.6000003,0.05941022
0.5990003,0.05898106
0.5980003,0.05855189
0.5970003,0.05806141
0.5960003,0.05763224
0.5950003,0.05720307
0.5940003,0.05674325
0.5930003,0.05631408
0.5920003,0.05588492
0.5910003,0.05545575
0.5900003,0.05502658
0.5890003,0.05456676
0.5880003,0.05410693
0.5870003,0.05367777
0.5860003,0.05321795
0.5850003,0.05278878
0.5840003,0.05235961
0.5830003,0.05189979
0.5820003,0.05147062
0.5810003,0.05104145
0.5800003,0.05061228
0.5790003,0.05015246
0.5780003,0.04975395
0.5770003,0.04932478
0.5760003,0.04886496
0.5750003,0.04843579
0.5740003,0.04800662
0.5730003,0.04757746
0.5720003,0.04714829
0.5710003,0.04671912
0.5700003,0.0462593
0.5690003,0.04583013
0.5680003,0.04540097
0.5670003,0.0449718
0.5660003,0.04457328
0.5650003,0.04414412
0.5640003,0.0436843
0.5630003,0.04328578
0.5620003,0.04282596
0.5610003,0.0423968
0.5600003,0.04199828
0.5590003,0.04156911
0.5580003,0.04113995
0.5570003,0.04071078
0.5560003,0.04028161
0.5550003,0.0398831
0.5540003,0.03945393
0.5530003,0.03902476
0.5520003,0.03859559
0.5510003,0.03819708
0.5500003,0.03776791
0.5490003,0.03733874
0.5480003,0.03690958
0.5470003,0.03651107
0.5460003,0.0360819
0.5450003,0.03568339
0.5440003,0.03525422
0.5430003,0.03482505
0.5420003,0.03442654
0.5410003,0.03402802
0.5400003,0.03359886
0.5390003,0.03320035
0.5380003,0.03280183
0.5370003,0.03237266
0.5360003,0.03197415
0.5350003,0.03157564
0.5340003,0.03117712
0.5330003,0.03074796
0.5320003,0.03034945
0.5310003,0.02995093
0.5300003,0.02952177
0.5290003,0.02912325
0.5280003,0.02872474
0.5270003,0.02832623
0.5260003,0.02792772
0.5250003,0.0275292
0.5240003,0.02716134
0.5230003,0.02676283
0.5220003,0.02636432
0.5210003,0.0259658
0.5200003,0.02556729
0.5190003,0.02516878
0.5180003,0.02480092
0.5170003,0.02440241
0.5160003,0.0240039
0.5150003,0.02363604
0.5140003,0.02323752
0.5130003,0.02286967
0.5120003,0.02250181
0.5110003,0.02207264
0.5100003,0.02170478
0.5090003,0.02133693
0.5080003,0.02093842
0.5070003,0.02060121
0.5060003,0.02023335
0.5050003,0.01983484
0.5040003,0.01946698
0.5030003,0.01909912
0.5020003,0.01876192
0.5010003,0.01839406
0.5000003,0.01802621
0.4990003,0.01765835
0.4980003,0.01732115
0.4970003,0.01695329
0.4960003,0.01661608
0.4950003,0.01624822
0.4940003,0.01588037
0.4930003,0.01554316
0.4920003,0.01520596
0.4910003,0.0148381
0.4900003,0.0145009
0.4890003,0.0141637
0.4880003,0.01382649
0.4870003,0.01348929
0.4860003,0.01315209
0.4850003,0.01233255
0.4840003,0.01201374
0.4830003,0.01169493
0.4820003,0.01135773
0.4810003,0.01104811
0.4800003,0.0107385
0.4790003,0.01041356
0.4780003,0.01011927
0.4770003,0.009812726
0.4760003,0.009506178
0.4750003,0.009208826
0.4740003,0.008905343
0.4730003,0.008604926
0.4720003,0.008313705
0.4710003,0.00802555
0.4700003,0.007737394
0.4690003,0.007458436
0.4680003,0.007179477
0.4670003,0.006900518
0.4660003,0.006630755
0.4650003,0.006357928
0.4640003,0.006088165
0.4630003,0.005824534
0.4620003,0.005567033
0.4610003,0.005303402
0.4600003,0.005058163
0.4590003,0.00481599
0.4580003,0.004573816
0.4570003,0.004334709
0.4560003,0.004101732
0.4550003,0.003859559
0.4540003,0.003626582
0.4530003,0.003402802
0.4520003,0.003175956
0.4510003,0.002961373
0.4500003,0.002749854
0.4490003,0.002538336
0.4480003,0.002336015
0.4470003,0.002130627
0.4460003,0.001934436
0.4450003,0.001741311
0.4440003,0.001551251
0.4430003,0.001367322
0.4420003,0.001183393
0.4410003,0.0009739156
0.4400003,0.0008034747
0.4390003,0.0006302749
0.4380003,0.000465965
0.4370003,0.0003016552
0.4360003,0.000138878
0.4350003,-1.347645E-05
0.4340003,-0.0001725548
0.4330003,-0.0003216905
0.4320003,-0.0004653286
0.4310003,-0.0006118587
0.4300003,-0.0007498054
0.4290003,-0.0008877521
0.4280003,-0.001025392
0.4270003,-0.001155062
0.4260003,-0.001286265
0.4250003,-0.001415322
0.4240003,-0.001538554
0.4230003,-0.001664546
0.4220003,-0.001785939
0.4210003,-0.001904573
0.4200003,-0.002024127
0.4190003,-0.002137243
0.4180003,-0.002253118
0.4170003,-0.002365621
0.4160003,-0.002477512
0.4150003,-0.002591547
0.4140003,-0.002699759
0.4130003,-0.00280889
0.4120003,-0.002919248
0.4110003,-0.00302378
0.4100003,-0.003105217
0.4090003,-0.003215575
0.4080003,-0.003316735
0.4070003,-0.003424027
0.4060003,-0.003528254
0.4050003,-0.003635545
0.4040003,-0.003742838
0.4030003,-0.003847064
0.4020003,-0.003954356
0.4010003,-0.004061648
0.4000003,-0.004168939
0.3990003,-0.004279297
0.3980003,-0.004383523
0.3970003,-0.004493881
0.3960003,-0.004604238
0.3950003,-0.004708464
0.3940003,-0.004821887
0.3930003,-0.004932245
0.3920003,-0.005042602
0.3910003,-0.005156024
0.3900003,-0.005266382
0.3890003,-0.005376739
0.3880003,-0.005490162
0.3870003,-0.005600519
0.3860003,-0.005713942
0.3850003,-0.0058243
0.3840003,-0.005934658
0.3830003,-0.006045015
0.3820003,-0.006158438
0.3810003,-0.00626573
0.3800003,-0.006376087
0.3790003,-0.006486444
0.3780003,-0.006593736
0.3770003,-0.006701028
0.3760003,-0.00680832
0.3750003,-0.006918678
0.3740003,-0.00702597
0.3730003,-0.007130195
0.3720003,-0.007240553
0.3710003,-0.007344779
0.3700003,-0.007452071
0.3690003,-0.007556298
0.3680003,-0.007654393
0.3670003,-0.007764751
0.3660003,-0.007862846
0.3650003,-0.007967073
0.3640003,-0.008074365
0.3630003,-0.008160197
0.3620003,-0.008261358
0.3610003,-0.008359454
0.3600003,-0.008442222
0.3590003,-0.008534187
0.3580003,-0.008623085
0.3570003,-0.008693592
0.3560003,-0.00877636
0.3550003,-0.008840735
0.3540003,-0.008902045
0.3530003,-0.008960289
0.3520003,-0.009009337
0.3510003,-0.009043057
0.3500003,-0.009070646
0.3490003,-0.009089039
0.3480003,-0.009092105
0.3470003,-0.009082908
0.3460003,-0.00906758
0.3450003,-0.009039992
0.3440003,-0.008997074
0.3430003,-0.008944961
0.3420003,-0.008880586
0.3410003,-0.008803949
0.3400003,-0.008711984
0.3390003,-0.008610823
0.3380003,-0.008500466
0.3370003,-0.008374781
0.3360003,-0.00823377
0.3350003,-0.008086626
0.3340003,-0.00792109
0.3330003,-0.007737161
0.3320003,-0.007550166
0.3310003,-0.007335583
0.3300003,-0.007105672
0.3290003,-0.006866564
0.3280003,-0.006609064
0.3270003,-0.006342367
0.3260003,-0.006066473
0.3250003,-0.005784449
0.3240003,-0.005499359
0.3230003,-0.005217335
0.3220003,-0.004944507
0.3210003,-0.00467781
0.3200003,-0.00442644
0.3190003,-0.004193463
0.3180003,-0.003972749
0.3170003,-0.003773492
0.3160003,-0.003592629
0.3150003,-0.003424027
0.3140003,-0.003276884
0.3130003,-0.003138937
0.3120003,-0.003016318
0.3110003,-0.002905961
0.3100003,-0.0028048
0.3090003,-0.002712835
0.3080003,-0.002630068
0.3070003,-0.00255343
0.3060003,-0.002479859
0.3050003,-0.002415484
0.3040003,-0.002351108
0.3030003,-0.00229593
0.3020003,-0.002243817
0.3010003,-0.002191703
0.3000003,-0.002145721
0.2990003,-0.002099739
0.2980003,-0.002056822
0.2970003,-0.002016971
0.2960003,-0.00197712
0.2950003,-0.001940334
0.2940003,-0.001906613
0.2930003,-0.001872893
0.2920003,-0.001839173
0.2910003,-0.001808518
0.2900003,-0.001777863
0.2890003,-0.001750274
0.2880003,-0.001722684
0.2870003,-0.001695095
0.2860003,-0.001667506
0.2850003,-0.001642982
0.2840003,-0.001618458
0.2830003,-0.001631438
0.2820003,-0.00160906
0.2810003,-0.001586989
0.2800003,-0.001565224
0.2790003,-0.001544685
0.2780003,-0.001524453
0.2770003,-0.00150514
0.2760003,-0.001486134
0.2750003,-0.001467435
0.2740003,-0.001449655
0.2730003,-0.001432182
0.2720003,-0.001414709
0.2710003,-0.001398155
0.2700003,-0.001381908
0.2690003,-0.001365967
0.2680003,-0.00135064
0.2670003,-0.001335313
0.2660003,-0.001320292
0.2650003,-0.001306191
0.2640003,-0.001291783
0.2630003,-0.001277988
0.2620003,-0.0012645
0.2610003,-0.001251318
0.2600003,-0.001238137
0.2590003,-0.001225568
0.2580003,-0.001213306
0.2570003,-0.001201351
0.2560003,-0.001189396
0.2550003,-0.001177747
0.2540003,-0.001166405
0.2530003,-0.001155062
0.2520003,-0.001144027
0.2510003,-0.001133297
0.2500003,-0.001122875
0.2490003,-0.001112452
0.2480003,-0.001102029
0.2470003,-0.001091913
0.2460003,-0.001082104
0.2450003,-0.001072294
0.2440003,-0.001063404
0.2430003,-0.001053901
0.2420003,-0.001044705
0.2410003,-0.001035815
0.2400003,-0.001026619
0.2390003,-0.001018035
0.2380003,-0.001009452
0.2370003,-0.001000869
0.2360003,-0.0009928982
0.2350003,-0.0009846214
0.2340003,-0.0009766511
0.2330003,-0.0009689874
0.2320003,-0.0009613237
0.2310003,-0.00095366
0.2300003,-0.0009459963
0.2290003,-0.0009383326
0.2280003,-0.0009312819
0.2270003,-0.0009239248
0.2260003,-0.0009168742
0.2250003,-0.0009101302
0.2240003,-0.0009033861
0.2230003,-0.000896642
0.2220003,-0.000889898
0.2210003,-0.0008831539
0.2200003,-0.0008767164
0.2190003,-0.0008702789
0.2180003,-0.0008641479
0.2170003,-0.000858017
0.2160003,-0.0008518859
0.2150003,-0.000845755
0.2140003,-0.000839624
0.2130003,-0.0008337997
0.2120003,-0.0008279752
0.2110003,-0.0008224574
0.2100003,-0.0008166329
0.2090003,-0.0008111151
0.2080003,-0.0008055972
0.2070003,-0.0008000793
0.2060003,-0.000794868
0.2050003,-0.0007896567
0.2040003,-0.0007847519
0.2030003,-0.000779234
0.2020003,-0.0007743293
0.2010003,-0.0007691179
0.2000003,-0.0007642132
0.1990003,-0.0007593084
0.1980003,-0.0007547102
0.1970003,-0.0007498054
0.1960003,-0.0007452072
0.1950003,-0.000740609
0.1940003,-0.0007360107
0.1930003,-0.0007314125
0.1920003,-0.0007271208
0.1910003,-0.0007225226
0.1900003,-0.000718231
0.1890003,-0.0007136327
0.1880003,-0.0007096475
0.1870003,-0.0007053559
0.1860003,-0.0007013708
0.1850003,-0.0006970791
0.1840003,-0.0006927875
0.1830003,-0.0006888023
0.1820003,-0.0006848171
0.1810003,-0.0006808321
0.1800003,-0.0006768469
0.1790003,-0.0006728618
0.1780003,-0.0006691832
0.1770003,-0.0006655046
0.1760003,-0.0006618261
0.1750003,-0.0006581475
0.1740003,-0.0006544688
0.1730003,-0.0006507903
0.1720003,-0.0006471117
0.1710003,-0.0006437397
0.1700003,-0.0006400611
0.1690003,-0.0006366891
0.1680003,-0.0006333171
0.1670003,-0.000629945
0.1660003,-0.0006268796
0.1650003,-0.0006235075
0.1640003,-0.0006201355
0.1630003,-0.0006167634
0.1620003,-0.0006133915
0.1610003,-0.000610326
0.1600003,-0.0006072604
0.1590003,-0.000604195
0.1580003,-0.0006011295
0.1570003,-0.000598064
0.1560003,-0.0005953051
0.1550003,-0.0005922396
0.1540003,-0.0005891741
0.1530003,-0.0005864152
0.1520003,-0.0005833497
0.1510003,-0.0005805907
0.1500003,-0.0005778318
0.1490003,-0.0005747664
0.1480003,-0.0005720074
0.1470003,-0.0005692485
0.1460003,-0.0005664895
0.1450003,-0.0005637306
0.1440003,-0.0005612782
0.1430003,-0.0005585193
0.1420003,-0.0005557603
0.1410003,-0.000553308
0.1400003,-0.0005508556
0.1390003,-0.0005480966
0.1380003,-0.0005456443
0.1370003,-0.0005431919
0.1360003,-0.0005407395
0.1350003,-0.000538287
0.1340003,-0.0005358347
0.1330003,-0.0005333824
0.1320003,-0.0005312365
0.1310003,-0.0005287841
0.1300003,-0.0005263317
0.1290003,-0.0005241859
0.1280003,-0.0005217335
0.1270003,-0.0005195877
0.1260003,-0.0005171353
0.1250003,-0.0005149894
0.1240003,-0.0005128436
0.1230003,-0.0005106977
0.1220003,-0.0005085519
0.1210003,-0.0005064061
0.1200003,-0.0005042602
0.1190003,-0.0005021144
0.1180003,-0.0005002751
0.1170003,-0.0004981293
0.1160003,-0.0004959835
0.1150003,-0.0004938376
0.1140003,-0.0004916918
0.1130003,-0.0004898525
0.1120003,-0.0004877066
0.1110003,-0.0004858673
0.1100003,-0.0004840281
0.1090003,-0.0004818822
0.1080003,-0.0004800429
0.1070003,-0.0004782036
0.1060003,-0.0004763643
0.1050003,-0.0004745251
0.1040003,-0.0004723792
0.1030003,-0.0004708465
0.1020003,-0.0004690072
0.1010003,-0.0004671679
0.1000003,-0.0004653286
0.09900028,-0.0004634893
0.09800029,-0.0004619566
0.09700029,-0.0004601173
0.09600028,-0.000458278
0.09500029,-0.0004567453
0.09400029,-0.000454906
0.09300029,-0.0004530667
0.09200028,-0.0004515339
0.09100029,-0.0004500012
0.09000029,-0.0004484684
0.08900028,-0.0004466292
0.08800028,-0.0004450964
0.08700029,-0.0004435637
0.08600029,-0.0004420309
0.08500028,-0.0004401917
0.08400029,-0.0004389654
0.08300029,-0.0004374327
0.08200029,-0.0004359
0.08100028,-0.0004343672
0.08000029,-0.0004328345
0.07900029,-0.0004313017
0.07800028,-0.000429769
0.07700028,-0.0004282363
0.07600029,-0.0004267035
0.07500029,-0.0004251708
0.07400028,-0.0004239446
0.07300029,-0.0004224119
0.07200029,-0.0004208791
0.07100029,-0.0004196529
0.07000028,-0.0004184267
0.06900029,-0.000416894
0.06800029,-0.0004156678
0.06700028,-0.0004141351
0.06600028,-0.0004126023
0.06500029,-0.0004113761
0.06400029,-0.0004098434
0.06300028,-0.0004086172
0.06200029,-0.000407391
0.06100029,-0.0004058582
0.06000029,-0.000404632
0.05900029,-0.0004030993
0.05800029,-0.0004018731
0.05700029,-0.0004006469
0.05600028,-0.0003994207
0.05500029,-0.0003981945
0.05400028,-0.0003969684
0.05300029,-0.0003954356
0.05200029,-0.000394516
0.05100029,-0.0003932898
0.05000029,-0.0003920636
0.04900029,-0.0003908373
0.04800029,-0.0003896112
0.04700029,-0.0003886915
0.04600029,-0.0003871588
0.04500028,-0.0003859326
0.04400029,-0.0003850129
0.04300028,-0.0003837868
0.04200029,-0.0003825606
0.04100028,-0.0003816409
0.04000029,-0.0003804147
0.03900029,-0.0003791885
0.03800029,-0.0003782689
0.03700029,-0.0003767362
0.03600029,-0.0003758165
0.03500029,-0.0003745903
0.03400028,-0.0003733641
0.03300029,-0.0003724445
0.03200028,-0.0003712183
0.03100029,-0.0003702986
0.03000029,-0.0003690725
0.02900029,-0.0003681528
0.02800029,-0.0003669266
0.02700029,-0.0003660069
0.02600029,-0.0003647808
0.02500029,-0.0003638611
0.02400029,-0.0003626349
0.02300029,-0.0003617153
0.02200029,-0.0003607956
0.02100029,-0.000359876
0.02000029,-0.0003586498
0.01900029,-0.0003577302
0.01800029,-0.0003568105
0.01700029,-0.0003555843
0.01600029,-0.0003546647
0.01500029,-0.000353745
0.01400029,-0.0003525188
0.01300029,-0.0003515992
0.01200029,-0.0003506796
0.01100029,-0.0003497599
0.01000029,-0.0003485337
0.009000286,-0.0003476141
0.008000286,-0.0003466944
0.007000286,-0.0003457748
0.006000286,-0.0003448552
0.005000286,-0.0003436289
0.004000286,-0.0003430158
0.003000286,-0.0003420962
0.002000286,-0.00034087
0.001000286,-0.0003399504
2.861023E-07,-0.0003356587
0.0009997139,-0.0003289146
0.001999714,-0.0003233968
0.002999714,-0.0003181854
0.003999714,-0.0003132806
0.004999714,-0.0003086824
0.005999714,-0.0003043908
0.006999714,-0.0003000991
0.007999714,-0.000296114
0.008999714,-0.0002924354
0.009999714,-0.0002887568
0.01099971,-0.0002853848
0.01199971,-0.0002817062
0.01299971,-0.0002786407
0.01399971,-0.0002755752
0.01499971,-0.0002722032
0.01599971,-0.0002691377
0.01699971,-0.0002663788
0.01799971,-0.0002633133
0.01899971,-0.0002605543
0.01999971,-0.0002574889
0.02099971,-0.0002547299
0.02199971,-0.000251971
0.02299971,-0.0002495186
0.02399971,-0.0002467597
0.02499971,-0.0002443073
0.02599971,-0.0002418549
0.02699971,-0.0002394025
0.02799971,-0.0002369501
0.02899971,-0.0002348043
0.02999971,-0.0002326585
0.03099971,-0.0002302061
0.03199971,-0.0002280602
0.03299971,-0.0002256079
0.03399972,-0.0002237686
0.03499971,-0.0002213162
0.03599972,-0.0002191703
0.03699971,-0.000217331
0.03799972,-0.0002151852
0.03899971,-0.0002130394
0.03999971,-0.0002112001
0.04099971,-0.0002090542
0.04199971,-0.0002069084
0.04299971,-0.0002050691
0.04399971,-0.0002029233
0.04499971,-0.000201084
0.04599971,-0.0001995512
0.04699972,-0.0001974054
0.04799971,-0.0001955661
0.04899972,-0.0001940334
0.04999971,-0.0001921941
0.05099971,-0.0001903548
0.05199971,-0.0001885155
0.05299971,-0.0001869828
0.05399971,-0.0001851435
0.05499971,-0.0001836107
0.05599971,-0.000182078
0.05699971,-0.0001802387
0.05799972,-0.000178706
0.05899971,-0.0001771732
0.05999972,-0.0001756405
0.06099971,-0.0001741077
0.06199971,-0.000172575
0.06299971,-0.0001707357
0.06399971,-0.0001695095
0.06499971,-0.0001679768
0.06599972,-0.000166444
0.06699971,-0.0001649113
0.06799971,-0.0001633786
0.06899972,-0.0001621524
0.06999972,-0.0001606196
0.07099971,-0.0001593934
0.07199971,-0.0001612126
0.07299972,-0.0001599251
0.07399971,-0.0001585456
0.07499971,-0.0001572274
0.07599971,-0.000155848
0.07699972,-0.0001544992
0.07799971,-0.000153273
0.07899971,-0.0001519548
0.07999972,-0.000150698
0.08099972,-0.0001494105
0.08199971,-0.0001481536
0.08299971,-0.0001469887
0.08399972,-0.0001457625
0.08499971,-0.0001446283
0.08599971,-0.0001434021
0.08699971,-0.0001422066
0.08799972,-0.000141103
0.08899971,-0.0001399075
0.08999971,-0.0001387119
0.09099972,-0.000137639
0.09199972,-0.0001365354
0.09299971,-0.0001354012
0.09399971,-0.0001343283
0.09499972,-0.000133194
0.09599971,-0.0001321211
0.09699971,-0.0001311095
0.09799971,-0.0001300673
0.09899972,-0.0001290557
0.09999971,-0.0001280134
0.1009997,-0.0001270018
0.1019997,-0.0001259902
0.1029997,-0.0001249786
0.1039997,-0.0001240589
0.1049997,-0.000123078
0.1059997,-0.000122097
0.1069997,-0.0001211774
0.1079997,-0.0001201964
0.1089997,-0.0001191541
0.1099997,-0.0001181732
0.1109997,-0.0001171616
0.1119997,-0.0001162726
0.1129997,-0.000115353
0.1139997,-0.000114464
0.1149997,-0.000113575
0.1159997,-0.0001126553
0.1169997,-0.0001118276
0.1179997,-0.0001109387
0.1189997,-0.0001101416
0.1199997,-0.0001092833
0.1209997,-0.0001084556
0.1219997,-0.0001075666
0.1229997,-0.0001067389
0.1239997,-0.0001059113
0.1249997,-0.0001050223
0.1259997,-0.0001041639
0.1269997,-0.0001033669
0.1279997,-0.0001025699
0.1289997,-0.0001017729
0.1299997,-0.0001010065
0.1309997,-0.0001002095
0.1319997,-9.944309E-05
0.1329997,-9.870737E-05
0.1339997,-9.7941E-05
0.1349997,-9.717463E-05
0.1359997,-9.646956E-05
0.1369997,-9.573385E-05
0.1379997,-9.499813E-05
0.1389997,-9.426242E-05
0.1399997,-9.343474E-05
0.1409997,-9.263772E-05
0.1419997,-9.193265E-05
0.1429997,-9.12889E-05
0.1439997,-9.055319E-05
0.1449997,-8.990943E-05
0.1459997,-8.914307E-05
0.1469997,-8.852997E-05
0.1479997,-8.77636E-05
0.1489997,-8.718116E-05
0.1499997,-8.650675E-05
0.1509997,-8.589365E-05
0.1519997,-8.521925E-05
0.1529997,-8.454484E-05
0.1539997,-8.380912E-05
0.1549997,-8.316537E-05
0.1559997,-8.246031E-05
0.1569997,-8.181656E-05
0.1579997,-8.117281E-05
0.1589997,-8.040644E-05
0.1599997,-7.985465E-05
0.1609997,-7.92109E-05
0.1619997,-7.85978E-05
0.1629997,-7.804602E-05
0.1639997,-7.737162E-05
0.1649997,-7.672786E-05
0.1659997,-7.617607E-05
0.1669997,-7.556297E-05
0.1679997,-7.498054E-05
0.1689997,-7.439809E-05
0.1699997,-7.3785E-05
0.1709997,-7.323321E-05
0.1719997,-7.25588E-05
0.1729997,-7.203767E-05
0.1739997,-7.148589E-05
0.1749997,-7.090344E-05
0.1759997,-7.035166E-05
0.1769997,-6.979987E-05
0.1779997,-6.918678E-05
0.1789997,-6.86963E-05
0.1799997,-6.80832E-05
0.1809997,-6.756207E-05
0.1819997,-6.704094E-05
0.1829997,-6.648915E-05
0.1839997,-6.596802E-05
0.1849997,-6.544688E-05
0.1859997,-6.486444E-05
0.1869997,-6.440462E-05
0.1879997,-6.388349E-05
0.1889997,-6.336236E-05
0.1899997,-6.281057E-05
0.1909997,-6.228944E-05
0.1919997,-6.17683E-05
0.1929997,-6.115521E-05
0.1939997,-6.063408E-05
0.1949997,-6.011295E-05
0.1959997,-5.965312E-05
0.1969997,-5.91933E-05
0.1979997,-5.861086E-05
0.1989997,-5.812038E-05
0.1999997,-5.772187E-05
0.2009997,-5.723139E-05
0.2019997,-5.674092E-05
0.2029997,-5.63424E-05
0.2039997,-5.579061E-05
0.2049997,-5.526948E-05
0.2059997,-5.487097E-05
0.2069997,-5.434984E-05
0.2079997,-5.385936E-05
0.2089997,-5.336888E-05
0.2099997,-5.28171E-05
0.2109997,-5.238793E-05
0.2119997,-5.18668E-05
0.2129997,-5.146828E-05
0.2139997,-5.097781E-05
0.2149997,-5.054864E-05
0.2159997,-5.008882E-05
0.2169997,-4.962899E-05
0.2179997,-4.919983E-05
0.2189997,-4.877066E-05
0.2199997,-4.831083E-05
0.2209997,-4.785102E-05
0.2219997,-4.742185E-05
0.2229997,-4.699268E-05
0.2239997,-4.653286E-05
0.2249997,-4.613434E-05
0.2259997,-4.567452E-05
0.2269997,-4.527601E-05
0.2279997,-4.481618E-05
0.2289997,-4.441768E-05
0.2299997,-4.401916E-05
0.2309997,-4.355934E-05
0.2319997,-4.313017E-05
0.2329997,-4.276231E-05
0.2339997,-4.23638E-05
0.2349997,-4.199594E-05
0.2359997,-4.156677E-05
0.2369997,-4.110695E-05
0.2379997,-4.070844E-05
0.2389997,-4.030993E-05
0.2399997,-3.985011E-05
0.2409997,-3.948225E-05
0.2419997,-3.899177E-05
0.2429997,-3.862391E-05
0.2439997,-3.810278E-05
0.2449997,-3.770427E-05
0.2459997,-3.72751E-05
0.2469997,-3.687659E-05
0.2479997,-3.647808E-05
0.2489997,-3.604891E-05
0.2499997,-3.568105E-05
0.2509997,-3.528254E-05
0.2519997,-3.488402E-05
0.2529997,-3.454682E-05
0.2539997,-3.411765E-05
0.2549997,-3.368848E-05
0.2559997,-3.332063E-05
0.2569997,-3.292211E-05
0.2579997,-3.25236E-05
0.2589997,-3.21864E-05
0.2599997,-3.178789E-05
0.2609997,-3.138937E-05
0.2619997,-3.096021E-05
0.2629997,-3.056169E-05
0.2639997,-3.025514E-05
0.2649997,-2.985663E-05
0.2659997,-2.942747E-05
0.2669997,-2.905961E-05
0.2679997,-2.869175E-05
0.2689997,-2.826258E-05
0.2699997,-2.789472E-05
0.2709997,-2.74349E-05
0.2719997,-2.706704E-05
0.2729997,-2.676049E-05
0.2739997,-2.636198E-05
0.2749997,-2.593282E-05
0.2759997,-2.559561E-05
0.2769997,-2.513579E-05
0.2779997,-2.479859E-05
0.2789997,-2.440007E-05
0.2799997,-2.397091E-05
0.2809997,-2.36337E-05
0.2819997,-2.326585E-05
0.2829997,-2.289799E-05
0.2839997,-2.246882E-05
0.2849997,-2.210096E-05
0.2859997,-2.17331E-05
0.2869997,-2.130394E-05
0.2879997,-2.093608E-05
0.2889997,-2.059887E-05
0.2899997,-2.016971E-05
0.2909997,-1.980185E-05
0.2919997,-1.943399E-05
0.2929997,-1.900482E-05
0.2939997,-1.863697E-05
0.2949997,-1.82078E-05
0.2959997,-1.780929E-05
0.2969997,-1.741077E-05
0.2979997,-1.704292E-05
0.2989997,-1.661375E-05
0.2999997,-1.615392E-05
0.3009997,-1.578607E-05
0.3019997,-1.53569E-05
0.3029997,-1.492773E-05
0.3039997,-1.452922E-05
0.3049997,-1.403874E-05
0.3059997,-1.360957E-05
0.3069997,-1.350027E-05
0.3079997,-1.302819E-05
0.3089997,-1.260515E-05
0.3099997,-1.220663E-05
0.3109997,-1.172842E-05
0.3119997,-1.130845E-05
0.3129997,-1.08333E-05
0.3139997,-1.045011E-05
0.3149997,-9.968832E-06
0.3159997,-9.496748E-06
0.3169997,-9.085973E-06
0.3179997,-8.65374E-06
0.3189997,-8.193918E-06
0.3199997,-7.718769E-06
0.3209997,-7.307994E-06
0.3219997,-6.783796E-06
0.3229997,-6.308646E-06
0.3239997,-5.799776E-06
0.3249997,-5.321561E-06
0.3259997,-4.837214E-06
0.3269997,-4.2701E-06
0.3279997,-3.810278E-06
0.3289997,-3.310604E-06
0.3299997,-2.68218E-06
0.3309997,-2.243816E-06
0.3319997,-1.652178E-06
0.3329997,-1.152505E-06
0.3339997,-5.884559E-07
0.3349997,6.247698E-09
0.3359997,5.67231E-07
0.3369997,1.140476E-06
0.3379997,1.802621E-06
0.3389997,2.369735E-06
0.3399997,2.979766E-06
0.3409997,3.666434E-06
0.3419997,4.239679E-06
0.3429997,4.889561E-06
0.3439997,5.524116E-06
0.3449997,6.204653E-06
0.3459997,6.961828E-06
0.3469997,7.599448E-06
0.3479997,8.37195E-06
0.3489997,9.040225E-06
0.3499997,9.821923E-06
0.3509997,1.067719E-05
0.3519997,1.145276E-05
0.3529997,1.224978E-05
0.3539997,1.313571E-05
0.3549997,1.396339E-05
0.3559997,1.494128E-05
0.3569997,1.585479E-05
0.3579997,1.680203E-05
0.3589997,1.793012E-05
0.3599997,1.90337E-05
0.3609997,2.018939E-05
0.3619997,2.147689E-05
0.3629997,2.274906E-05
0.3639997,2.41132E-05
0.3649997,2.558464E-05
0.3659997,2.743724E-05
0.3669997,2.912325E-05
0.3679997,3.087058E-05
0.3689997,3.283249E-05
0.3699997,3.488636E-05
0.3709997,3.724678E-05
0.3719997,3.972982E-05
0.3729997,4.24581E-05
0.3739997,4.549293E-05
0.3749997,4.898758E-05
0.3759997,5.272746E-05
0.3769997,5.717242E-05
0.3779997,6.226111E-05
0.3789997,6.808553E-05
0.3799997,7.51668E-05
0.3809997,8.322902E-05
0.3819997,9.29466E-05
0.3829997,0.0001046874
0.3839997,0.000118666
0.3849997,0.0001357714
0.3859997,0.0001562795
0.3869997,0.000180742
0.3879997,0.0002100174
0.3889997,0.0002438297
0.3899997,0.0002830372
0.3909997,0.0003304707
0.3919997,0.0003789053
0.3929997,0.0004319382
0.3939997,0.00048773
0.3949997,0.0005456676
0.3959997,0.0006060576
0.3969997,0.0006667541
0.3979997,0.0007274507
0.3989997,0.0007884538
0.3999997,0.0008479242
0.4009997,0.0009077011
0.4019997,0.0009668649
0.4029997,0.001025416
0.4039997,0.001084273
0.4049997,0.001141291
0.4059997,0.001199228
0.4069997,0.001257166
0.4079997,0.001314491
0.4089997,0.001374881
0.4099997,0.00143619
0.4109997,0.001495661
0.4119997,0.001557277
0.4129997,0.001616441
0.4139997,0.001679283
0.4149997,0.001743352
0.4159997,0.001806807
0.4169997,0.001873635
0.4179997,0.001941075
0.4189997,0.002007903
0.4199997,0.002080248
0.4209997,0.002150754
0.4219997,0.002224019
0.4229997,0.002300963
0.4239997,0.002376374
0.4249997,0.002455464
0.4259997,0.002536392
0.4269997,0.002617628
0.4279997,0.002704994
0.4289997,0.002791747
0.4299997,0.002880646
0.4309997,0.002973837
0.4319997,0.003096254
0.4329997,0.003191284
0.4339997,0.003289379
0.4349997,0.003393606
0.4359997,0.003500898
0.4369997,0.003605124
0.4379997,0.003718547
0.4389997,0.003838101
0.4399997,0.003951524
0.4409997,0.004077209
0.4419997,0.004205959
0.4429997,0.004334709
0.4439997,0.004472656
0.4449997,0.004607537
0.4459997,0.00475468
0.4469997,0.004904889
0.4479997,0.005055097
0.4489997,0.005214503
0.4499997,0.005380039
0.4509997,0.005545575
0.4519997,0.005723373
0.4529997,0.005901171
0.4539997,0.0060851
0.4549997,0.006281291
0.4559997,0.006474416
0.4569997,0.006679803
0.4579997,0.006891321
0.4589997,0.007099774
0.4599997,0.00732662
0.4609997,0.007556531
0.4619997,0.007786443
0.4629997,0.008028615
0.4639997,0.008270789
0.4649997,0.008522158
0.4659997,0.008782724
0.4669997,0.009046356
0.4679997,0.009316118
0.4689997,0.009592012
0.4699997,0.009874037
0.4709997,0.01015913
0.4719997,0.01045648
0.4729997,0.01075383
0.4739997,0.01105731
0.4749997,0.01136693
0.4759997,0.01168267
0.4769997,0.01199535
0.4779997,0.01232029
0.4789997,0.01264523
0.4799997,0.01297017
0.4809997,0.01330738
0.4819997,0.01364458
0.4829997,0.01397565
0.4839997,0.01432512
0.4849997,0.01466538
0.4859997,0.01500872
0.4869997,0.01535818
0.4879997,0.01570152
0.4889997,0.01605098
0.4899997,0.01640351
0.4909997,0.01675298
0.4919997,0.01710857
0.4929997,0.0174611
0.4939997,0.01781364
0.4949997,0.01816923
0.4959997,0.0185187
0.4969997,0.01888042
0.4979997,0.01923295
0.4989997,0.01959161
0.4999997,0.01995641
0.5009997,0.02030281
0.5019997,0.0206676
0.5029997,0.02102013
0.5039997,0.02137266
0.5049997,0.02173745
0.5059997,0.02208998
0.5069997,0.02244558
0.5079997,0.02280424
0.5089997,0.02315677
0.5099997,0.02351237
0.5109997,0.0238741
0.5119997,0.02422969
0.5129997,0.02459142
0.5139997,0.02495008
0.5149997,0.02529341
0.5159997,0.02565821
0.5169997,0.0260046
0.5179997,0.02635713
0.5189997,0.02671886
0.5199997,0.02706833
0.5209997,0.02742699
0.5219997,0.02778872
0.5229997,0.02814125
0.5239997,0.02849684
0.5249997,0.02886164
0.5259997,0.02921723
0.5269997,0.02957589
0.5279997,0.02994375
0.5289997,0.03105451
0.5299997,0.03142237
0.5309997,0.03179022
0.5319997,0.03215808
0.5329997,0.03252594
0.5339997,0.0328938
0.5349997,0.03326165
0.5359997,0.03362951
0.5369997,0.03402802
0.5379997,0.03439588
0.5389997,0.0347944
0.5399997,0.03516225
0.5409997,0.03556077
0.5419997,0.03592863
0.5429997,0.03632713
0.5439997,0.036695
0.5449997,0.03709351
0.5459997,0.03749202
0.5469997,0.03789053
0.5479997,0.03828905
0.5489997,0.03868756
0.5499997,0.03908607
0.5509997,0.03948459
0.5519997,0.0398831
0.5529997,0.04028161
0.5539997,0.04071078
0.5549997,0.04110929
0.5559997,0.0415078
0.5569997,0.04193697
0.5579997,0.04230483
0.5589997,0.04273399
0.5599997,0.04316316
0.5609997,0.04356168
0.5619997,0.04396019
0.5629997,0.04438936
0.5639997,0.04481852
0.5649997,0.04521704
0.5659997,0.0456462
0.5669997,0.04604472
0.5679997,0.04647389
0.5689997,0.04690305
0.5699997,0.04730156
0.5709997,0.04773073
0.5719997,0.0481599
0.5729997,0.04855841
0.5739997,0.04898758
0.5749997,0.04941675
0.5759997,0.04984592
0.5769997,0.05024443
0.5779997,0.05070425
0.5789997,0.05110276
0.5799997,0.05153193
0.5809997,0.0519611
0.5819997,0.05239027
0.5829997,0.05281943
0.5839997,0.0532486
0.5849997,0.05370842
0.5859997,0.05410693
0.5869997,0.05456676
0.5879997,0.05499592
0.5889997,0.05539444
0.5899997,0.05585426
0.5909997,0.05628343
0.5919997,0.05668194
0.5929997,0.05714176
0.5939997,0.05757093
0.5949997,0.05803075
0.5959997,0.05845992
0.5969997,0.05888909
0.5979997,0.05931826
0.5989997,0.05977808
0.5999997,0.06017659
0.6009997,0.06063641
0.6019997,0.06109623
0.6029997,0.06149475
0.6039997,0.06198522
0.6049997,0.0624144
0.6059997,0.06284356
0.6069997,0.06327273
0.6079997,0.0637019
0.6089997,0.06416172
0.6099997,0.06459089
0.6109997,0.06505071
0.6119997,0.06547987
0.6129997,0.06590905
0.6139997,0.06633821
0.6149997,0.06682869
0.6159997,0.06725786
0.6169997,0.06768703
0.6179997,0.06814685
0.6189997,0.06860667
0.6199997,0.06900518
0.6209997,0.069465
0.6219997,0.06992482
0.6229997,0.07035399
0.6239997,0.07081382
0.6249997,0.07127364
0.6259997,0.07170281
0.6269997,0.07216263
0.6279997,0.07262245
0.6289997,0.07305162
0.6299997,0.07351144
0.6309997,0.07397126
0.6319997,0.07440043
0.6329997,0.07486025
0.6339997,0.07528942
0.6349997,0.07571859
0.6359997,0.07620906
0.6369997,0.07666889
0.6379997,0.07709806
0.6389997,0.07758854
0.6399997,0.0780177
0.6409997,0.07847752
0.6419997,0.07890669
0.6429997,0.07933586
0.6439997,0.07979568
0.6449997,0.0802555
0.6459997,0.08071532
0.6469997,0.08117515
0.6479997,0.08160432
0.6489997,0.08203348
0.6499997,0.08249331
0.6509997,0.08295313
0.6519997,0.08341295
0.6529997,0.08384212
0.6539997,0.08433259
0.6549997,0.08476176
0.6559997,0.08525224
0.6569997,0.08571207
0.6579997,0.08614123
0.6589997,0.08663171
0.6599997,0.08706088
0.6609997,0.08749004
0.6619997,0.08798052
0.6629997,0.08844034
0.6639997,0.0888695
0.6649997,0.08935999
0.6659997,0.08978915
0.6669997,0.09024898
0.6679997,0.0907088
0.6689997,0.09113797
0.6699997,0.09162845
0.6709997,0.09208827
0.6719997,0.09254809
0.6729997,0.09300791
0.6739997,0.09346773
0.6749997,0.0938969
0.6759997,0.09438737
0.6769997,0.09484719
0.6779997,0.09527637
0.6789997,0.09576684
0.6799997,0.09622667
0.6809997,0.09662518
0.6819997,0.09714631
0.6829997,0.09760614
0.6839997,0.0980353
0.6849997,0.09852578
0.6859997,0.0989856
0.6869997,0.09941477
0.6879997,0.09987459
0.6889997,0.1003651
0.6899997,0.1008249
0.6909997,0.1012847
0.6919997,0.1017752
0.6929997,0.1022043
0.6939997,0.1026642
0.6949997,0.103124
0.6959997,0.1035838
0.6969997,0.1040436
0.6979997,0.1045341
0.6989997,0.1049633
0.6999997,0.1050859
0.6990004,0.1046567
0.6980004,0.1041663
0.6970004,0.1036758
0.6960004,0.103216
0.6950004,0.1027561
0.6940004,0.1022963
0.6930004,0.1018365
0.6920004,0.101346
0.6910004,0.1008862
0.6900004,0.1004264
0.6890004,0.0999359
0.6880004,0.09947608
0.6870004,0.09904691
0.6860004,0.09855644
0.6850004,0.09809661
0.6840004,0.09763679
0.6830004,0.09717696
0.6820004,0.09671714
0.6810004,0.09625732
0.6800004,0.0957975
0.6790004,0.09533768
0.6780004,0.09487786
0.6770004,0.09441803
0.6760004,0.09392755
0.6750004,0.09349839
0.6740004,0.09297726
0.6730004,0.09251743
0.6720004,0.09208827
0.6710004,0.09159779
0.6700004,0.09113797
0.6690004,0.09067815
0.6680004,0.09021832
0.6670004,0.0897585
0.6660004,0.08929868
0.6650004,0.08883885
0.6640004,0.08837903
0.6630004,0.08791921
0.6620004,0.08745939
0.6610004,0.08699957
0.6600004,0.08653974
0.6590004,0.08607992
0.6580004,0.0856201
0.6570004,0.08516028
0.6560004,0.08473111
0.6550004,0.08424063
0.6540004,0.08381146
0.6530004,0.08335164
0.6520004,0.08286116
0.6510004,0.08240134
0.6500004,0.08194152
0.6490004,0.0814817
0.6480004,0.08105253
0.6470004,0.08059271
0.6460004,0.08013289
0.6450004,0.07970371
0.6440004,0.07924389
0.6430004,0.07878407
0.6420004,0.07832425
0.6410004,0.07783377
0.6400004,0.0774046
0.6390004,0.07694478
0.6380004,0.0764543
0.6370004,0.07602514
0.6360004,0.07556532
0.6350004,0.07510549
0.6340004,0.07464567
0.6330004,0.07421651
0.6320004,0.07375668
0.6310004,0.07329686
0.6300004,0.07283704
0.6290004,0.07237721
0.6280004,0.07194804
0.6270004,0.07148822
0.6260004,0.0710284
0.6250004,0.07059924
0.6240004,0.07013941
0.6230004,0.06967959
0.6220004,0.06921976
0.6210004,0.06875994
0.6200004,0.06830012
0.6190004,0.06787095
0.6180004,0.06741113
0.6170004,0.0669513
0.6160004,0.06652214
0.6150004,0.06609298
0.6140004,0.0656025
0.6130004,0.06517333
0.6120004,0.06474417
0.6110004,0.06428434
0.6100004,0.06385517
0.6090004,0.06339534
0.6080004,0.06293552
0.6070004,0.06250636
0.6060004,0.06204654
0.6050004,0.06161737
0.6040004,0.06115754
0.6030004,0.06069772
0.6020004,0.06026856
0.6010004,0.05980873
0.6000004,0.05937957
0.5990004,0.0589504
0.5980004,0.05849057
0.5970004,0.05806141
0.5960004,0.05760158
0.5950004,0.05717242
0.5940004,0.0567126
0.5930004,0.05628343
0.5920004,0.05585426
0.5910004,0.0554251
0.5900004,0.05496527
0.5890004,0.0545361
0.5880004,0.05407628
0.5870004,0.05364711
0.5860004,0.05321795
0.5850004,0.05275812
0.5840004,0.05232896
0.5830004,0.05189979
0.5820004,0.05143997
0.5810004,0.0510108
0.5800004,0.05058163
0.5790004,0.05015246
0.5780004,0.04972329
0.5770004,0.04929413
0.5760004,0.04883431
0.5750004,0.04840514
0.5740004,0.04800662
0.5730004,0.0475468
0.5720004,0.04711764
0.5710004,0.04671912
0.5700004,0.0462593
0.5690004,0.04583013
0.5680004,0.04540097
0.5670004,0.0449718
0.5660004,0.04454263
0.5650004,0.04411346
0.5640004,0.0436843
0.5630004,0.04325513
0.5620004,0.04285662
0.5610004,0.0423968
0.5600004,0.04199828
0.5590004,0.04153846
0.5580004,0.04113995
0.5570004,0.04071078
0.5560004,0.04028161
0.5550004,0.0398831
0.5540004,0.03945393
0.5530004,0.03902476
0.5520004,0.03862625
0.5510004,0.03819708
0.5500004,0.03776791
0.5490004,0.0373694
0.5480004,0.03694023
0.5470004,0.03654172
0.5460004,0.03611255
0.5450004,0.03571404
0.5440004,0.03528487
0.5430004,0.03488636
0.5420004,0.03445719
0.5410004,0.03405868
0.5400004,0.03366017
0.5390004,0.033231
0.5380004,0.03283248
0.5370004,0.03243398
0.5360004,0.03200481
0.5350004,0.03160629
0.5340004,0.03120778
0.5330004,0.03080927
0.5320004,0.03041076
0.5310004,0.02998159
0.5300004,0.02958308
0.5290004,0.02918456
0.5280004,0.02878605
0.5270004,0.02838754
0.5260004,0.02798902
0.5250004,0.02759051
0.5240004,0.027192
0.5230004,0.02679349
0.5220004,0.02642563
0.5210004,0.02602712
0.5200004,0.0256286
0.5190004,0.02526074
0.5180004,0.02486223
0.5170004,0.02446372
0.5160004,0.02409586
0.5150004,0.02369735
0.5140004,0.02332949
0.5130004,0.02296163
0.5120004,0.02256312
0.5110004,0.02216461
0.5100004,0.02179675
0.5090004,0.02142889
0.5080004,0.02103038
0.5070004,0.02069318
0.5060004,0.02029466
0.5050004,0.01992681
0.5040004,0.01955895
0.5030004,0.01919109
0.5020004,0.01882323
0.5010004,0.01848603
0.5000004,0.01811817
0.4990004,0.01775031
0.4980004,0.01738245
0.4970004,0.01704525
0.4960004,0.01667739
0.4950004,0.01634019
0.4940004,0.01597233
0.4930004,0.01563513
0.4920004,0.01529793
0.4910004,0.01496072
0.4900004,0.01459287
0.4890004,0.01425566
0.4880004,0.01391846
0.4870004,0.01358126
0.4860004,0.01327471
0.4850004,0.01244598
0.4840004,0.01212103
0.4830004,0.01180222
0.4820004,0.01148035
0.4810004,0.01116154
0.4800004,0.01085192
0.4790004,0.01053618
0.4780004,0.0102327
0.4770004,0.009926149
0.4760004,0.009616536
0.4750004,0.009322249
0.4740004,0.009018766
0.4730004,0.008721415
0.4720004,0.008436324
0.4710004,0.008142038
0.4700004,0.007860013
0.4690004,0.00757799
0.4680004,0.0072929
0.4670004,0.007020072
0.4660004,0.006747244
0.4650004,0.006477482
0.4640004,0.006210784
0.4630004,0.005947153
0.4620004,0.005686587
0.4610004,0.005432152
0.4600004,0.005177717
0.4590004,0.004932478
0.4580004,0.004687239
0.4570004,0.004445066
0.4560004,0.004209024
0.4550004,0.003972982
0.4540004,0.003746136
0.4530004,0.003519291
0.4520004,0.00329551
0.4510004,0.003083992
0.4500004,0.002866343
0.4490004,0.002654824
0.4480004,0.002449437
0.4470004,0.00224405
0.4460004,0.002047859
0.4450004,0.001854734
0.4440004,0.001664674
0.4430004,0.001480745
0.4420004,0.001296816
0.4410004,0.001115952
0.4400004,0.0009126058
0.4390004,0.000738793
0.4380004,0.0005717242
0.4370004,0.0004080274
0.4360004,0.0002458634
0.4350004,9.136306E-05
0.4340004,-6.375037E-05
0.4330004,-0.0002171883
0.4320004,-0.0003630439
0.4310004,-0.0005097781
0.4300004,-0.0006474183
0.4290004,-0.0007872043
0.4280004,-0.0009254576
0.4270004,-0.001054514
0.4260004,-0.00118725
0.4250004,-0.001316
0.4240004,-0.001438926
0.4230004,-0.001566143
0.4220004,-0.001687537
0.4210004,-0.001805558
0.4200004,-0.001926031
0.4190004,-0.002039148
0.4180004,-0.002155329
0.4170004,-0.002268446
0.4160004,-0.002380336
0.4150004,-0.002493145
0.4140004,-0.002600437
0.4130004,-0.002709875
0.4120004,-0.002819926
0.4110004,-0.002926298
0.4100004,-0.003040641
0.4090004,-0.003117479
0.4080004,-0.00321864
0.4070004,-0.003325932
0.4060004,-0.003427093
0.4050004,-0.003534385
0.4040004,-0.003638611
0.4030004,-0.003742838
0.4020004,-0.003853195
0.4010004,-0.003957421
0.4000004,-0.004061648
0.3990004,-0.00417507
0.3980004,-0.004279297
0.3970004,-0.004389654
0.3960004,-0.004496946
0.3950004,-0.004604238
0.3940004,-0.004714595
0.3930004,-0.004824953
0.3920004,-0.004932245
0.3910004,-0.005045668
0.3900004,-0.005159091
0.3890004,-0.005266382
0.3880004,-0.005379805
0.3870004,-0.005493228
0.3860004,-0.005603585
0.3850004,-0.005717008
0.3840004,-0.0058243
0.3830004,-0.005937723
0.3820004,-0.00604808
0.3810004,-0.006158438
0.3800004,-0.006268795
0.3790004,-0.006379152
0.3780004,-0.00648951
0.3770004,-0.006599867
0.3760004,-0.006710225
0.3750004,-0.006820582
0.3740004,-0.006927874
0.3730004,-0.007041297
0.3720004,-0.007148589
0.3710004,-0.007255881
0.3700004,-0.007372369
0.3690004,-0.007476595
0.3680004,-0.007580821
0.3670004,-0.007694244
0.3660004,-0.007795405
0.3650004,-0.007905763
0.3640004,-0.008009989
0.3630004,-0.008108085
0.3620004,-0.008212311
0.3610004,-0.008307341
0.3600004,-0.008399305
0.3590004,-0.008494335
0.3580004,-0.008577104
0.3570004,-0.008656806
0.3560004,-0.008733443
0.3550004,-0.008797818
0.3540004,-0.008856062
0.3530004,-0.008908176
0.3520004,-0.008951092
0.3510004,-0.008984813
0.3500004,-0.009006271
0.3490004,-0.009015468
0.3480004,-0.009015468
0.3470004,-0.009003206
0.3460004,-0.008978682
0.3450004,-0.008948027
0.3440004,-0.008898979
0.3430004,-0.008840735
0.3420004,-0.008773294
0.3410004,-0.008687461
0.3400004,-0.008592431
0.3390004,-0.008488204
0.3380004,-0.008371716
0.3370004,-0.008239901
0.3360004,-0.008098888
0.3350004,-0.007942548
0.3340004,-0.007767816
0.3330004,-0.007583887
0.3320004,-0.007387696
0.3310004,-0.007163916
0.3300004,-0.006934005
0.3290004,-0.006688766
0.3280004,-0.006425134
0.3270004,-0.006155372
0.3260004,-0.005876414
0.3250004,-0.005594389
0.3240004,-0.00531543
0.3230004,-0.005036471
0.3220004,-0.004769774
0.3210004,-0.004512274
0.3200004,-0.004270101
0.3190004,-0.00404632
0.3180004,-0.003840933
0.3170004,-0.003650873
0.3160004,-0.003479206
0.3150004,-0.003325932
0.3140004,-0.003184919
0.3130004,-0.003056169
0.3120004,-0.002942747
0.3110004,-0.00283852
0.3100004,-0.00274349
0.3090004,-0.002657657
0.3080004,-0.002577954
0.3070004,-0.002504382
0.3060004,-0.002436942
0.3050004,-0.002375632
0.3040004,-0.002317388
0.3030004,-0.002262209
0.3020004,-0.002210096
0.3010004,-0.002161048
0.3000004,-0.002118132
0.2990004,-0.002072149
0.2980004,-0.002032298
0.2970004,-0.001995512
0.2960004,-0.001955661
0.2950004,-0.001921941
0.2940004,-0.00188822
0.2930004,-0.0018545
0.2920004,-0.001823845
0.2910004,-0.00179319
0.2900004,-0.001765601
0.2890004,-0.001738012
0.2880004,-0.001710422
0.2870004,-0.001685899
0.2860004,-0.001658309
0.2850004,-0.001633785
0.2840004,-0.001612327
0.2830004,-0.001624694
0.2820004,-0.001602929
0.2810004,-0.001581471
0.2800004,-0.001560932
0.2790004,-0.0015407
0.2780004,-0.001521081
0.2770004,-0.001502075
0.2760004,-0.001483682
0.2750004,-0.001465596
0.2740004,-0.001448429
0.2730004,-0.001431262
0.2720004,-0.001414402
0.2710004,-0.001398462
0.2700004,-0.001382521
0.2690004,-0.001367194
0.2680004,-0.001352479
0.2670004,-0.001337459
0.2660004,-0.001323051
0.2650004,-0.001309256
0.2640004,-0.001295155
0.2630004,-0.001281973
0.2620004,-0.001268792
0.2610004,-0.001255917
0.2600004,-0.001243348
0.2590004,-0.001231086
0.2580004,-0.001219131
0.2570004,-0.001206869
0.2560004,-0.00119522
0.2550004,-0.001183878
0.2540004,-0.001172536
0.2530004,-0.001161806
0.2520004,-0.001151384
0.2510004,-0.001140655
0.2500004,-0.001130232
0.2490004,-0.001120116
0.2480004,-0.00111
0.2470004,-0.00110019
0.2460004,-0.001090381
0.2450004,-0.001080878
0.2440004,-0.001071681
0.2430004,-0.001062791
0.2420004,-0.001053595
0.2410004,-0.001044705
0.2400004,-0.001035815
0.2390004,-0.001027232
0.2380004,-0.001018648
0.2370004,-0.001010371
0.2360004,-0.001002401
0.2350004,-0.0009941244
0.2340004,-0.0009861541
0.2330004,-0.0009781838
0.2320004,-0.0009705202
0.2310004,-0.000963163
0.2300004,-0.0009554993
0.2290004,-0.0009481421
0.2280004,-0.0009410915
0.2270004,-0.0009337344
0.2260004,-0.0009266838
0.2250004,-0.0009196331
0.2240004,-0.0009128891
0.2230004,-0.0009064515
0.2220004,-0.000899401
0.2210004,-0.0008926569
0.2200004,-0.0008865259
0.2190004,-0.0008797819
0.2180004,-0.0008736509
0.2170004,-0.0008675199
0.2160004,-0.0008610824
0.2150004,-0.0008549515
0.2140004,-0.000849127
0.2130004,-0.0008433026
0.2120004,-0.0008374782
0.2110004,-0.0008316538
0.2100004,-0.0008258293
0.2090004,-0.0008203115
0.2080004,-0.0008147936
0.2070004,-0.0008095824
0.2060004,-0.0008040644
0.2050004,-0.0007988531
0.2040004,-0.0007936418
0.2030004,-0.0007884305
0.2020004,-0.0007832192
0.2010004,-0.0007783144
0.2000004,-0.0007734096
0.1990004,-0.0007685049
0.1980004,-0.0007639066
0.1970004,-0.0007590018
0.1960004,-0.0007544036
0.1950004,-0.0007494989
0.1940004,-0.0007449006
0.1930004,-0.0007403024
0.1920004,-0.0007360107
0.1910004,-0.0007317191
0.1900004,-0.0007271208
0.1890004,-0.0007228291
0.1880004,-0.0007185375
0.1870004,-0.0007142458
0.1860004,-0.0007102606
0.1850004,-0.0007062756
0.1840004,-0.0007019839
0.1830004,-0.0006979987
0.1820004,-0.0006940136
0.1810004,-0.0006900285
0.1800004,-0.0006863499
0.1790004,-0.0006823648
0.1780004,-0.0006786863
0.1770004,-0.0006747011
0.1760004,-0.0006710225
0.1750004,-0.000667344
0.1740004,-0.0006636653
0.1730004,-0.0006602933
0.1720004,-0.0006566148
0.1710004,-0.0006532427
0.1700004,-0.0006495641
0.1690004,-0.0006461921
0.1680004,-0.00064282
0.1670004,-0.000639448
0.1660004,-0.0006363826
0.1650004,-0.0006330105
0.1640004,-0.0006296384
0.1630004,-0.0006262665
0.1620004,-0.0006228944
0.1610004,-0.0006198289
0.1600004,-0.0006167634
0.1590004,-0.000613698
0.1580004,-0.0006106325
0.1570004,-0.0006078735
0.1560004,-0.000604808
0.1550004,-0.0006017426
0.1540004,-0.0005989837
0.1530004,-0.0005959182
0.1520004,-0.0005931592
0.1510004,-0.0005907068
0.1500004,-0.0005876414
0.1490004,-0.0005845759
0.1480004,-0.0005818169
0.1470004,-0.000579058
0.1460004,-0.0005766057
0.1450004,-0.0005741533
0.1440004,-0.0005710878
0.1430004,-0.0005686354
0.1420004,-0.000566183
0.1410004,-0.0005634241
0.1400004,-0.0005609716
0.1390004,-0.0005585193
0.1380004,-0.0005560669
0.1370004,-0.0005536145
0.1360004,-0.0005511622
0.1350004,-0.0005487097
0.1340004,-0.0005462574
0.1330004,-0.0005441115
0.1320004,-0.0005416591
0.1310004,-0.0005392068
0.1300004,-0.0005367543
0.1290004,-0.0005346085
0.1280004,-0.0005321561
0.1270004,-0.0005300103
0.1260004,-0.0005275579
0.1250004,-0.0005257186
0.1240004,-0.0005235728
0.1230004,-0.000521427
0.1220004,-0.0005192811
0.1210004,-0.0005171353
0.1200004,-0.0005149894
0.1190004,-0.0005128436
0.1180004,-0.0005106977
0.1170004,-0.0005085519
0.1160004,-0.0005067126
0.1150004,-0.0005045668
0.1140004,-0.0005027275
0.1130004,-0.0005008882
0.1120004,-0.0004987424
0.1110004,-0.0004969031
0.1100004,-0.0004950638
0.1090004,-0.0004932245
0.1080004,-0.0004910787
0.1070004,-0.0004892393
0.1060004,-0.0004874001
0.1050004,-0.0004855608
0.1040004,-0.0004837215
0.1030004,-0.0004821887
0.1020004,-0.0004803495
0.1010004,-0.0004785102
0.1000004,-0.0004766709
0.09900038,-0.0004748316
0.09800038,-0.0004729923
0.09700038,-0.0004714596
0.09600038,-0.0004696203
0.09500038,-0.0004680876
0.09400038,-0.0004662482
0.09300038,-0.0004647155
0.09200038,-0.0004628762
0.09100038,-0.0004613435
0.09000038,-0.0004598107
0.08900038,-0.000458278
0.08800038,-0.0004564387
0.08700038,-0.000454906
0.08600038,-0.0004533732
0.08500038,-0.0004515339
0.08400038,-0.0004500012
0.08300038,-0.000448775
0.08200038,-0.0004469357
0.08100038,-0.000445403
0.08000038,-0.0004438702
0.07900038,-0.000442644
0.07800038,-0.0004411113
0.07700038,-0.0004395786
0.07600038,-0.0004380458
0.07500038,-0.000436513
0.07400038,-0.0004349803
0.07300038,-0.0004337541
0.07200038,-0.0004325279
0.07100038,-0.0004309952
0.07000038,-0.0004294625
0.06900038,-0.0004279297
0.06800038,-0.0004267035
0.06700038,-0.0004254773
0.06600038,-0.0004242511
0.06500039,-0.0004227184
0.06400038,-0.0004211857
0.06300038,-0.0004199595
0.06200038,-0.0004184267
0.06100038,-0.0004172005
0.06000038,-0.0004159743
0.05900038,-0.0004144416
0.05800038,-0.0004132154
0.05700038,-0.0004122957
0.05600038,-0.000410763
0.05500038,-0.0004095368
0.05400038,-0.0004083106
0.05300038,-0.0004070844
0.05200038,-0.0004058582
0.05100038,-0.000404632
0.05000038,-0.0004034059
0.04900038,-0.0004021796
0.04800038,-0.0004009535
0.04700038,-0.0003997273
0.04600038,-0.0003985011
0.04500038,-0.0003972749
0.04400038,-0.0003960487
0.04300038,-0.0003948225
0.04200038,-0.0003935963
0.04100038,-0.0003923701
0.04000038,-0.0003911439
0.03900038,-0.0003899177
0.03800038,-0.0003886915
0.03700038,-0.0003877719
0.03600038,-0.0003865457
0.03500038,-0.0003856261
0.03400038,-0.0003843998
0.03300038,-0.0003831737
0.03200038,-0.0003819475
0.03100038,-0.0003810278
0.03000038,-0.0003798016
0.02900038,-0.0003785754
0.02800038,-0.0003776558
0.02700038,-0.0003764296
0.02600038,-0.0003752034
0.02500038,-0.0003742838
0.02400038,-0.0003730576
0.02300038,-0.0003721379
0.02200038,-0.0003709117
0.02100038,-0.0003696856
0.02000038,-0.0003687659
0.01900038,-0.0003675397
0.01800038,-0.0003663135
0.01700038,-0.0003653939
0.01600038,-0.0003638611
0.01500038,-0.0003629415
0.01400038,-0.0003617153
0.01300038,-0.0003604891
0.01200038,-0.0003595694
0.01100038,-0.0003583433
0.01000038,-0.0003571171
0.009000381,-0.0003558909
0.008000381,-0.0003546647
0.007000382,-0.000353745
0.006000381,-0.0003525188
0.005000381,-0.0003512927
0.004000382,-0.0003500664
0.003000381,-0.0003488403
0.002000381,-0.0003476141
0.001000381,-0.0003463879
3.814697E-07,-0.0003417897
0.0009996186,-0.000334739
0.001999618,-0.0003289146
0.002999618,-0.0003230902
0.003999618,-0.0003181854
0.004999619,-0.0003129741
0.005999619,-0.0003083759
0.006999618,-0.0003037777
0.007999619,-0.000299486
0.008999619,-0.0002955009
0.009999619,-0.0002912092
0.01099962,-0.0002872241
0.01199962,-0.0002835455
0.01299962,-0.0002798669
0.01399962,-0.0002764949
0.01499962,-0.0002731228
0.01599962,-0.0002697508
0.01699962,-0.0002663788
0.01799962,-0.0002633133
0.01899962,-0.0002602478
0.01999962,-0.0002571823
0.02099962,-0.0002541168
0.02199962,-0.0002513579
0.02299962,-0.0002482924
0.02399962,-0.0002455335
0.02499962,-0.0002427746
0.02599962,-0.0002403222
0.02699962,-0.0002375632
0.02799962,-0.0002351108
0.02899962,-0.0002323519
0.02999962,-0.0002302061
0.03099962,-0.0002277537
0.03199962,-0.0002253013
0.03299962,-0.0002231555
0.03399962,-0.0002207031
0.03499962,-0.0002185573
0.03599962,-0.0002161049
0.03699962,-0.000213959
0.03799962,-0.0002121197
0.03899962,-0.0002096674
0.03999962,-0.0002078281
0.04099962,-0.0002056822
0.04199962,-0.0002038429
0.04299962,-0.0002016971
0.04399962,-0.0001998578
0.04499962,-0.0001980185
0.04599962,-0.0001961792
0.04699962,-0.0001940334
0.04799962,-0.0001925007
0.04899962,-0.0001906613
0.04999962,-0.0001888221
0.05099962,-0.0001869828
0.05199962,-0.00018545
0.05299962,-0.0001836107
0.05399962,-0.000182078
0.05499962,-0.0001802387
0.05599962,-0.000178706
0.05699962,-0.0001771732
0.05799962,-0.0001756405
0.05899962,-0.0001738012
0.05999962,-0.0001722685
0.06099962,-0.0001710423
0.06199962,-0.000169203
0.06299962,-0.0001676702
0.06399962,-0.000166444
0.06499962,-0.0001649113
0.06599962,-0.0001633786
0.06699962,-0.0001621524
0.06799962,-0.0001606196
0.06899962,-0.0001625001
0.06999962,-0.0001611513
0.07099961,-0.0001597105
0.07199962,-0.000158423
0.07299962,-0.0001571048
0.07399962,-0.0001557867
0.07499962,-0.0001544685
0.07599962,-0.0001532116
0.07699962,-0.0001519548
0.07799962,-0.0001506673
0.07899962,-0.0001493798
0.07999962,-0.000148123
0.08099962,-0.0001469581
0.08199961,-0.0001457625
0.08299962,-0.000144567
0.08399962,-0.0001433408
0.08499962,-0.0001422066
0.08599962,-0.000141103
0.08699962,-0.0001398768
0.08799962,-0.0001388039
0.08899962,-0.0001377003
0.08999962,-0.0001365661
0.09099962,-0.0001355238
0.09199962,-0.0001344509
0.09299962,-0.000133378
0.09399962,-0.0001324277
0.09499962,-0.0001313548
0.09599962,-0.0001303125
0.09699962,-0.0001293009
0.09799962,-0.0001282893
0.09899962,-0.0001272777
0.09999962,-0.0001262661
0.1009996,-0.0001253464
0.1019996,-0.0001243348
0.1029996,-0.0001233232
0.1039996,-0.0001224036
0.1049996,-0.0001214226
0.1059996,-0.0001204723
0.1069996,-0.0001195833
0.1079996,-0.0001186024
0.1089996,-0.0001176521
0.1099996,-0.0001167631
0.1109996,-0.0001158128
0.1119996,-0.0001148931
0.1129996,-0.0001139428
0.1139996,-0.0001130538
0.1149996,-0.0001121955
0.1159996,-0.0001112452
0.1169996,-0.0001104788
0.1179996,-0.0001095898
0.1189996,-0.0001087315
0.1199996,-0.0001079038
0.1209996,-0.0001070761
0.1219996,-0.0001062485
0.1229996,-0.0001054514
0.1239996,-0.0001046238
0.1249996,-0.0001038267
0.1259996,-0.0001030604
0.1269996,-0.0001022633
0.1279996,-0.000101497
0.1289996,-0.0001006999
0.1299996,-9.996421E-05
0.1309996,-9.919784E-05
0.1319996,-9.840082E-05
0.1329996,-9.76038E-05
0.1339996,-9.689873E-05
0.1349996,-9.613237E-05
0.1359996,-9.539664E-05
0.1369996,-9.466094E-05
0.1379996,-9.392522E-05
0.1389996,-9.31895E-05
0.1399996,-9.248444E-05
0.1409996,-9.171807E-05
0.1419996,-9.107432E-05
0.1429996,-9.036926E-05
0.1439996,-8.963354E-05
0.1449996,-8.892849E-05
0.1459996,-8.825408E-05
0.1469996,-8.764098E-05
0.1479996,-8.687461E-05
0.1489996,-8.62002E-05
0.1499996,-8.561776E-05
0.1509996,-8.494335E-05
0.1519996,-8.426895E-05
0.1529996,-8.356389E-05
0.1539996,-8.288948E-05
0.1549996,-8.230704E-05
0.1559996,-8.169394E-05
0.1569996,-8.095823E-05
0.1579996,-8.037578E-05
0.1589996,-7.976269E-05
0.1599996,-7.911894E-05
0.1609996,-7.850584E-05
0.1619996,-7.789274E-05
0.1629996,-7.73103E-05
0.1639996,-7.663589E-05
0.1649996,-7.60228E-05
0.1659996,-7.544036E-05
0.1669996,-7.488857E-05
0.1679996,-7.433679E-05
0.1689996,-7.369304E-05
0.1699996,-7.311059E-05
0.1709996,-7.249749E-05
0.1719996,-7.197636E-05
0.1729996,-7.136327E-05
0.1739996,-7.087279E-05
0.1749996,-7.029035E-05
0.1759996,-6.967725E-05
0.1769996,-6.912547E-05
0.1779996,-6.854302E-05
0.1789996,-6.805255E-05
0.1799996,-6.753141E-05
0.1809996,-6.697963E-05
0.1819996,-6.645849E-05
0.1829996,-6.593736E-05
0.1839996,-6.538557E-05
0.1849996,-6.486444E-05
0.1859996,-6.434331E-05
0.1869996,-6.382218E-05
0.1879996,-6.330105E-05
0.1889996,-6.277992E-05
0.1899996,-6.225878E-05
0.1909996,-6.173765E-05
0.1919996,-6.118586E-05
0.1929996,-6.069538E-05
0.1939996,-6.017425E-05
0.1949996,-5.968377E-05
0.1959996,-5.91933E-05
0.1969996,-5.870283E-05
0.1979996,-5.830431E-05
0.1989996,-5.769121E-05
0.1999996,-5.723139E-05
0.2009996,-5.677157E-05
0.2019996,-5.625044E-05
0.2029996,-5.579061E-05
0.2039996,-5.526948E-05
0.2049996,-5.4779E-05
0.2059996,-5.428853E-05
0.2069996,-5.379805E-05
0.2079996,-5.330757E-05
0.2089996,-5.287841E-05
0.2099996,-5.238793E-05
0.2109996,-5.189745E-05
0.2119996,-5.134566E-05
0.2129996,-5.097781E-05
0.2139996,-5.045668E-05
0.2149996,-4.999685E-05
0.2159996,-4.950637E-05
0.2169996,-4.907721E-05
0.2179996,-4.861738E-05
0.2189996,-4.824953E-05
0.2199996,-4.772839E-05
0.2209996,-4.726858E-05
0.2219996,-4.687006E-05
0.2229996,-4.644089E-05
0.2239996,-4.595042E-05
0.2249996,-4.55519E-05
0.2259996,-4.506143E-05
0.2269996,-4.469357E-05
0.2279996,-4.420309E-05
0.2289996,-4.380458E-05
0.2299996,-4.343672E-05
0.2309996,-4.300755E-05
0.2319996,-4.260904E-05
0.2329996,-4.214922E-05
0.2339996,-4.172005E-05
0.2349996,-4.132153E-05
0.2359996,-4.089237E-05
0.2369996,-4.049386E-05
0.2379996,-4.009534E-05
0.2389996,-3.966617E-05
0.2399996,-3.926766E-05
0.2409996,-3.889981E-05
0.2419996,-3.843998E-05
0.2429996,-3.801082E-05
0.2439996,-3.764296E-05
0.2449996,-3.724444E-05
0.2459996,-3.681528E-05
0.2469996,-3.638611E-05
0.2479996,-3.595694E-05
0.2489996,-3.561974E-05
0.2499996,-3.515992E-05
0.2509996,-3.47614E-05
0.2519996,-3.433224E-05
0.2529996,-3.396438E-05
0.2539996,-3.350456E-05
0.2549996,-3.307539E-05
0.2559996,-3.270753E-05
0.2569996,-3.224771E-05
0.2579996,-3.181854E-05
0.2589996,-3.151199E-05
0.2599996,-3.105217E-05
0.2609996,-3.068431E-05
0.2619996,-3.025514E-05
0.2629996,-2.985663E-05
0.2639996,-2.945812E-05
0.2649996,-2.905961E-05
0.2659996,-2.86611E-05
0.2669996,-2.829324E-05
0.2679996,-2.789472E-05
0.2689996,-2.746556E-05
0.2699996,-2.706704E-05
0.2709996,-2.666853E-05
0.2719996,-2.623936E-05
0.2729996,-2.584085E-05
0.2739996,-2.544234E-05
0.2749996,-2.507448E-05
0.2759996,-2.464531E-05
0.2769996,-2.421614E-05
0.2779996,-2.378698E-05
0.2789996,-2.341912E-05
0.2799996,-2.305126E-05
0.2809996,-2.262209E-05
0.2819996,-2.219293E-05
0.2829996,-2.185572E-05
0.2839996,-2.13959E-05
0.2849996,-2.099739E-05
0.2859996,-2.066019E-05
0.2869996,-2.013905E-05
0.2879996,-1.97712E-05
0.2889996,-1.937268E-05
0.2899996,-1.894351E-05
0.2909996,-1.8545E-05
0.2919996,-1.811583E-05
0.2929996,-1.768667E-05
0.2939996,-1.72575E-05
0.2949996,-1.682833E-05
0.2959996,-1.642982E-05
0.2969996,-1.597E-05
0.2979996,-1.557148E-05
0.2989996,-1.514232E-05
0.2999996,-1.465184E-05
0.3009996,-1.425333E-05
0.3019996,-1.385481E-05
0.3029996,-1.370566E-05
0.3039996,-1.325196E-05
0.3049996,-1.281053E-05
0.3059996,-1.234152E-05
0.3069996,-1.193381E-05
0.3079996,-1.149238E-05
0.3089996,-1.101723E-05
0.3099996,-1.060645E-05
0.3109996,-1.009758E-05
0.3119996,-9.653088E-06
0.3129996,-9.266837E-06
0.3139996,-8.739574E-06
0.3149996,-8.3288E-06
0.3159996,-7.816863E-06
0.3169996,-7.307994E-06
0.3179996,-6.829778E-06
0.3189996,-6.296384E-06
0.3199996,-5.805907E-06
0.3209996,-5.303168E-06
0.3219996,-4.71153E-06
0.3229996,-4.199595E-06
0.3239996,-3.706052E-06
0.3249996,-3.175723E-06
0.3259996,-2.679115E-06
0.3269996,-2.062953E-06
0.3279996,-1.462118E-06
0.3289996,-9.25659E-07
0.3299996,-3.953305E-07
0.3309996,2.085695E-07
0.3319996,7.879457E-07
0.3329996,1.382649E-06
0.3339996,2.008008E-06
0.3349996,2.651759E-06
0.3359996,3.231135E-06
0.3369996,3.936196E-06
0.3379996,4.555424E-06
0.3389996,5.217568E-06
0.3399996,5.937956E-06
0.3409996,6.618493E-06
0.3419996,7.323555E-06
0.3429996,8.037812E-06
0.3439996,8.776593E-06
0.3449996,9.51844E-06
0.3459996,1.026948E-05
0.3469996,1.102972E-05
0.3479996,1.18574E-05
0.3489996,1.263297E-05
0.3499996,1.346678E-05
0.3509996,1.431899E-05
0.3519996,1.518039E-05
0.3529996,1.607857E-05
0.3539996,1.702887E-05
0.3549996,1.800063E-05
0.3559996,1.903063E-05
0.3569996,2.003305E-05
0.3579996,2.104159E-05
0.3589996,2.219421E-05
0.3599996,2.333457E-05
0.3609996,2.45577E-05
0.3619996,2.621104E-05
0.3629996,2.75292E-05
0.3639996,2.903129E-05
0.3649996,3.050272E-05
0.3659996,3.212742E-05
0.3669996,3.396671E-05
0.3679996,3.577535E-05
0.3689996,3.779857E-05
0.3699996,3.997506E-05
0.3709996,4.227417E-05
0.3719996,4.494114E-05
0.3729996,4.776139E-05
0.3739996,5.082687E-05
0.3749996,5.444414E-05
0.3759996,5.830665E-05
0.3769996,6.281291E-05
0.3779996,6.796292E-05
0.3789996,7.38793E-05
0.3799996,8.083794E-05
0.3809996,8.908409E-05
0.3819996,9.889364E-05
0.3829996,0.0001106344
0.3839996,0.0001246743
0.3849996,0.0001417797
0.3859996,0.0001621652
0.3869996,0.0001866277
0.3879996,0.0002158418
0.3889996,0.0002496541
0.3899996,0.0002888922
0.3909996,0.0003366017
0.3919996,0.0003850363
0.3929996,0.0004383757
0.3939996,0.0004947806
0.3949996,0.0005533313
0.3959996,0.0006143344
0.3969996,0.0006759506
0.3979996,0.0007375668
0.3989996,0.0007997961
0.3999996,0.0008607992
0.4009996,0.0009221089
0.4019996,0.0009824989
0.4029996,0.001042276
0.4039996,0.001102666
0.4049996,0.00116091
0.4059996,0.00122038
0.4069996,0.001280157
0.4079996,0.001338401
0.4089996,0.001400018
0.4099996,0.00146286
0.4109996,0.00152325
0.4119996,0.001586092
0.4129996,0.001647709
0.4139996,0.001711471
0.4149996,0.001777072
0.4159996,0.001841754
0.4169996,0.001910114
0.4179996,0.001979087
0.4189996,0.002047754
0.4199996,0.002121326
0.4209996,0.002193671
0.4219996,0.002268776
0.4229996,0.002347252
0.4239996,0.002424502
0.4249996,0.002505431
0.4259996,0.002588812
0.4269996,0.002672193
0.4279996,0.002759866
0.4289996,0.002848765
0.4299996,0.002941343
0.4309996,0.00303392
0.4319996,0.003157564
0.4329996,0.003258725
0.4339996,0.00335682
0.4349996,0.003461046
0.4359996,0.003571404
0.4369996,0.003678696
0.4379996,0.003795184
0.4389996,0.003914738
0.4399996,0.004031226
0.4409996,0.004159976
0.4419996,0.004288727
0.4429996,0.004420543
0.4439996,0.004561555
0.4449996,0.004699502
0.4459996,0.00484971
0.4469996,0.004999919
0.4479996,0.005153193
0.4489996,0.005318729
0.4499996,0.005484265
0.4509996,0.005652867
0.4519996,0.00583373
0.4529996,0.006011528
0.4539996,0.006198522
0.4549996,0.006397779
0.4559996,0.006590905
0.4569996,0.006796291
0.4579996,0.007010875
0.4589996,0.007225459
0.4599996,0.007449239
0.4609996,0.007682216
0.4619996,0.007915192
0.4629996,0.0081543
0.4639996,0.008399539
0.4649996,0.008650908
0.4659996,0.008911475
0.4669996,0.009178172
0.4679996,0.009447934
0.4689996,0.009723827
0.4699996,0.01000892
0.4709996,0.01029401
0.4719996,0.01058216
0.4729996,0.01088564
0.4739996,0.01118606
0.4749996,0.01149261
0.4759996,0.01180835
0.4769996,0.01211797
0.4779996,0.01243984
0.4789996,0.01276479
0.4799996,0.01308666
0.4809996,0.0134208
0.4819996,0.01375494
0.4829996,0.01408907
0.4839996,0.01442934
0.4849996,0.01476655
0.4859996,0.01510681
0.4869996,0.01544708
0.4879996,0.01579655
0.4889996,0.01613988
0.4899996,0.01648628
0.4909996,0.01683881
0.4919996,0.01718215
0.4929996,0.01753161
0.4939996,0.01788721
0.4949996,0.01823054
0.4959996,0.01858307
0.4969996,0.01894173
0.4979996,0.01928813
0.4989996,0.01964373
0.4999996,0.02000546
0.5009996,0.02034879
0.5019996,0.02070132
0.5029996,0.02106611
0.5039996,0.02140945
0.5049996,0.02176198
0.5059996,0.02212984
0.5069996,0.02246704
0.5079996,0.02282877
0.5089996,0.02318743
0.5099996,0.02353076
0.5109996,0.02389249
0.5119996,0.02425115
0.5129996,0.02460062
0.5139996,0.02496234
0.5149996,0.02531487
0.5159996,0.0256674
0.5169996,0.026023
0.5179996,0.02637553
0.5189996,0.02673113
0.5199996,0.02708979
0.5209996,0.02744538
0.5219996,0.02779485
0.5229996,0.02815657
0.5239996,0.0285183
0.5249996,0.02887083
0.5259996,0.02923562
0.5269996,0.02959429
0.5279996,0.02994069
0.5289996,0.03108516
0.5299996,0.03142237
0.5309996,0.03179022
0.5319996,0.03215808
0.5329996,0.03252594
0.5339996,0.03292445
0.5349996,0.03329231
0.5359996,0.03362951
0.5369996,0.03402802
0.5379996,0.03439588
0.5389996,0.03476374
0.5399996,0.03516225
0.5409996,0.03556077
0.5419996,0.03592863
0.5429996,0.03632713
0.5439996,0.03672565
0.5449996,0.03709351
0.5459996,0.03752267
0.5469996,0.03792119
0.5479996,0.03828905
0.5489996,0.03871821
0.5499996,0.03911673
0.5509996,0.03948459
0.5519996,0.03991375
0.5529996,0.04028161
0.5539996,0.04068012
0.5549996,0.04110929
0.5559996,0.0415078
0.5569996,0.04190632
0.5579996,0.04233548
0.5589996,0.04273399
0.5599996,0.04313251
0.5609996,0.04356168
0.5619996,0.04396019
0.5629996,0.0443587
0.5639996,0.04481852
0.5649996,0.04521704
0.5659996,0.04561555
0.5669996,0.04604472
0.5679996,0.04644323
0.5689996,0.0468724
0.5699996,0.04730156
0.5709996,0.04773073
0.5719996,0.0481599
0.5729996,0.04855841
0.5739996,0.04895693
0.5749996,0.04941675
0.5759996,0.04984592
0.5769996,0.05024443
0.5779996,0.05067359
0.5789996,0.05110276
0.5799996,0.05150127
0.5809996,0.05193045
0.5819996,0.05239027
0.5829996,0.05278878
0.5839996,0.05321795
0.5849996,0.05364711
0.5859996,0.05407628
0.5869996,0.05450545
0.5879996,0.05493462
0.5889996,0.05536379
0.5899996,0.05579295
0.5909996,0.05625277
0.5919996,0.05668194
0.5929996,0.05711111
0.5939996,0.05754028
0.5949996,0.05796945
0.5959996,0.05839861
0.5969996,0.05885844
0.5979996,0.05925695
0.5989996,0.05971677
0.5999996,0.06014594
0.6009996,0.06057511
0.6019996,0.06103493
0.6029996,0.0614641
0.6039996,0.06189326
0.6049996,0.06235309
0.6059996,0.06278225
0.6069996,0.06324207
0.6079996,0.06367125
0.6089996,0.06410041
0.6099996,0.06452958
0.6109996,0.0649894
0.6119996,0.06541856
0.6129996,0.06584774
0.6139996,0.06630756
0.6149996,0.06673672
0.6159996,0.0671659
0.6169996,0.06762572
0.6179996,0.06805488
0.6189996,0.06848405
0.6199996,0.06894387
0.6209996,0.06937304
0.6219996,0.06983286
0.6229996,0.07029268
0.6239996,0.07072186
0.6249996,0.07118168
0.6259996,0.0716415
0.6269996,0.07207067
0.6279996,0.07249983
0.6289996,0.07295965
0.6299996,0.07341947
0.6309996,0.07384864
0.6319996,0.07430847
0.6329996,0.07476829
0.6339996,0.07519746
0.6349996,0.07568794
0.6359996,0.07608645
0.6369996,0.07654627
0.6379996,0.07703675
0.6389996,0.07746591
0.6399996,0.07792573
0.6409996,0.0783549
0.6419996,0.07878407
0.6429996,0.07924389
0.6439996,0.07970371
0.6449996,0.08013289
0.6459996,0.08062336
0.6469996,0.08105253
0.6479996,0.0814817
0.6489996,0.08197217
0.6499996,0.08240134
0.6509996,0.08283051
0.6519996,0.08332099
0.6529996,0.08375015
0.6539996,0.08417932
0.6549996,0.08463915
0.6559996,0.08509897
0.6569996,0.08555879
0.6579996,0.08604927
0.6589996,0.08650909
0.6599996,0.08693825
0.6609996,0.08739807
0.6619996,0.08785789
0.6629996,0.08828707
0.6639996,0.08874689
0.6649996,0.08920672
0.6659996,0.08966654
0.6669996,0.09012636
0.6679996,0.09058618
0.6689996,0.09101535
0.6699996,0.09150583
0.6709996,0.09193499
0.6719996,0.09239481
0.6729996,0.09285464
0.6739996,0.09331446
0.6749996,0.09377428
0.6759996,0.0942341
0.6769996,0.09469392
0.6779996,0.09515375
0.6789996,0.09561357
0.6799996,0.0960734
0.6809996,0.09650256
0.6819996,0.09699304
0.6829996,0.0974222
0.6839996,0.09788202
0.6849996,0.09837251
0.6859996,0.09880167
0.6869996,0.09929215
0.6879996,0.09975197
0.6889996,0.1001811
0.6899996,0.1006716
0.6909996,0.1011314
0.6919996,0.1015606
0.6929996,0.1020511
0.6939996,0.1025109
0.6949996,0.1029707
0.6959996,0.1034305
0.6969996,0.1038904
0.6979996,0.1043195
0.6989996,0.10481
0.6999996,0.1049633
0.6990005,0.1044422
0.6980005,0.104013
0.6970005,0.1035532
0.6960005,0.1030627
0.6950005,0.1026335
0.6940005,0.1021124
0.6930005,0.1016526
0.6920004,0.1012234
0.6910005,0.1007023
0.6900005,0.1002425
0.6890005,0.09981328
0.6880005,0.0993228
0.6870005,0.09886298
0.6860005,0.09843381
0.6850005,0.09794334
0.6840005,0.09748352
0.6830005,0.09702369
0.6820005,0.09653322
0.6810005,0.0960734
0.6800005,0.09564423
0.6790005,0.0951231
0.6780005,0.09469392
0.6770005,0.0942341
0.6760005,0.09377428
0.6750005,0.09331446
0.6740005,0.09285464
0.6730005,0.09236415
0.6720005,0.09190433
0.6710005,0.09147517
0.6700005,0.09098469
0.6690005,0.09052487
0.6680005,0.09006505
0.6670005,0.08957457
0.6660005,0.08914541
0.6650005,0.08868558
0.6640005,0.08822576
0.6630005,0.08779659
0.6620005,0.08730611
0.6610005,0.08687695
0.6600005,0.08641712
0.6590005,0.08592664
0.6580005,0.08546682
0.6570005,0.085007
0.6560005,0.08454718
0.6550004,0.08408736
0.6540005,0.08362754
0.6530005,0.08319836
0.6520005,0.08270789
0.6510005,0.08227872
0.6500005,0.08178824
0.6490005,0.08132842
0.6480005,0.08092991
0.6470005,0.08043943
0.6460005,0.07997961
0.6450005,0.07955044
0.6440005,0.07909062
0.6430005,0.0786308
0.6420005,0.07820163
0.6410004,0.07771116
0.6400005,0.07725133
0.6390005,0.07679151
0.6380005,0.07633169
0.6370005,0.07590251
0.6360005,0.07544269
0.6350005,0.07498287
0.6340005,0.07455371
0.6330005,0.07409389
0.6320005,0.07363406
0.6310005,0.07317424
0.6300005,0.07274507
0.6290005,0.07225459
0.6280005,0.07179477
0.6270005,0.07139625
0.6260005,0.07093643
0.6250005,0.07044595
0.6240005,0.07004745
0.6230005,0.06955697
0.6220005,0.06909715
0.6210005,0.06866798
0.6200005,0.06817751
0.6190005,0.06774833
0.6180004,0.06731917
0.6170005,0.06685934
0.6160005,0.06643017
0.6150005,0.06597035
0.6140005,0.06554119
0.6130005,0.06508137
0.6120005,0.0646522
0.6110005,0.06416172
0.6100005,0.0637019
0.6090005,0.06327273
0.6080005,0.06281291
0.6070005,0.06238374
0.6060005,0.06195457
0.6050005,0.06149475
0.6040004,0.06103493
0.6030005,0.06060576
0.6020005,0.06014594
0.6010005,0.05971677
0.6000005,0.0592876
0.5990005,0.05885844
0.5980005,0.05839861
0.5970005,0.05796945
0.5960005,0.05750962
0.5950005,0.05708046
0.5940005,0.05665129
0.5930005,0.05619146
0.5920005,0.0557623
0.5910005,0.05533313
0.5900005,0.05487331
0.5890005,0.05444414
0.5880005,0.05401497
0.5870005,0.05355515
0.5860005,0.05312598
0.5850005,0.05269681
0.5840005,0.05226765
0.5830005,0.05180782
0.5820005,0.05140931
0.5810004,0.05094949
0.5800005,0.05052032
0.5790005,0.05009115
0.5780005,0.04966199
0.5770005,0.04923282
0.5760005,0.04880365
0.5750005,0.04837449
0.5740005,0.04794532
0.5730005,0.04751615
0.5720005,0.04708698
0.5710005,0.04665781
0.5700005,0.04622864
0.5690005,0.04579948
0.5680005,0.04537031
0.5670004,0.04494114
0.5660005,0.04451197
0.5650005,0.04408281
0.5640005,0.04365364
0.5630005,0.04322447
0.5620005,0.0427953
0.5610005,0.0423968
0.5600005,0.04196763
0.5590005,0.04153846
0.5580005,0.04110929
0.5570005,0.04068012
0.5560005,0.04028161
0.5550005,0.03985244
0.5540005,0.03942328
0.5530005,0.03902476
0.5520005,0.03859559
0.5510005,0.03816643
0.5500005,0.03776791
0.5490005,0.03733874
0.5480005,0.03690958
0.5470005,0.03651107
0.5460005,0.03611255
0.5450005,0.03568339
0.5440005,0.03525422
0.5430005,0.0348557
0.5420005,0.03445719
0.5410005,0.03405868
0.5400005,0.03362951
0.5390005,0.033231
0.5380005,0.03283248
0.5370005,0.03240332
0.5360005,0.03200481
0.5350005,0.03160629
0.5340005,0.03120778
0.5330005,0.03080927
0.5320005,0.03041076
0.5310005,0.03001224
0.5300004,0.02958308
0.5290005,0.02921522
0.5280005,0.02878605
0.5270005,0.02841819
0.5260005,0.02801968
0.5250005,0.02762116
0.5240005,0.02722265
0.5230005,0.02682414
0.5220005,0.02642563
0.5210005,0.02605777
0.5200005,0.02565926
0.5190005,0.02526074
0.5180005,0.02489289
0.5170005,0.02449437
0.5160004,0.02412652
0.5150005,0.023728
0.5140005,0.02336015
0.5130005,0.02299229
0.5120005,0.02259377
0.5110005,0.02219526
0.5100005,0.02182741
0.5090005,0.02145955
0.5080005,0.02109169
0.5070005,0.02072383
0.5060005,0.02035597
0.5050005,0.01995746
0.5040005,0.0195896
0.5030005,0.0192524
0.5020005,0.01888454
0.5010005,0.01851668
0.5000005,0.01817948
0.4990005,0.01781162
0.4980005,0.01744376
0.4970005,0.01710656
0.4960005,0.0167387
0.4950005,0.0164015
0.4940005,0.0160643
0.4930005,0.01569644
0.4920005,0.01535923
0.4910005,0.01502203
0.4900005,0.01465417
0.4890005,0.01431697
0.4880005,0.01397977
0.4870005,0.01364256
0.4860005,0.01330536
0.4850005,0.01251035
0.4840005,0.01217928
0.4830005,0.01186353
0.4820005,0.01154166
0.4810005,0.01122285
0.4800005,0.0109163
0.4790005,0.01060362
0.4780005,0.01029707
0.4770005,0.009993589
0.4760005,0.009683976
0.4750005,0.00938969
0.4740005,0.009092337
0.4730005,0.008794987
0.4720005,0.008503765
0.4710005,0.00821561
0.4700005,0.00793052
0.4690005,0.007648496
0.4680005,0.007372602
0.4670005,0.007093643
0.4660005,0.006820816
0.4650005,0.006551053
0.4640005,0.006284356
0.4630005,0.006020725
0.4620005,0.005766289
0.4610005,0.005505723
0.4600005,0.005254354
0.4590005,0.005009115
0.4580005,0.004763877
0.4570005,0.004521704
0.4560005,0.004285661
0.4550005,0.004049619
0.4540005,0.003822774
0.4530005,0.003595928
0.4520005,0.003372148
0.4510005,0.003157564
0.4500005,0.00294298
0.4490005,0.002731462
0.4480005,0.002526074
0.4470005,0.002320687
0.4460005,0.002124496
0.4450005,0.001931371
0.4440005,0.001741311
0.4430005,0.001554316
0.4420005,0.001370388
0.4410005,0.001189524
0.4400005,0.0009867906
0.4390005,0.0008135908
0.4380005,0.0006468286
0.4370005,0.0004831318
0.4360005,0.0003203546
0.4350005,0.0001655477
0.4340005,9.208122E-06
0.4330005,-0.0001441072
0.4320005,-0.0002899628
0.4310005,-0.000436513
0.4300005,-0.0005750729
0.4290005,-0.0007145524
0.4280005,-0.000852499
0.4270005,-0.0009821691
0.4260005,-0.001115518
0.4250005,-0.001243348
0.4240005,-0.001366581
0.4230005,-0.001494105
0.4220005,-0.001615804
0.4210005,-0.001733825
0.4200005,-0.001854299
0.4190005,-0.001966496
0.4180005,-0.002082677
0.4170005,-0.002196713
0.4160005,-0.002306764
0.4150005,-0.00241988
0.4140005,-0.002528092
0.4130005,-0.002636303
0.4120005,-0.002746661
0.4110005,-0.002851194
0.4100005,-0.002964923
0.4090005,-0.003076813
0.4080005,-0.003145068
0.4070005,-0.003249295
0.4060005,-0.003350456
0.4050005,-0.003454682
0.4040005,-0.003561974
0.4030005,-0.0036662
0.4020005,-0.003773492
0.4010005,-0.003877719
0.4000005,-0.003981945
0.3990005,-0.004092303
0.3980005,-0.004196529
0.3970005,-0.004306886
0.3960005,-0.004414178
0.3950005,-0.00452147
0.3940005,-0.004631828
0.3930005,-0.004742185
0.3920005,-0.004849477
0.3910005,-0.0049629
0.3900005,-0.005073257
0.3890005,-0.005183614
0.3880005,-0.005297037
0.3870005,-0.005404329
0.3860005,-0.005517752
0.3850005,-0.005631175
0.3840005,-0.005741532
0.3830005,-0.005854954
0.3820005,-0.005965312
0.3810005,-0.00607567
0.3800005,-0.006189092
0.3790005,-0.00629945
0.3780005,-0.006412873
0.3770005,-0.006526296
0.3760005,-0.006636653
0.3750005,-0.006750076
0.3740005,-0.006860433
0.3730005,-0.006973856
0.3720005,-0.007087279
0.3710005,-0.007197636
0.3700005,-0.007314125
0.3690005,-0.007424482
0.3680005,-0.007531774
0.3670005,-0.007645197
0.3660005,-0.007752489
0.3650005,-0.007862846
0.3640005,-0.007970138
0.3630005,-0.008074365
0.3620005,-0.008175525
0.3610005,-0.00827362
0.3600005,-0.008371716
0.3590005,-0.00845755
0.3580005,-0.008546448
0.3570005,-0.008626151
0.3560005,-0.008699723
0.3550005,-0.008764098
0.3540005,-0.008822342
0.3530005,-0.008868324
0.3520005,-0.008908176
0.3510005,-0.008935764
0.3500005,-0.008954158
0.3490005,-0.008960289
0.3480005,-0.008957223
0.3470005,-0.008941895
0.3460005,-0.008914307
0.3450005,-0.008874455
0.3440005,-0.008822342
0.3430005,-0.008761032
0.3420005,-0.00868133
0.3410005,-0.008595496
0.3400005,-0.008497401
0.3390005,-0.008383978
0.3380005,-0.008261358
0.3370005,-0.008129543
0.3360005,-0.007976269
0.3350005,-0.007816863
0.3340005,-0.007642131
0.3330005,-0.007449006
0.3320005,-0.007243618
0.3310005,-0.007019838
0.3300005,-0.006780731
0.3290005,-0.006529361
0.3280005,-0.00626573
0.3270005,-0.005992902
0.3260005,-0.005713942
0.3250005,-0.005431918
0.3240005,-0.005156024
0.3230005,-0.004880131
0.3220005,-0.004619565
0.3210005,-0.004371261
0.3200005,-0.00414135
0.3190005,-0.003926767
0.3180005,-0.003730575
0.3170005,-0.003552777
0.3160005,-0.003390307
0.3150005,-0.003243164
0.3140005,-0.003111348
0.3130005,-0.00299486
0.3120005,-0.002884502
0.3110005,-0.002786407
0.3100005,-0.002697508
0.3090005,-0.00261474
0.3080005,-0.002541168
0.3070005,-0.002470662
0.3060005,-0.002409352
0.3050005,-0.002348043
0.3040005,-0.002292864
0.3030005,-0.002240751
0.3020005,-0.002191703
0.3010005,-0.002145721
0.3000005,-0.002102804
0.2990005,-0.002059887
0.2980005,-0.002023102
0.2970005,-0.00198325
0.2960005,-0.00194953
0.2950005,-0.00191581
0.2940005,-0.00188209
0.2930005,-0.001851435
0.2920005,-0.00182078
0.2910005,-0.00179319
0.2900005,-0.001765601
0.2890005,-0.001738012
0.2880005,-0.001710422
0.2870005,-0.001685899
0.2860005,-0.001661375
0.2850005,-0.001636851
0.2840005,-0.001615393
0.2830005,-0.001629599
0.2820005,-0.001608447
0.2810005,-0.001587908
0.2800005,-0.001567676
0.2790005,-0.00154867
0.2780005,-0.001529971
0.2770005,-0.001511271
0.2760005,-0.001493492
0.2750005,-0.001476018
0.2740005,-0.001459158
0.2730005,-0.001442605
0.2720005,-0.001426357
0.2710005,-0.001410724
0.2700005,-0.001395396
0.2690005,-0.001380988
0.2680005,-0.001366274
0.2670005,-0.001351866
0.2660005,-0.001338072
0.2650005,-0.001324277
0.2640005,-0.001311095
0.2630005,-0.00129822
0.2620005,-0.001285345
0.2610005,-0.001272777
0.2600005,-0.001260821
0.2590005,-0.001248253
0.2580005,-0.001236911
0.2570005,-0.001225568
0.2560005,-0.00121392
0.2550005,-0.00120319
0.2540005,-0.001192155
0.2530005,-0.001181119
0.2520005,-0.001171003
0.2510005,-0.001160274
0.2500005,-0.001150158
0.2490005,-0.001140348
0.2480005,-0.001130232
0.2470005,-0.001121035
0.2460005,-0.001111532
0.2450005,-0.001102336
0.2440005,-0.00109314
0.2430005,-0.00108425
0.2420005,-0.00107536
0.2410005,-0.001066776
0.2400005,-0.001058193
0.2390005,-0.001049916
0.2380005,-0.001041639
0.2370005,-0.001033363
0.2360005,-0.001025392
0.2350005,-0.001017422
0.2340005,-0.001009758
0.2330005,-0.001001788
0.2320005,-0.0009941244
0.2310005,-0.0009867672
0.2300005,-0.00097941
0.2290005,-0.0009720529
0.2280005,-0.0009653088
0.2270005,-0.0009582583
0.2260005,-0.0009509011
0.2250005,-0.000944157
0.2240005,-0.000937413
0.2230005,-0.0009303623
0.2220005,-0.0009239248
0.2210005,-0.0009174873
0.2200005,-0.0009107432
0.2190005,-0.0009043057
0.2180005,-0.0008981748
0.2170005,-0.0008920438
0.2160005,-0.0008856063
0.2150005,-0.0008794753
0.2140005,-0.0008733444
0.2130005,-0.0008672134
0.2120005,-0.000861389
0.2110005,-0.0008555645
0.2100005,-0.0008497401
0.2090005,-0.0008442223
0.2080005,-0.0008383978
0.2070005,-0.00083288
0.2060005,-0.0008273621
0.2050005,-0.0008218443
0.2040005,-0.0008166329
0.2030005,-0.0008111151
0.2020005,-0.0008059037
0.2010005,-0.0008009989
0.2000005,-0.0007957877
0.1990005,-0.0007905763
0.1980005,-0.0007856716
0.1970005,-0.0007804602
0.1960005,-0.0007755554
0.1950005,-0.0007706507
0.1940005,-0.0007660525
0.1930005,-0.0007611477
0.1920005,-0.0007565495
0.1910005,-0.0007519512
0.1900005,-0.000747353
0.1890005,-0.0007430614
0.1880005,-0.0007384631
0.1870005,-0.0007338649
0.1860005,-0.0007295733
0.1850005,-0.0007252816
0.1840005,-0.0007206833
0.1830005,-0.0007166982
0.1820005,-0.0007124065
0.1810005,-0.0007084214
0.1800005,-0.0007044363
0.1790005,-0.0007001446
0.1780005,-0.0006961594
0.1770005,-0.0006924809
0.1760005,-0.0006884958
0.1750005,-0.0006848171
0.1740005,-0.0006811386
0.1730005,-0.0006771535
0.1720005,-0.0006734749
0.1710005,-0.0006697963
0.1700005,-0.0006664242
0.1690005,-0.0006627457
0.1680005,-0.0006590671
0.1670005,-0.0006556951
0.1660005,-0.0006526296
0.1650005,-0.000648951
0.1640005,-0.0006458855
0.1630005,-0.0006425135
0.1620005,-0.0006391415
0.1610005,-0.0006357695
0.1600005,-0.000632704
0.1590005,-0.0006293319
0.1580005,-0.0006262665
0.1570005,-0.0006235075
0.1560005,-0.000620442
0.1550005,-0.0006173765
0.1540005,-0.0006146176
0.1530005,-0.0006115522
0.1520005,-0.0006084866
0.1510005,-0.0006060342
0.1500005,-0.0006029688
0.1490005,-0.0006002099
0.1480005,-0.0005974509
0.1470005,-0.000594692
0.1460005,-0.000591933
0.1450005,-0.0005891741
0.1440005,-0.0005864152
0.1430005,-0.0005839628
0.1420005,-0.0005812038
0.1410005,-0.0005787515
0.1400005,-0.0005759926
0.1390005,-0.0005735401
0.1380005,-0.0005707812
0.1370005,-0.0005686354
0.1360005,-0.0005658764
0.1350005,-0.0005634241
0.1340005,-0.0005609716
0.1330005,-0.0005585193
0.1320005,-0.0005560669
0.1310005,-0.0005536145
0.1300005,-0.0005514687
0.1290005,-0.0005490163
0.1280005,-0.0005468705
0.1270005,-0.0005447246
0.1260005,-0.0005422722
0.1250005,-0.0005401264
0.1240005,-0.0005379805
0.1230005,-0.0005355282
0.1220005,-0.0005336889
0.1210005,-0.000531543
0.1200005,-0.0005290906
0.1190005,-0.0005272513
0.1180005,-0.0005251055
0.1170005,-0.0005232662
0.1160005,-0.0005211204
0.1150005,-0.0005189746
0.1140005,-0.0005168287
0.1130005,-0.0005149894
0.1120005,-0.0005128436
0.1110005,-0.0005110043
0.1100005,-0.000509165
0.1090005,-0.0005070192
0.1080005,-0.0005051799
0.1070005,-0.0005033406
0.1060005,-0.0005015013
0.1050005,-0.000499662
0.1040005,-0.0004978227
0.1030005,-0.0004959835
0.1020005,-0.0004941442
0.1010005,-0.0004923049
0.1000005,-0.0004907721
0.09900048,-0.0004886262
0.09800047,-0.0004870935
0.09700048,-0.0004852542
0.09600048,-0.0004834149
0.09500048,-0.0004818822
0.09400047,-0.0004800429
0.09300048,-0.0004785102
0.09200048,-0.0004766709
0.09100047,-0.0004751382
0.09000048,-0.0004736054
0.08900048,-0.0004720727
0.08800048,-0.0004702334
0.08700047,-0.0004687006
0.08600048,-0.0004671679
0.08500048,-0.0004653286
0.08400048,-0.0004641024
0.08300047,-0.0004622631
0.08200048,-0.0004607304
0.08100048,-0.0004591976
0.08000048,-0.0004576649
0.07900048,-0.0004561322
0.07800048,-0.0004545994
0.07700048,-0.0004530667
0.07600047,-0.0004515339
0.07500048,-0.0004500012
0.07400048,-0.0004484684
0.07300048,-0.0004472423
0.07200047,-0.0004457095
0.07100048,-0.0004441768
0.07000048,-0.000442644
0.06900048,-0.0004414178
0.06800048,-0.0004401917
0.06700048,-0.0004386589
0.06600048,-0.0004374327
0.06500047,-0.0004359
0.06400048,-0.0004343672
0.06300048,-0.000433141
0.06200048,-0.0004316083
0.06100048,-0.0004303821
0.06000048,-0.0004288494
0.05900048,-0.0004276232
0.05800048,-0.0004260904
0.05700048,-0.0004248642
0.05600048,-0.000423638
0.05500048,-0.0004221053
0.05400048,-0.0004208791
0.05300048,-0.0004196529
0.05200048,-0.0004184267
0.05100048,-0.0004172005
0.05000048,-0.0004156678
0.04900048,-0.0004144416
0.04800048,-0.0004132154
0.04700048,-0.0004119892
0.04600048,-0.000410763
0.04500048,-0.0004095368
0.04400048,-0.0004080041
0.04300048,-0.0004067779
0.04200048,-0.0004055517
0.04100048,-0.0004043255
0.04000048,-0.0004027928
0.03900048,-0.0004015666
0.03800048,-0.0004003404
0.03700048,-0.0003991142
0.03600048,-0.000397888
0.03500048,-0.0003963552
0.03400048,-0.0003951291
0.03300048,-0.0003939029
0.03200048,-0.0003923701
0.03100048,-0.0003911439
0.03000048,-0.0003899177
0.02900048,-0.000388385
0.02800048,-0.0003871588
0.02700048,-0.0003859326
0.02600048,-0.0003843998
0.02500048,-0.0003831737
0.02400048,-0.0003816409
0.02300048,-0.0003804147
0.02200048,-0.000378882
0.02100048,-0.0003776558
0.02000048,-0.0003761231
0.01900048,-0.0003745903
0.01800048,-0.0003733641
0.01700048,-0.0003718314
0.01600048,-0.0003702986
0.01500048,-0.0003690725
0.01400048,-0.0003675397
0.01300048,-0.0003663135
0.01200048,-0.0003647808
0.01100048,-0.0003632481
0.01000048,-0.0003620218
0.009000476,-0.0003604891
0.008000477,-0.0003589563
0.007000477,-0.0003574236
0.006000477,-0.0003558909
0.005000477,-0.0003546647
0.004000477,-0.0003531319
0.003000477,-0.0003515992
0.002000477,-0.0003500664
0.001000477,-0.0003488403
