EXPID. 0661
[电化学]: CV : 0 >> 0.7 >> 0 >> 0(V) @ 0.01(V/s) X 10(Seg)
起始电位 (V),0
上限电位 (V),0.7
下限电位 (V),0
终止电位 (V),0
扫速 (V/s),0.01
电解液 信息:
KOH,1
0.001,-2.823193E-06
0.002,-2.676049E-06
0.003,-2.516645E-06
0.004,-2.397091E-06
0.005,-2.298995E-06
0.006,-2.188638E-06
0.007,-2.090542E-06
0.008,-1.931137E-06
0.009,-1.88822E-06
0.01,-1.765601E-06
0.011,-1.762536E-06
0.012,-1.609262E-06
0.013,-1.529559E-06
0.014,-1.443726E-06
0.015,-1.342565E-06
0.016,-1.265927E-06
0.017,-1.238338E-06
0.018,-1.075868E-06
0.019,-1.075868E-06
0.02,-9.501828E-07
0.021,-8.858077E-07
0.022,-7.754503E-07
0.023,-6.620275E-07
0.024,-5.455391E-07
0.025,-4.903604E-07
0.026,-3.493483E-07
0.027,-3.309554E-07
0.028,-1.991396E-07
0.029,-7.652033E-08
0.03,-2.948749E-09
0.031,5.222994E-08
0.032,1.380634E-07
0.033,2.055041E-07
0.034,3.373198E-07
0.035,3.679747E-07
0.036,4.84463E-07
0.037,5.580346E-07
0.038,6.591955E-07
0.039,7.143742E-07
0.04,8.063387E-07
0.041,8.492554E-07
0.042,9.105651E-07
0.043,1.00866E-06
0.044,1.039315E-06
0.045,1.207917E-06
0.046,1.220179E-06
0.047,1.306012E-06
0.048,1.385715E-06
0.049,1.468483E-06
0.05,1.581906E-06
0.051,1.64015E-06
0.052,1.713721E-06
0.053,1.787293E-06
0.054,1.903781E-06
0.055,1.968157E-06
0.056,2.060121E-06
0.057,2.136758E-06
0.058,2.216461E-06
0.059,2.286967E-06
0.06,2.354407E-06
0.061,2.431044E-06
0.062,2.507682E-06
0.063,2.593515E-06
0.064,2.713069E-06
0.065,2.762116E-06
0.066,2.875539E-06
0.067,2.900063E-06
0.068,3.03801E-06
0.069,3.108516E-06
0.07,3.157564E-06
0.071,3.289379E-06
0.072,3.366017E-06
0.073,3.442654E-06
0.074,3.537684E-06
0.075,3.577535E-06
0.076,3.718547E-06
0.077,3.752267E-06
0.078,3.822774E-06
0.079,3.933131E-06
0.08,3.985244E-06
0.081,4.092536E-06
0.082,4.221286E-06
0.083,4.267268E-06
0.084,4.377626E-06
0.085,4.472656E-06
0.086,4.512507E-06
0.087,4.650454E-06
0.088,4.751615E-06
0.089,4.779204E-06
0.09,4.88343E-06
0.091,4.947806E-06
0.092,5.085752E-06
0.093,5.150127E-06
0.094,5.217568E-06
0.095,5.312598E-06
0.096,5.441349E-06
0.097,5.517985E-06
0.098,5.588492E-06
0.099,5.637539E-06
0.1,5.754027E-06
0.101,5.86745E-06
0.102,5.990069E-06
0.103,6.045248E-06
0.104,6.11882E-06
0.105,6.195457E-06
0.106,6.327272E-06
0.107,6.382451E-06
0.108,6.483613E-06
0.109,6.618493E-06
0.11,6.639952E-06
0.111,6.784029E-06
0.112,6.875994E-06
0.113,6.921976E-06
0.114,6.971024E-06
0.115,7.121233E-06
0.116,7.222393E-06
0.117,7.305162E-06
0.118,7.409388E-06
0.119,7.498287E-06
0.12,7.547335E-06
0.121,7.67915E-06
0.122,7.798704E-06
0.123,7.869211E-06
0.124,7.939716E-06
0.125,8.080729E-06
0.126,8.099122E-06
0.127,8.252396E-06
0.128,8.289181E-06
0.129,8.378081E-06
0.13,8.50683E-06
0.131,8.565075E-06
0.132,8.696891E-06
0.133,8.776593E-06
0.134,8.902278E-06
0.135,8.966653E-06
0.136,9.089273E-06
0.137,9.104599E-06
0.138,9.224153E-06
0.139,9.313053E-06
0.14,9.42341E-06
0.141,9.509244E-06
0.142,9.558291E-06
0.143,9.687042E-06
0.144,9.757548E-06
0.145,9.812726E-06
0.146,9.929215E-06
0.147,1.002424E-05
0.148,1.013154E-05
0.149,1.019898E-05
0.15,1.02143E-05
0.151,1.037984E-05
0.152,1.045648E-05
0.153,1.051166E-05
0.154,1.063734E-05
0.155,1.071704E-05
0.156,1.076302E-05
0.157,1.090404E-05
0.158,1.096841E-05
0.159,1.100213E-05
0.16,1.112169E-05
0.161,1.117687E-05
0.162,1.125044E-05
0.163,1.131788E-05
0.164,1.140984E-05
0.165,1.148954E-05
0.166,1.163362E-05
0.167,1.173478E-05
0.168,1.181142E-05
0.169,1.18666E-05
0.17,1.197389E-05
0.171,1.208731E-05
0.172,1.226511E-05
0.173,1.23724E-05
0.174,1.24613E-05
0.175,1.258086E-05
0.176,1.269121E-05
0.177,1.28261E-05
0.178,1.294258E-05
0.179,1.301002E-05
0.18,1.309279E-05
0.181,1.316943E-05
0.182,1.329205E-05
0.183,1.338708E-05
0.184,1.350357E-05
0.185,1.359553E-05
0.186,1.367523E-05
0.187,1.377026E-05
0.188,1.38469E-05
0.189,1.396646E-05
0.19,1.404922E-05
0.191,1.413506E-05
0.192,1.428833E-05
0.193,1.436803E-05
0.194,1.449678E-05
0.195,1.448759E-05
0.196,1.465925E-05
0.197,1.475122E-05
0.198,1.486464E-05
0.199,1.498419E-05
0.2,1.507003E-05
0.201,1.512214E-05
0.202,1.526009E-05
0.203,1.532753E-05
0.204,1.549306E-05
0.205,1.556664E-05
0.206,1.569232E-05
0.207,1.579042E-05
0.208,1.589158E-05
0.209,1.597435E-05
0.21,1.613682E-05
0.211,1.622571E-05
0.212,1.63514E-05
0.213,1.640658E-05
0.214,1.650774E-05
0.215,1.667021E-05
0.216,1.682655E-05
0.217,1.687866E-05
0.218,1.707485E-05
0.219,1.716682E-05
0.22,1.736301E-05
0.221,1.744884E-05
0.222,1.755E-05
0.223,1.776152E-05
0.224,1.789334E-05
0.225,1.805887E-05
0.226,1.814777E-05
0.227,1.832251E-05
0.228,1.845432E-05
0.229,1.855548E-05
0.23,1.869649E-05
0.231,1.880685E-05
0.232,1.896626E-05
0.233,1.902144E-05
0.234,1.922069E-05
0.235,1.9282E-05
0.236,1.943834E-05
0.237,1.950578E-05
0.238,1.965599E-05
0.239,1.977861E-05
0.24,1.995334E-05
0.241,2.004837E-05
0.242,2.026296E-05
0.243,2.04101E-05
0.244,2.056644E-05
0.245,2.073811E-05
0.246,2.085766E-05
0.247,2.107838E-05
0.248,2.121019E-05
0.249,2.134814E-05
0.25,2.154126E-05
0.251,2.170986E-05
0.252,2.190606E-05
0.253,2.202867E-05
0.254,2.219728E-05
0.255,2.240573E-05
0.256,2.253755E-05
0.257,2.269695E-05
0.258,2.286249E-05
0.259,2.304641E-05
0.26,2.326713E-05
0.261,2.339281E-05
0.262,2.352463E-05
0.263,2.380052E-05
0.264,2.39354E-05
0.265,2.408868E-05
0.266,2.430939E-05
0.267,2.444427E-05
0.268,2.465273E-05
0.269,2.486118E-05
0.27,2.506044E-05
0.271,2.565926E-05
0.272,2.578188E-05
0.273,2.59658E-05
0.274,2.621104E-05
0.275,2.639497E-05
0.276,2.65789E-05
0.277,2.682414E-05
0.278,2.703872E-05
0.279,2.722265E-05
0.28,2.740658E-05
0.281,2.765182E-05
0.282,2.78664E-05
0.283,2.805033E-05
0.284,2.835688E-05
0.285,2.851016E-05
0.286,2.875539E-05
0.287,2.903129E-05
0.288,2.924587E-05
0.289,2.946045E-05
0.29,2.970569E-05
0.291,2.992028E-05
0.292,3.019617E-05
0.293,3.044141E-05
0.294,3.068665E-05
0.295,3.09932E-05
0.296,3.117712E-05
0.297,3.145302E-05
0.298,3.169826E-05
0.299,3.200481E-05
0.3,3.22807E-05
0.301,3.255659E-05
0.302,3.280183E-05
0.303,3.310838E-05
0.304,3.338427E-05
0.305,3.366017E-05
0.306,3.399737E-05
0.307,3.427326E-05
0.308,3.454915E-05
0.309,3.482505E-05
0.31,3.510094E-05
0.311,3.543814E-05
0.312,3.568338E-05
0.313,3.602059E-05
0.314,3.638844E-05
0.315,3.660303E-05
0.316,3.690958E-05
0.317,3.727743E-05
0.318,3.755333E-05
0.319,3.789053E-05
0.32,3.819708E-05
0.321,3.850363E-05
0.322,3.884083E-05
0.323,3.914738E-05
0.324,3.954589E-05
0.325,3.979113E-05
0.326,4.009768E-05
0.327,4.052684E-05
0.328,4.089471E-05
0.329,4.126256E-05
0.33,4.163042E-05
0.331,4.205959E-05
0.332,4.251941E-05
0.333,4.288727E-05
0.334,4.328578E-05
0.335,4.368429E-05
0.336,4.411346E-05
0.337,4.451197E-05
0.338,4.491049E-05
0.339,4.5309E-05
0.34,4.573816E-05
0.341,4.616733E-05
0.342,4.662716E-05
0.343,4.714829E-05
0.344,4.75468E-05
0.345,4.803728E-05
0.346,4.852776E-05
0.347,4.904889E-05
0.348,4.966198E-05
0.349,5.015246E-05
0.35,5.073491E-05
0.351,5.1348E-05
0.352,5.202241E-05
0.353,5.269681E-05
0.354,5.343253E-05
0.355,5.413758E-05
0.356,5.505723E-05
0.357,5.597688E-05
0.358,5.701914E-05
0.359,5.818402E-05
0.36,5.950218E-05
0.361,6.103492E-05
0.362,6.287421E-05
0.363,6.495875E-05
0.364,6.750309E-05
0.365,7.04153E-05
0.366,7.384864E-05
0.367,7.817097E-05
0.368,8.298378E-05
0.369,8.902277E-05
0.37,9.610405E-05
0.371,0.0001045341
0.372,0.0001145582
0.373,0.0001260538
0.374,0.0001395726
0.375,0.0001552372
0.376,0.0001727411
0.377,0.0001929426
0.378,0.0002153207
0.379,0.0002400591
0.38,0.000267955
0.381,0.0002979048
0.382,0.0003347624
0.383,0.0003709351
0.384,0.0004092536
0.385,0.0004521704
0.386,0.0004972329
0.387,0.0005456676
0.388,0.0005980873
0.389,0.000653266
0.39,0.0007121233
0.391,0.0007752723
0.392,0.0008414867
0.393,0.0009119928
0.394,0.000986484
0.395,0.001065573
0.396,0.001148955
0.397,0.001236934
0.398,0.001330431
0.399,0.001427914
0.4,0.001529687
0.401,0.001638206
0.402,0.001750096
0.403,0.001867504
0.404,0.001991349
0.405,0.002116421
0.406,0.00224885
0.407,0.002384957
0.408,0.002523517
0.409,0.002670047
0.41,0.002822402
0.411,0.002971997
0.412,0.003160629
0.413,0.003313903
0.414,0.003473309
0.415,0.003635779
0.416,0.00379825
0.417,0.003963786
0.418,0.004132387
0.419,0.004300989
0.42,0.00446959
0.421,0.004638192
0.422,0.004809859
0.423,0.00497846
0.424,0.005147062
0.425,0.005318729
0.426,0.005490396
0.427,0.005655932
0.428,0.005830665
0.429,0.005993135
0.43,0.006161737
0.431,0.006330338
0.432,0.006492809
0.433,0.006652214
0.434,0.00681775
0.435,0.006977155
0.436,0.00713656
0.437,0.0072929
0.438,0.007449239
0.439,0.007605579
0.44,0.007758853
0.441,0.007912127
0.442,0.008065402
0.443,0.00821561
0.444,0.008362753
0.445,0.008512962
0.446,0.00866317
0.447,0.008810313
0.448,0.008963588
0.449,0.009113796
0.45,0.009264005
0.451,0.009417279
0.452,0.009570553
0.453,0.009717696
0.454,0.009874037
0.455,0.01003344
0.456,0.01018672
0.457,0.01035225
0.458,0.01051472
0.459,0.01067719
0.46,0.01084886
0.461,0.01102053
0.462,0.01119219
0.463,0.01136999
0.464,0.01155085
0.465,0.01173478
0.466,0.01192484
0.467,0.01212103
0.468,0.01231416
0.469,0.01251648
0.47,0.01272187
0.471,0.01293339
0.472,0.01314491
0.473,0.01336868
0.474,0.01359247
0.475,0.01382238
0.476,0.01406455
0.477,0.01430059
0.478,0.01454583
0.479,0.01480333
0.48,0.01505777
0.481,0.01532446
0.482,0.01559423
0.483,0.01586705
0.484,0.01614908
0.485,0.01643417
0.486,0.01672539
0.487,0.01702274
0.488,0.01732622
0.489,0.01762971
0.49,0.01794852
0.491,0.01826119
0.492,0.01858614
0.493,0.01892334
0.494,0.01925135
0.495,0.01958855
0.496,0.01994108
0.497,0.02028748
0.498,0.02064001
0.499,0.02100174
0.5,0.02135733
0.501,0.02172519
0.502,0.02209918
0.503,0.02246704
0.504,0.02284103
0.505,0.02322728
0.506,0.02361047
0.507,0.02399671
0.508,0.02439216
0.509,0.02478148
0.51,0.02518306
0.511,0.02558463
0.512,0.02598928
0.513,0.02640312
0.514,0.02680776
0.515,0.0272124
0.516,0.02763238
0.517,0.02804622
0.518,0.02846312
0.519,0.02888309
0.52,0.02930613
0.521,0.02972304
0.522,0.03014301
0.523,0.03136105
0.524,0.03175957
0.525,0.03221939
0.526,0.03264856
0.527,0.03307773
0.528,0.03350689
0.529,0.03393606
0.53,0.03436523
0.531,0.03482505
0.532,0.03525422
0.533,0.03568339
0.534,0.03614321
0.535,0.03657238
0.536,0.03700154
0.537,0.03746137
0.538,0.03789053
0.539,0.03835035
0.54,0.03881018
0.541,0.03920869
0.542,0.03966851
0.543,0.04012834
0.544,0.0405575
0.545,0.04098667
0.546,0.04144649
0.547,0.04187566
0.548,0.04230483
0.549,0.04276465
0.55,0.04319382
0.551,0.04362299
0.552,0.04408281
0.553,0.04451197
0.554,0.04494114
0.555,0.04537031
0.556,0.04583013
0.557,0.0462593
0.558,0.04671912
0.559,0.04714829
0.56,0.04757746
0.561,0.04800662
0.562,0.04846645
0.563,0.04892627
0.564,0.04932478
0.565,0.04975395
0.566,0.05021377
0.567,0.05064294
0.568,0.05107211
0.569,0.05153193
0.57,0.05193045
0.571,0.05235961
0.572,0.05281943
0.573,0.0532486
0.574,0.05370842
0.575,0.05416824
0.576,0.05459742
0.577,0.05505724
0.578,0.05548641
0.579,0.05591557
0.58,0.05637539
0.581,0.05683522
0.582,0.05729504
0.583,0.05772421
0.584,0.05818403
0.585,0.05861319
0.586,0.05907302
0.587,0.05953284
0.588,0.059962
0.589,0.06042183
0.59,0.060851
0.591,0.06128017
0.592,0.06173999
0.593,0.06219981
0.594,0.06262898
0.595,0.0630888
0.596,0.06354862
0.597,0.06400844
0.598,0.06443761
0.599,0.06489744
0.6,0.0653266
0.601,0.06578642
0.602,0.06624625
0.603,0.06667542
0.604,0.06713524
0.605,0.06759506
0.606,0.06802423
0.607,0.0685147
0.608,0.06894387
0.609,0.0694037
0.61,0.06986352
0.611,0.07032334
0.612,0.07075251
0.613,0.07121233
0.614,0.07167216
0.615,0.07210132
0.616,0.07256114
0.617,0.07302096
0.618,0.07348078
0.619,0.07390995
0.62,0.07440043
0.621,0.0748296
0.622,0.07528942
0.623,0.07574924
0.624,0.07620906
0.625,0.07666889
0.626,0.07712871
0.627,0.07755788
0.628,0.0780177
0.629,0.07847752
0.63,0.07893734
0.631,0.07939716
0.632,0.07985699
0.633,0.08031681
0.634,0.08077663
0.635,0.08123646
0.636,0.08166563
0.637,0.08212545
0.638,0.08261593
0.639,0.08304509
0.64,0.08350492
0.641,0.08399539
0.642,0.08445521
0.643,0.08491503
0.644,0.08540551
0.645,0.08583468
0.646,0.08632516
0.647,0.08678498
0.648,0.08721415
0.649,0.08770462
0.65,0.08816445
0.651,0.08856296
0.652,0.08902278
0.653,0.08948261
0.654,0.08988111
0.655,0.09034094
0.656,0.09080076
0.657,0.09119927
0.658,0.0916591
0.659,0.09211892
0.66,0.09257875
0.661,0.09300791
0.662,0.09346773
0.663,0.09392755
0.664,0.09441803
0.665,0.09490851
0.666,0.09533768
0.667,0.0958588
0.668,0.09628798
0.669,0.09677845
0.67,0.09723828
0.671,0.0976981
0.672,0.09818857
0.673,0.09867906
0.674,0.09913888
0.675,0.09962936
0.676,0.1001198
0.677,0.1005796
0.678,0.1010701
0.679,0.1015606
0.68,0.1020204
0.681,0.1025109
0.682,0.1030014
0.683,0.1034612
0.684,0.103921
0.685,0.1044115
0.686,0.1048713
0.687,0.1053618
0.688,0.1058829
0.689,0.1063121
0.69,0.1068026
0.691,0.1072624
0.692,0.1077529
0.693,0.1082127
0.694,0.1087032
0.695,0.1091936
0.696,0.1096228
0.697,0.1101746
0.698,0.1105731
0.699,0.1110636
0.7,0.1112169
0.6990001,0.1106957
0.6980001,0.1102359
0.6970001,0.1097454
0.6960001,0.109255
0.6950001,0.1087951
0.6940001,0.1083353
0.6930001,0.1078142
0.6920001,0.1073544
0.6910001,0.1068639
0.6900001,0.1063428
0.6890001,0.1058829
0.6880001,0.1054231
0.6870001,0.104902
0.6860001,0.1044422
0.6850001,0.1039517
0.6840001,0.1034612
0.6830001,0.103032
0.6820001,0.1025416
0.6810001,0.1020204
0.6800001,0.1016219
0.6790001,0.1010701
0.6780001,0.1005796
0.6770001,0.1001505
0.6760001,0.09962936
0.6750001,0.09916953
0.6740001,0.09870971
0.6730001,0.09818857
0.6720001,0.09772875
0.6710001,0.09726893
0.6700001,0.09677845
0.6690001,0.09628798
0.6680001,0.0958588
0.6670001,0.09533768
0.6660001,0.09484719
0.6650001,0.09441803
0.6640001,0.0938969
0.6630001,0.09343708
0.6620001,0.09297726
0.6610001,0.09245612
0.6600001,0.09202696
0.6590001,0.09153648
0.6580001,0.09101535
0.6570001,0.09058618
0.6560001,0.09012636
0.6550001,0.08960523
0.6540001,0.08917606
0.6530001,0.08868558
0.6520001,0.08819511
0.6510001,0.08773528
0.6500001,0.0872448
0.6490001,0.08678498
0.6480001,0.08632516
0.6470001,0.08583468
0.6460001,0.08537485
0.6450001,0.08491503
0.6440001,0.08442456
0.6430001,0.08393408
0.6420001,0.08347426
0.6410001,0.08301444
0.6400001,0.08252396
0.6390001,0.08206414
0.6380001,0.08160432
0.6370001,0.0811445
0.6360001,0.08068467
0.6350001,0.0801942
0.6340001,0.07970371
0.6330001,0.07927455
0.6320001,0.07881473
0.6310001,0.07832425
0.6300001,0.07786443
0.6290001,0.0774046
0.6280001,0.07691412
0.6270001,0.0764543
0.6260001,0.07599448
0.6250001,0.075504
0.6240001,0.07507484
0.6230001,0.07458436
0.6220001,0.07412454
0.6210001,0.07366472
0.6200001,0.07317424
0.6190001,0.07274507
0.6180001,0.07228525
0.6170001,0.07179477
0.6160001,0.0713656
0.6150001,0.07090578
0.6140001,0.0704153
0.6130001,0.06995548
0.6120001,0.06949566
0.6110001,0.06900518
0.6100001,0.06857602
0.6090001,0.06808554
0.6080001,0.06762572
0.6070001,0.06719655
0.6060001,0.06670607
0.6050001,0.06624625
0.6040001,0.06581708
0.6030001,0.0653266
0.6020001,0.06486678
0.6010001,0.06443761
0.6000001,0.06394713
0.5990001,0.06351797
0.5980001,0.06305815
0.5970001,0.06256767
0.5960001,0.0621385
0.5950001,0.06164802
0.5940001,0.0611882
0.5930001,0.06075903
0.5920001,0.06029921
0.5910001,0.05980873
0.5900001,0.05937957
0.5890001,0.05891975
0.5880001,0.05845992
0.5870001,0.0580001
0.5860001,0.05754028
0.5850001,0.05708046
0.5840001,0.05665129
0.5830001,0.05619146
0.5820001,0.05573164
0.5810001,0.05530247
0.5800001,0.05484265
0.5790001,0.05438283
0.5780001,0.05392301
0.5770001,0.05346319
0.5760001,0.05303402
0.5750001,0.05257419
0.5740001,0.05211437
0.5730001,0.0516852
0.5720001,0.05122538
0.5710001,0.05076556
0.5700001,0.05033639
0.5690001,0.04987657
0.5680001,0.0494474
0.5670001,0.04901823
0.5660001,0.04855841
0.5650001,0.04809859
0.5640001,0.04766942
0.5630001,0.0472096
0.5620001,0.04678043
0.5610001,0.04632061
0.5600001,0.04589145
0.5590001,0.04543162
0.5580001,0.04500245
0.5570001,0.04454263
0.5560001,0.04411346
0.5550001,0.0436843
0.5540001,0.04322447
0.5530001,0.0427953
0.5520001,0.04236614
0.5510001,0.04190632
0.5500001,0.04147715
0.5490001,0.04104798
0.5480001,0.04058816
0.5470001,0.04015899
0.5460001,0.03972982
0.5450001,0.03930065
0.5440001,0.03887149
0.5430001,0.03841167
0.5420001,0.0379825
0.5410001,0.03755333
0.5400001,0.03712416
0.5390001,0.036695
0.5380001,0.03626583
0.5370001,0.03583666
0.5360001,0.03540749
0.5350001,0.03497833
0.5340001,0.03454916
0.5330001,0.03415065
0.5320001,0.03372148
0.5310001,0.03329231
0.5300001,0.03286314
0.5290001,0.03243398
0.5280001,0.03203546
0.5270001,0.03160629
0.5260001,0.03117712
0.5250001,0.03074796
0.5240001,0.03034945
0.5230001,0.02992028
0.5220001,0.02949111
0.5210001,0.0290926
0.5200001,0.02866343
0.5190001,0.02826492
0.5180001,0.02783575
0.5170001,0.02743724
0.5160001,0.02703872
0.5150001,0.02664021
0.5140001,0.02621104
0.5130001,0.02581253
0.5120001,0.02541402
0.5110001,0.02498485
0.5100001,0.02458634
0.5090001,0.02418783
0.5080001,0.02378931
0.5070001,0.02342146
0.5060001,0.02299229
0.5050001,0.02259377
0.5040001,0.02219526
0.5030001,0.02179675
0.5020001,0.02142889
0.5010001,0.02103038
0.5000001,0.02063187
0.4990001,0.02026401
0.4980001,0.0198655
0.4970001,0.01949764
0.4960001,0.01909912
0.4950001,0.01873127
0.4940001,0.01836341
0.4930001,0.01799555
0.4920001,0.01759704
0.4910001,0.01722918
0.4900001,0.01686132
0.4890001,0.01649346
0.4880001,0.01615626
0.4870001,0.0157884
0.4860001,0.01542055
0.4850001,0.01505269
0.4840001,0.01468483
0.4830001,0.01431697
0.4820001,0.01397977
0.4810001,0.01361191
0.4800001,0.01327471
0.4790001,0.01242145
0.4780001,0.01208118
0.4770001,0.01174705
0.4760001,0.01140984
0.4750001,0.01107877
0.4740001,0.0107477
0.4730001,0.01042276
0.4720001,0.01009782
0.4710001,0.00977594
0.4700001,0.009463261
0.4690001,0.009144451
0.4680001,0.008834838
0.4670001,0.008528289
0.4660001,0.00821561
0.4650001,0.007918258
0.4640001,0.007620906
0.4630001,0.007320489
0.4620001,0.007032333
0.4610001,0.006741113
0.4600001,0.006452957
0.4590001,0.006177064
0.4580001,0.005898105
0.4570001,0.005622211
0.4560001,0.005355515
0.4550001,0.005085752
0.4540001,0.004825186
0.4530001,0.004567686
0.4520001,0.004310185
0.4510001,0.004061881
0.4500001,0.003816642
0.4490001,0.003571404
0.4480001,0.003335362
0.4470001,0.00309932
0.4460001,0.002869408
0.4450001,0.002645628
0.4440001,0.002421848
0.4430001,0.002204199
0.4420001,0.001989615
0.4410001,0.001784228
0.4400001,0.00157884
0.4390001,0.001376518
0.4380001,0.001180327
0.4370001,0.0009524572
0.4360001,0.0007633169
0.4350001,0.0005818403
0.4340001,0.0003972982
0.4330001,0.0002207264
0.4320001,4.90594E-05
0.4310001,-0.0001306804
0.4300001,-0.0002941932
0.4290001,-0.0004570518
0.4280001,-0.000620442
0.4270001,-0.0007737162
0.4260001,-0.0009303623
0.4250001,-0.001082717
0.4240001,-0.001230473
0.4230001,-0.001379149
0.4220001,-0.001524146
0.4210001,-0.001665772
0.4200001,-0.00180709
0.4190001,-0.001943504
0.4180001,-0.002082677
0.4170001,-0.002216332
0.4160001,-0.002349374
0.4150001,-0.002485788
0.4140001,-0.002615151
0.4130001,-0.002746967
0.4120001,-0.002879703
0.4110001,-0.003004468
0.4100001,-0.003105217
0.4090001,-0.003243164
0.4080001,-0.003365783
0.4070001,-0.003497599
0.4060001,-0.003623284
0.4050001,-0.003752034
0.4040001,-0.00388385
0.4030001,-0.0040126
0.4020001,-0.004147481
0.4010001,-0.004279297
0.4000001,-0.004411113
0.3990001,-0.00454906
0.3980001,-0.004680875
0.3970001,-0.004821887
0.3960001,-0.0049629
0.3950001,-0.005094715
0.3940001,-0.005235727
0.3930001,-0.005379805
0.3920001,-0.005520817
0.3910001,-0.005664895
0.3900001,-0.005812038
0.3890001,-0.005956116
0.3880001,-0.006103259
0.3870001,-0.006247337
0.3860001,-0.006397545
0.3850001,-0.006544688
0.3840001,-0.006691832
0.3830001,-0.00684204
0.3820001,-0.006989183
0.3810001,-0.007145523
0.3800001,-0.007295732
0.3790001,-0.007442875
0.3780001,-0.007599215
0.3770001,-0.007746358
0.3760001,-0.007896566
0.3750001,-0.008055971
0.3740001,-0.008200049
0.3730001,-0.008356389
0.3720001,-0.008512728
0.3710001,-0.008656806
0.3700001,-0.008816211
0.3690001,-0.008969485
0.3680001,-0.009116628
0.3670001,-0.009272968
0.3660001,-0.009423177
0.3650001,-0.009570319
0.3640001,-0.009729725
0.3630001,-0.009876868
0.3620001,-0.01002401
0.3610001,-0.01017422
0.3600001,-0.01032443
0.3590001,-0.01046851
0.3580001,-0.01061258
0.3570001,-0.01075973
0.3560001,-0.01089767
0.3550001,-0.01103562
0.3540001,-0.0111797
0.3530001,-0.01130538
0.3520001,-0.01144026
0.3510001,-0.01156901
0.3500001,-0.01168244
0.3490001,-0.01180506
0.3480001,-0.01192154
0.3470001,-0.01202271
0.3460001,-0.01213
0.3450001,-0.01223116
0.3440001,-0.01231699
0.3430001,-0.01240589
0.3420001,-0.01248253
0.3410001,-0.0125469
0.3400001,-0.01261741
0.3390001,-0.01266646
0.3380001,-0.01271551
0.3370001,-0.01275536
0.3360001,-0.01277988
0.3350001,-0.0128044
0.3340001,-0.0128136
0.3330001,-0.01281053
0.3320001,-0.01280747
0.3310001,-0.01278908
0.3300001,-0.01275842
0.3290001,-0.01272164
0.3280001,-0.01267565
0.3270001,-0.01261434
0.3260001,-0.01254384
0.3250001,-0.0124672
0.3240001,-0.0123783
0.3230001,-0.01227101
0.3220001,-0.01215146
0.3210001,-0.01201657
0.3200001,-0.01186943
0.3190001,-0.01170696
0.3180001,-0.01152303
0.3170001,-0.01133297
0.3160001,-0.01111532
0.3150001,-0.01087928
0.3140001,-0.01063098
0.3130001,-0.01035815
0.3120001,-0.01006693
0.3110001,-0.00976038
0.3100001,-0.009435439
0.3090001,-0.009092105
0.3080001,-0.00874877
0.3070001,-0.008390109
0.3060001,-0.008028382
0.3050001,-0.007672786
0.3040001,-0.007314125
0.3030001,-0.006979987
0.3020001,-0.006658111
0.3010001,-0.006348498
0.3000001,-0.006066473
0.2990001,-0.00579671
0.2980001,-0.005551472
0.2970001,-0.005318495
0.2960001,-0.005106977
0.2950001,-0.004910786
0.2940001,-0.004726857
0.2930001,-0.004558256
0.2920001,-0.004395785
0.2910001,-0.004248642
0.2900001,-0.00410763
0.2890001,-0.003972749
0.2880001,-0.003850129
0.2870001,-0.003730575
0.2860001,-0.003617153
0.2850001,-0.003512926
0.2840001,-0.003411765
0.2830001,-0.003316735
0.2820001,-0.003230902
0.2810001,-0.003145068
0.2800001,-0.003068431
0.2790001,-0.00299486
0.2780001,-0.002927419
0.2770001,-0.002859978
0.2760001,-0.002798669
0.2750001,-0.002740425
0.2740001,-0.002685246
0.2730001,-0.002630068
0.2720001,-0.002577954
0.2710001,-0.002528906
0.2700001,-0.002482924
0.2690001,-0.002436942
0.2680001,-0.002394025
0.2670001,-0.002351108
0.2660001,-0.002311257
0.2650001,-0.002271406
0.2640001,-0.00223462
0.2630001,-0.002197834
0.2620001,-0.002161048
0.2610001,-0.002127328
0.2600001,-0.002093608
0.2590001,-0.002062953
0.2580001,-0.002032298
0.2570001,-0.002001643
0.2560001,-0.001970988
0.2550001,-0.001943399
0.2540001,-0.00191581
0.2530001,-0.00188822
0.2520001,-0.001863697
0.2510001,-0.001836107
0.2500001,-0.001811583
0.2490001,-0.00178706
0.2480001,-0.001765601
0.2470001,-0.001741077
0.2460001,-0.001719619
0.2450001,-0.001698161
0.2440001,-0.001676702
0.2430001,-0.001655244
0.2420001,-0.001633785
0.2410001,-0.001615393
0.2400001,-0.001632358
0.2390001,-0.001613659
0.2380001,-0.001594653
0.2370001,-0.001576566
0.2360001,-0.001558786
0.2350001,-0.001541313
0.2340001,-0.001524453
0.2330001,-0.001507593
0.2320001,-0.001491039
0.2310001,-0.001475099
0.2300001,-0.001459158
0.2290001,-0.001443831
0.2280001,-0.001428503
0.2270001,-0.001413482
0.2260001,-0.001399075
0.2250001,-0.001384974
0.2240001,-0.001370566
0.2230001,-0.001357078
0.2220001,-0.001343283
0.2210001,-0.001329795
0.2200001,-0.00131692
0.2190001,-0.001304045
0.2180001,-0.001291476
0.2170001,-0.001279214
0.2160001,-0.001266952
0.2150001,-0.001254997
0.2140001,-0.001243042
0.2130001,-0.001231699
0.2120001,-0.001220357
0.2110001,-0.001209321
0.2100001,-0.001198592
0.2090001,-0.001187556
0.2080001,-0.001176827
0.2070001,-0.001166405
0.2060001,-0.001156288
0.2050001,-0.001146172
0.2040001,-0.001136363
0.2030001,-0.001126247
0.2020001,-0.001116437
0.2010001,-0.001106934
0.2000001,-0.001097431
0.1990001,-0.001088235
0.1980001,-0.001079038
0.1970001,-0.001070148
0.1960001,-0.001061565
0.1950001,-0.001052675
0.1940001,-0.001044092
0.1930001,-0.001035815
0.1920001,-0.001027538
0.1910001,-0.001019261
0.1900001,-0.001011291
0.1890001,-0.001003014
0.1880001,-0.0009953505
0.1870001,-0.0009876869
0.1860001,-0.0009800232
0.1850001,-0.0009723594
0.1840001,-0.0009650023
0.1830001,-0.0009576452
0.1820001,-0.000950288
0.1810001,-0.0009432373
0.1800001,-0.0009361868
0.1790001,-0.0009288296
0.1780001,-0.0009220855
0.1770001,-0.0009153415
0.1760001,-0.0009085974
0.1750001,-0.0009021599
0.1740001,-0.0008954158
0.1730001,-0.0008889784
0.1720001,-0.0008828474
0.1710001,-0.0008764099
0.1700001,-0.0008702789
0.1690001,-0.0008641479
0.1680001,-0.000858017
0.1670001,-0.0008521925
0.1660001,-0.0008463681
0.1650001,-0.0008405437
0.1640001,-0.0008347193
0.1630001,-0.0008288948
0.1620001,-0.0008230705
0.1610001,-0.0008178591
0.1600001,-0.0008123412
0.1590001,-0.0008068234
0.1580001,-0.000801612
0.1570001,-0.0007960942
0.1560001,-0.0007908829
0.1550001,-0.0007856716
0.1540001,-0.0007807668
0.1530001,-0.0007755554
0.1520001,-0.0007706507
0.1510001,-0.0007657459
0.1500001,-0.0007608412
0.1490001,-0.0007559364
0.1480001,-0.0007513381
0.1470001,-0.0007464333
0.1460001,-0.0007418352
0.1450001,-0.0007372369
0.1440001,-0.0007326387
0.1430001,-0.0007280405
0.1420001,-0.0007237488
0.1410001,-0.0007191506
0.1400001,-0.0007148589
0.1390001,-0.0007105672
0.1380001,-0.000705969
0.1370001,-0.0007019839
0.1360001,-0.0006976922
0.1350001,-0.0006937071
0.1340001,-0.0006897219
0.1330001,-0.0006854302
0.1320001,-0.0006814452
0.1310001,-0.00067746
0.1300001,-0.0006737814
0.1290001,-0.0006697963
0.1280001,-0.0006658112
0.1270001,-0.0006621326
0.1260001,-0.0006581475
0.1250001,-0.0006544688
0.1240001,-0.0006510969
0.1230001,-0.0006471117
0.1220001,-0.0006437397
0.1210001,-0.0006400611
0.1200001,-0.0006363826
0.1190001,-0.0006330105
0.1180001,-0.0006296384
0.1170001,-0.0006262665
0.1160001,-0.0006225879
0.1150001,-0.0006192158
0.1140001,-0.0006158438
0.1130001,-0.0006127784
0.1120001,-0.0006094063
0.1110001,-0.0006060342
0.1100001,-0.0006029688
0.1090001,-0.0005999033
0.1080001,-0.0005965313
0.1070001,-0.0005934658
0.1060001,-0.0005904003
0.1050001,-0.0005876414
0.1040001,-0.0005842693
0.1030001,-0.0005815104
0.1020001,-0.0005784449
0.1010001,-0.0005753795
0.1000001,-0.0005726205
0.0990001,-0.0005698616
0.09800009,-0.0005667961
0.09700009,-0.0005640372
0.0960001,-0.0005612782
0.0950001,-0.0005585193
0.09400009,-0.0005557603
0.0930001,-0.0005530014
0.0920001,-0.0005502424
0.0910001,-0.0005474835
0.09000009,-0.0005450312
0.0890001,-0.0005422722
0.0880001,-0.0005398199
0.08700009,-0.0005373674
0.08600009,-0.0005346085
0.0850001,-0.0005318496
0.0840001,-0.0005293972
0.08300009,-0.0005269448
0.08200009,-0.0005244924
0.0810001,-0.00052204
0.0800001,-0.0005192811
0.07900009,-0.0005171353
0.0780001,-0.0005146828
0.0770001,-0.0005122305
0.07600009,-0.0005100847
0.07500009,-0.0005076323
0.0740001,-0.0005051799
0.0730001,-0.000503034
0.07200009,-0.0005005816
0.07100009,-0.0004984358
0.0700001,-0.00049629
0.0690001,-0.0004941442
0.06800009,-0.0004919983
0.0670001,-0.0004895459
0.0660001,-0.0004874001
0.06500009,-0.0004852542
0.06400009,-0.0004831084
0.0630001,-0.0004809626
0.0620001,-0.0004788167
0.06100009,-0.0004766709
0.0600001,-0.0004748316
0.0590001,-0.0004726858
0.0580001,-0.0004708465
0.0570001,-0.0004687006
0.05600009,-0.0004668614
0.0550001,-0.0004650221
0.05400009,-0.0004628762
0.0530001,-0.000461037
0.05200009,-0.0004591976
0.0510001,-0.0004573583
0.05000009,-0.0004555191
0.0490001,-0.0004536798
0.04800009,-0.0004518405
0.0470001,-0.0004500012
0.0460001,-0.0004481619
0.04500009,-0.0004463226
0.0440001,-0.0004444833
0.04300009,-0.000442644
0.0420001,-0.0004411113
0.04100009,-0.000439272
0.0400001,-0.0004374327
0.03900009,-0.0004355934
0.0380001,-0.0004340607
0.03700009,-0.0004322214
0.0360001,-0.0004306886
0.0350001,-0.0004288494
0.03400009,-0.0004273166
0.0330001,-0.0004257839
0.03200009,-0.0004239446
0.03100009,-0.0004224119
0.0300001,-0.0004208791
0.0290001,-0.0004193464
0.0280001,-0.0004178136
0.0270001,-0.0004159743
0.0260001,-0.0004144416
0.0250001,-0.0004129088
0.0240001,-0.0004110696
0.0230001,-0.0004095368
0.02200009,-0.0004083106
0.02100009,-0.0004067779
0.02000009,-0.0004052451
0.0190001,-0.0004037124
0.0180001,-0.0004024862
0.0170001,-0.0004009535
0.0160001,-0.0003997273
0.0150001,-0.0003981945
0.0140001,-0.0003966618
0.0130001,-0.0003951291
0.0120001,-0.0003939029
0.01100009,-0.0003923701
0.0100001,-0.0003911439
0.009000096,-0.0003896112
0.008000095,-0.0003880784
0.007000095,-0.0003868522
0.006000096,-0.0003856261
0.005000095,-0.0003840933
0.004000095,-0.0003828671
0.003000095,-0.0003816409
0.002000095,-0.0003804147
0.001000095,-0.000378882
9.536743E-08,-0.0003739772
0.0009999046,-0.0003657004
0.001999905,-0.0003586498
0.002999905,-0.0003522123
0.003999905,-0.0003460813
0.004999904,-0.0003405634
0.005999905,-0.0003350456
0.006999905,-0.0003298343
0.007999904,-0.0003249295
0.008999905,-0.0003203313
0.009999905,-0.0003157331
0.0109999,-0.0003114414
0.0119999,-0.0003074562
0.0129999,-0.0003034711
0.0139999,-0.0002997925
0.0149999,-0.0002958074
0.0159999,-0.0002924354
0.0169999,-0.0002887568
0.0179999,-0.0002853848
0.0189999,-0.0002823193
0.0199999,-0.0002789472
0.0209999,-0.0002758818
0.0219999,-0.0002728163
0.02299991,-0.0002697508
0.02399991,-0.0002669919
0.02499991,-0.0002639264
0.02599991,-0.000261474
0.0269999,-0.0002587151
0.0279999,-0.0002559561
0.0289999,-0.0002531972
0.0299999,-0.0002507448
0.0309999,-0.0002482924
0.0319999,-0.00024584
0.0329999,-0.0002433877
0.0339999,-0.0002409353
0.0349999,-0.0002387894
0.03599991,-0.000236337
0.0369999,-0.0002341912
0.03799991,-0.0002320454
0.0389999,-0.0002298995
0.03999991,-0.0002277537
0.0409999,-0.0002256079
0.04199991,-0.000223462
0.0429999,-0.0002213162
0.0439999,-0.0002191703
0.0449999,-0.000217331
0.0459999,-0.0002154918
0.04699991,-0.0002133459
0.0479999,-0.0002115066
0.04899991,-0.0002096674
0.0499999,-0.0002078281
0.05099991,-0.0002059888
0.0519999,-0.0002041495
0.05299991,-0.0002023102
0.0539999,-0.0002004709
0.0549999,-0.0001989382
0.0559999,-0.0001970989
0.0569999,-0.0001955661
0.05799991,-0.0001937268
0.0589999,-0.0001921941
0.05999991,-0.0001906613
0.0609999,-0.0001888221
0.06199991,-0.0001872893
0.0629999,-0.0001857566
0.06399991,-0.0001842238
0.06499991,-0.0001826911
0.0659999,-0.0001811584
0.0669999,-0.0001796256
0.06799991,-0.0001780929
0.0689999,-0.0001765601
0.0699999,-0.0001753339
0.07099991,-0.0001738012
0.07199991,-0.0001722685
0.0729999,-0.0001710423
0.0739999,-0.0001695095
0.07499991,-0.0001682833
0.07599991,-0.0001667506
0.0769999,-0.0001652178
0.0779999,-0.0001639917
0.07899991,-0.0001627655
0.0799999,-0.0001612327
0.0809999,-0.0001600065
0.08199991,-0.0001622548
0.08299991,-0.0001609673
0.0839999,-0.0001597105
0.0849999,-0.000158423
0.08599991,-0.0001571661
0.08699991,-0.0001560012
0.0879999,-0.0001547444
0.0889999,-0.0001535182
0.08999991,-0.0001523227
0.0909999,-0.0001511271
0.0919999,-0.0001499316
0.09299991,-0.0001487974
0.09399991,-0.0001475712
0.0949999,-0.0001463756
0.0959999,-0.0001452108
0.09699991,-0.0001440765
0.09799991,-0.0001429729
0.0989999,-0.0001418694
0.0999999,-0.0001407965
0.1009999,-0.0001396929
0.1019999,-0.0001385587
0.1029999,-0.0001374857
0.1039999,-0.0001365354
0.1049999,-0.0001354319
0.1059999,-0.0001343283
0.1069999,-0.000133378
0.1079999,-0.0001323357
0.1089999,-0.0001312935
0.1099999,-0.0001303432
0.1109999,-0.0001292396
0.1119999,-0.0001281973
0.1129999,-0.0001271857
0.1139999,-0.0001262354
0.1149999,-0.0001251625
0.1159999,-0.0001242735
0.1169999,-0.0001233539
0.1179999,-0.0001224036
0.1189999,-0.0001214533
0.1199999,-0.0001205949
0.1209999,-0.0001196446
0.1219999,-0.0001186637
0.1229999,-0.000117836
0.1239999,-0.0001168244
0.1249999,-0.0001159354
0.1259999,-0.0001149544
0.1269999,-0.0001140348
0.1279999,-0.0001132071
0.1289999,-0.0001123488
0.1299999,-0.0001113985
0.1309999,-0.0001105708
0.1319999,-0.0001096818
0.1329999,-0.0001088541
0.1339999,-0.0001080264
0.1349999,-0.0001071988
0.1359999,-0.000106463
0.1369999,-0.0001056354
0.1379999,-0.000104777
0.1389999,-0.0001039187
0.1399999,-0.000103091
0.1409999,-0.0001022633
0.1419999,-0.0001014357
0.1429999,-0.0001005773
0.1439999,-9.987225E-05
0.1449999,-9.907522E-05
0.1459999,-9.830886E-05
0.1469999,-9.757314E-05
0.1479999,-9.674546E-05
0.1489999,-9.607105E-05
0.1499999,-9.533534E-05
0.1509999,-9.463028E-05
0.1519999,-9.389456E-05
0.1529999,-9.312819E-05
0.1539999,-9.236182E-05
0.1549999,-9.165676E-05
0.1559999,-9.089039E-05
0.1569999,-9.015467E-05
0.1579999,-8.941896E-05
0.1589999,-8.865258E-05
0.1599999,-8.788622E-05
0.1609999,-8.721181E-05
0.1619999,-8.650675E-05
0.1629999,-8.583234E-05
0.1639999,-8.512728E-05
0.1649999,-8.448353E-05
0.1659999,-8.380912E-05
0.1669999,-8.310407E-05
0.1679999,-8.252162E-05
0.1689999,-8.184722E-05
0.1699999,-8.123412E-05
0.1709999,-8.059036E-05
0.1719999,-7.988531E-05
0.1729999,-7.92109E-05
0.1739999,-7.85365E-05
0.1749999,-7.783144E-05
0.1759999,-7.718769E-05
0.1769999,-7.654393E-05
0.1779999,-7.599215E-05
0.1789999,-7.537904E-05
0.1799999,-7.476595E-05
0.1809999,-7.418351E-05
0.1819999,-7.363172E-05
0.1829999,-7.295731E-05
0.1839999,-7.243618E-05
0.1849999,-7.182309E-05
0.1859999,-7.120999E-05
0.1869999,-7.059689E-05
0.1879999,-6.992248E-05
0.1889999,-6.93094E-05
0.1899999,-6.87576E-05
0.1909999,-6.817516E-05
0.1919999,-6.759272E-05
0.1929999,-6.704094E-05
0.1939999,-6.645849E-05
0.1949999,-6.590671E-05
0.1959999,-6.538557E-05
0.1969999,-6.486444E-05
0.1979999,-6.434331E-05
0.1989999,-6.373021E-05
0.1999999,-6.317843E-05
0.2009999,-6.256533E-05
0.2019999,-6.195223E-05
0.2029999,-6.146176E-05
0.2039999,-6.087931E-05
0.2049999,-6.041949E-05
0.2059999,-5.983705E-05
0.2069999,-5.934657E-05
0.2079999,-5.88561E-05
0.2089999,-5.839627E-05
0.2099999,-5.781384E-05
0.2109999,-5.732335E-05
0.2119999,-5.677157E-05
0.2129999,-5.625044E-05
0.2139999,-5.5668E-05
0.2149999,-5.511621E-05
0.2159999,-5.462573E-05
0.2169999,-5.41046E-05
0.2179999,-5.364477E-05
0.2189999,-5.318495E-05
0.2199999,-5.263316E-05
0.2209999,-5.2204E-05
0.2219999,-5.180549E-05
0.2229999,-5.12537E-05
0.2239999,-5.079388E-05
0.2249999,-5.027275E-05
0.2259999,-4.972096E-05
0.2269999,-4.926114E-05
0.2279999,-4.874E-05
0.2289999,-4.824953E-05
0.2299999,-4.782036E-05
0.2309999,-4.739119E-05
0.2319999,-4.693137E-05
0.2329999,-4.65022E-05
0.2339999,-4.604238E-05
0.2349999,-4.561321E-05
0.2359999,-4.515339E-05
0.2369999,-4.466291E-05
0.2379999,-4.423374E-05
0.2389999,-4.371261E-05
0.2399999,-4.319148E-05
0.2409999,-4.273166E-05
0.2419999,-4.227184E-05
0.2429999,-4.187332E-05
0.2439999,-4.138285E-05
0.2449999,-4.098433E-05
0.2459999,-4.055517E-05
0.2469999,-4.006469E-05
0.2479999,-3.966617E-05
0.2489999,-3.920636E-05
0.2499999,-3.877719E-05
0.2509999,-3.840933E-05
0.2519999,-3.798016E-05
0.2529999,-3.752034E-05
0.2539999,-3.718313E-05
0.2549999,-3.663135E-05
0.2559999,-3.623284E-05
0.2569999,-3.583432E-05
0.2579999,-3.540516E-05
0.2589999,-3.497599E-05
0.2599999,-3.451617E-05
0.2609999,-3.405634E-05
0.2619999,-3.371914E-05
0.2629999,-3.322866E-05
0.2639999,-3.286081E-05
0.2649999,-3.243164E-05
0.2659999,-3.200247E-05
0.2669999,-3.157331E-05
0.2679999,-3.108283E-05
0.2689999,-3.068431E-05
0.2699999,-3.031645E-05
0.2709999,-2.979532E-05
0.2719999,-2.936616E-05
0.2729999,-2.89983E-05
0.2739999,-2.853847E-05
0.2749999,-2.807865E-05
0.2759999,-2.771079E-05
0.2769999,-2.725097E-05
0.2779999,-2.685246E-05
0.2789999,-2.645395E-05
0.2799999,-2.602478E-05
0.2809999,-2.559561E-05
0.2819999,-2.51971E-05
0.2829999,-2.479859E-05
0.2839999,-2.440007E-05
0.2849999,-2.397091E-05
0.2859999,-2.360305E-05
0.2869999,-2.320453E-05
0.2879999,-2.277537E-05
0.2889999,-2.23462E-05
0.2899999,-2.188638E-05
0.2909999,-2.151852E-05
0.2919999,-2.10587E-05
0.2929999,-2.056822E-05
0.2939999,-2.013905E-05
0.2949999,-1.961792E-05
0.2959999,-1.918875E-05
0.2969999,-1.875959E-05
0.2979999,-1.829976E-05
0.2989999,-1.78706E-05
0.2999999,-1.744143E-05
0.3009999,-1.69816E-05
0.3019999,-1.655244E-05
0.3029999,-1.609262E-05
0.3039999,-1.563279E-05
0.3049999,-1.523428E-05
0.3059999,-1.480511E-05
0.3069999,-1.434529E-05
0.3079999,-1.382416E-05
0.3089999,-1.364128E-05
0.3099999,-1.314774E-05
0.3109999,-1.262661E-05
0.3119999,-1.213306E-05
0.3129999,-1.167324E-05
0.3139999,-1.114904E-05
0.3149999,-1.072907E-05
0.3159999,-1.020488E-05
0.3169999,-9.726659E-06
0.3179999,-9.312819E-06
0.3189999,-8.718115E-06
0.3199999,-8.270555E-06
0.3209999,-7.691178E-06
0.3219999,-7.078082E-06
0.3229999,-6.449658E-06
0.3239999,-5.851889E-06
0.3249999,-5.395133E-06
0.3259999,-4.788167E-06
0.3269999,-4.187332E-06
0.3279999,-3.595694E-06
0.3289999,-3.053104E-06
0.3299999,-2.443073E-06
0.3309999,-1.88822E-06
0.3319999,-1.161701E-06
0.3329999,-5.087534E-07
0.3339999,1.840457E-07
0.3349999,9.197615E-07
0.3359999,1.630954E-06
0.3369999,2.237919E-06
0.3379999,3.028814E-06
0.3389999,3.70322E-06
0.3399999,4.451197E-06
0.3409999,5.226765E-06
0.3419999,5.983939E-06
0.3429999,6.866798E-06
0.3439999,7.758853E-06
0.3449999,8.733677E-06
0.3459999,9.656386E-06
0.3469999,1.055764E-05
0.3479999,1.1511E-05
0.3489999,1.257166E-05
0.3499999,1.356488E-05
0.3509999,1.462553E-05
0.3519999,1.571685E-05
0.3529999,1.695223E-05
0.3539999,1.829492E-05
0.3549999,1.961001E-05
0.3559999,2.10937E-05
0.3569999,2.25682E-05
0.3579999,2.415612E-05
0.3589999,2.588199E-05
0.3599999,2.820361E-05
0.3609999,3.025748E-05
0.3619999,3.258725E-05
0.3629999,3.528487E-05
0.3639999,3.847297E-05
0.3649999,4.1845E-05
0.3659999,4.576882E-05
0.3669999,5.036705E-05
0.3679999,5.570098E-05
0.3689999,6.229177E-05
0.3699999,7.053792E-05
0.3709999,8.05927E-05
0.3719999,9.334511E-05
0.3729999,0.0001091936
0.3739999,0.0001291806
0.3749999,0.0001540417
0.3759999,0.0001837462
0.3769999,0.0002192138
0.3779999,0.0002604446
0.3789999,0.0003073465
0.3799999,0.0003638845
0.3809999,0.0004230483
0.3819999,0.0004883431
0.3829999,0.0005597688
0.3839999,0.0006367125
0.3849999,0.0007210132
0.3859999,0.0008105253
0.3869999,0.0009052487
0.3879999,0.001005183
0.3889999,0.001108184
0.3899999,0.001216089
0.3909999,0.001326446
0.3919999,0.001438336
0.3929999,0.001552679
0.3939999,0.001667021
0.3949999,0.001780751
0.3959999,0.00189448
0.3969999,0.002006677
0.3979999,0.002116727
0.3989999,0.002223406
0.3999999,0.002325793
0.4009999,0.002426954
0.4019999,0.002522597
0.4029999,0.002616708
0.4039999,0.002709592
0.4049999,0.002795425
0.4059999,0.002881259
0.4069999,0.002966786
0.4079999,0.003074796
0.4089999,0.003160629
0.4099999,0.003243397
0.4109999,0.0033231
0.4119999,0.003405868
0.4129999,0.003482505
0.4139999,0.003562207
0.4149999,0.003644975
0.4159999,0.003724678
0.4169999,0.003810511
0.4179999,0.00389328
0.4189999,0.003976048
0.4199999,0.004061881
0.4209999,0.00415078
0.4219999,0.004236614
0.4229999,0.004328578
0.4239999,0.004417477
0.4249999,0.004509442
0.4259999,0.004607537
0.4269999,0.004702567
0.4279999,0.004800662
0.4289999,0.004901823
0.4299999,0.005002984
0.4309999,0.005107211
0.4319999,0.005211437
0.4329999,0.00532486
0.4339999,0.005435218
0.4349999,0.00554864
0.4359999,0.005668194
0.4369999,0.005784682
0.4379999,0.005910367
0.4389999,0.006032987
0.4399999,0.006161737
0.4409999,0.006296618
0.4419999,0.006431499
0.4429999,0.006569446
0.4439999,0.006713524
0.4449999,0.006857601
0.4459999,0.00700781
0.4469999,0.007161084
0.4479999,0.007317424
0.4489999,0.007482959
0.4499999,0.007648496
0.4509999,0.007817097
0.4519999,0.007997961
0.4529999,0.008169628
0.4539999,0.008353557
0.4549999,0.008546682
0.4559999,0.008730611
0.4569999,0.008932933
0.4579999,0.00913832
0.4589999,0.009343707
0.4599999,0.009561357
0.4609999,0.009782071
0.4619999,0.01000279
0.4629999,0.01023576
0.4639999,0.01046567
0.4649999,0.01070478
0.4659999,0.01095309
0.4669999,0.01120139
0.4679999,0.01145889
0.4689999,0.01172252
0.4699999,0.01198615
0.4709999,0.01226205
0.4719999,0.01253794
0.4729999,0.01281996
0.4739999,0.01310812
0.4749999,0.01340241
0.4759999,0.01370589
0.4769999,0.01400324
0.4779999,0.01431592
0.4789999,0.0146286
0.4799999,0.01494434
0.4809999,0.01527235
0.4819999,0.01559423
0.4829999,0.0159253
0.4839999,0.0162625
0.4849999,0.01659664
0.4859999,0.0169461
0.4869999,0.0172925
0.4879999,0.0176389
0.4889999,0.01800063
0.4899999,0.01835929
0.4909999,0.01871182
0.4919999,0.01908581
0.4929999,0.0194506
0.4939999,0.01981846
0.4949999,0.02020165
0.4959999,0.02056951
0.4969999,0.02095269
0.4979999,0.02133894
0.4989999,0.02171293
0.4999999,0.02210225
0.5009999,0.0224885
0.5019999,0.02287168
0.5029999,0.02326406
0.5039999,0.02365645
0.5049999,0.02404576
0.5059999,0.02444427
0.5069999,0.02483666
0.5079999,0.02522904
0.5089999,0.02562755
0.5099999,0.02601993
0.5109999,0.02642151
0.5119999,0.02682922
0.5129999,0.02722773
0.5139999,0.02762625
0.5149999,0.02803089
0.5159999,0.02843553
0.5169999,0.02883405
0.5179999,0.02924482
0.5189999,0.02964027
0.5199999,0.03004798
0.5209999,0.03120778
0.5219999,0.03160629
0.5229999,0.03203546
0.5239999,0.03243398
0.5249999,0.03283248
0.5259999,0.03326165
0.5269999,0.03369082
0.5279999,0.03408933
0.5289999,0.03448785
0.5299999,0.03491702
0.5309999,0.03531553
0.5319999,0.03571404
0.5329999,0.03614321
0.5339999,0.03654172
0.5349999,0.03697089
0.5359999,0.0373694
0.5369999,0.03779857
0.5379999,0.03822774
0.5389999,0.0386569
0.5399999,0.03905542
0.5409999,0.03945393
0.5419999,0.0398831
0.5429999,0.04031226
0.5439999,0.04071078
0.5449999,0.04113995
0.5459999,0.04156911
0.5469999,0.04196763
0.5479999,0.0423968
0.5489999,0.04282596
0.5499999,0.04325513
0.5509999,0.04365364
0.5519999,0.04405215
0.5529999,0.04451197
0.5539999,0.04491049
0.5549999,0.04533966
0.5559999,0.04576882
0.5569999,0.04619799
0.5579999,0.04662716
0.5589999,0.04705633
0.5599999,0.04748549
0.5609999,0.04788401
0.5619999,0.04834383
0.5629999,0.04874234
0.5639999,0.04917151
0.5649999,0.04960068
0.5659999,0.04999919
0.5669999,0.05045901
0.5679999,0.05088818
0.5689999,0.05131735
0.5699999,0.05174651
0.5709999,0.05217568
0.5719999,0.05260485
0.5729999,0.05303402
0.5739999,0.05346319
0.5749999,0.05389235
0.5759999,0.05435218
0.5769999,0.05478134
0.5779999,0.05521051
0.5789999,0.05567033
0.5799999,0.0560995
0.5809999,0.05652867
0.5819999,0.05695784
0.5829999,0.05741766
0.5839999,0.05784683
0.5849999,0.05830665
0.5859999,0.05873581
0.5869999,0.05916498
0.5879999,0.0596248
0.5889999,0.06005397
0.5899999,0.06048314
0.5909999,0.06094296
0.5919999,0.06137213
0.5929999,0.0618013
0.5939999,0.06226112
0.5949999,0.06272095
0.5959999,0.06315011
0.5969999,0.06360994
0.5979999,0.06406976
0.5989999,0.06449892
0.5999999,0.06492809
0.6009999,0.06538791
0.6019999,0.06581708
0.6029999,0.0662769
0.6039999,0.06673672
0.6049999,0.06719655
0.6059999,0.06762572
0.6069999,0.06805488
0.6079999,0.0685147
0.6089999,0.06897452
0.6099999,0.0694037
0.6109999,0.06989417
0.6119999,0.07035399
0.6129999,0.07078316
0.6139999,0.07127364
0.6149999,0.07173347
0.6159999,0.07216263
0.6169999,0.07265311
0.6179999,0.07308228
0.6189999,0.07351144
0.6199999,0.07400192
0.6209999,0.07443108
0.6219999,0.0748909
0.6229999,0.07535073
0.6239999,0.07581055
0.6249999,0.07627037
0.6259999,0.0767302
0.6269999,0.07719002
0.6279999,0.07764985
0.6289999,0.07810967
0.6299999,0.07856949
0.6309999,0.07899866
0.6319999,0.07945848
0.6329999,0.0799183
0.6339999,0.08037812
0.6349999,0.08086859
0.6359999,0.08129777
0.6369999,0.08175759
0.6379999,0.08221742
0.6389999,0.08267724
0.6399999,0.08313706
0.6409999,0.08359688
0.6419999,0.0840567
0.6429999,0.08451653
0.6439999,0.08497635
0.6449999,0.08543617
0.6459999,0.08589599
0.6469999,0.08638646
0.6479999,0.08681564
0.6489999,0.08730611
0.6499999,0.08776593
0.6509999,0.08819511
0.6519999,0.08868558
0.6529999,0.08914541
0.6539999,0.08960523
0.6549999,0.09006505
0.6559999,0.09052487
0.6569999,0.09101535
0.6579999,0.09147517
0.6589999,0.09193499
0.6599999,0.09242547
0.6609999,0.09288529
0.6619999,0.09334511
0.6629999,0.09383559
0.6639999,0.09429541
0.6649999,0.09472458
0.6659999,0.09521506
0.6669999,0.09567488
0.6679999,0.09616536
0.6689999,0.09662518
0.6699999,0.097085
0.6709999,0.09757548
0.6719999,0.0980353
0.6729999,0.09846447
0.6739999,0.09895495
0.6749999,0.09941477
0.6759999,0.09984394
0.6769999,0.1003651
0.6779999,0.1008249
0.6789999,0.1012847
0.6799999,0.1017445
0.6809999,0.102235
0.6819999,0.1026642
0.6829999,0.1031547
0.6839999,0.1036451
0.6849999,0.104105
0.6859999,0.1045648
0.6869999,0.1050246
0.6879999,0.1055151
0.6889999,0.1059749
0.6899999,0.1064347
0.6909999,0.1069252
0.6919999,0.107385
0.6929999,0.1078448
0.6939999,0.108366
0.6949999,0.1088258
0.6959999,0.1092856
0.6969999,0.1097761
0.6979999,0.1102359
0.6989999,0.1106957
0.6999999,0.110849
0.6990002,0.1103585
0.6980002,0.1098681
0.6970002,0.1094082
0.6960002,0.1089178
0.6950002,0.1084273
0.6940002,0.1079675
0.6930002,0.1074463
0.6920002,0.1069865
0.6910002,0.1065267
0.6900002,0.1060362
0.6890002,0.1055457
0.6880002,0.1050859
0.6870002,0.1045954
0.6860002,0.1041356
0.6850002,0.1036758
0.6840002,0.1031853
0.6830002,0.1027255
0.6820002,0.1022657
0.6810002,0.1017752
0.6800002,0.1012847
0.6790002,0.1008249
0.6780002,0.1003038
0.6770002,0.09984394
0.6760002,0.09938411
0.6750002,0.09889363
0.6740002,0.09843381
0.6730002,0.09797399
0.6720002,0.09748352
0.6710002,0.09702369
0.6700002,0.09653322
0.6690002,0.09604274
0.6680002,0.09558292
0.6670002,0.09515375
0.6660002,0.09463262
0.6650002,0.0941728
0.6640002,0.09371297
0.6630002,0.09322249
0.6620002,0.09276267
0.6610002,0.09227219
0.6600002,0.09178172
0.6590002,0.09132189
0.6580002,0.09086207
0.6570002,0.09040225
0.6560002,0.08994243
0.6550002,0.08945195
0.6540002,0.08899213
0.6530002,0.08853231
0.6520002,0.08804183
0.6510002,0.08758201
0.6500002,0.08712219
0.6490002,0.08663171
0.6480002,0.08617189
0.6470002,0.08574272
0.6460002,0.08522158
0.6450002,0.08476176
0.6440002,0.08430194
0.6430002,0.08381146
0.6420002,0.08335164
0.6410002,0.08289181
0.6400002,0.08240134
0.6390002,0.08194152
0.6380002,0.0814817
0.6370002,0.08102188
0.6360002,0.08056205
0.6350002,0.08010223
0.6340002,0.07964241
0.6330002,0.07918259
0.6320002,0.07872277
0.6310002,0.07823228
0.6300002,0.07777246
0.6290002,0.07731264
0.6280002,0.07682216
0.6270002,0.076393
0.6260002,0.07593317
0.6250002,0.07544269
0.6240002,0.07501353
0.6230002,0.07455371
0.6220002,0.07406323
0.6210002,0.07360341
0.6200002,0.07314359
0.6190002,0.07268376
0.6180002,0.07222394
0.6170002,0.07176412
0.6160002,0.07130429
0.6150002,0.07084447
0.6140002,0.07038464
0.6130002,0.06989417
0.6120002,0.069465
0.6110002,0.06897452
0.6100002,0.0685147
0.6090002,0.06808554
0.6080002,0.06762572
0.6070002,0.0671659
0.6060002,0.06670607
0.6050002,0.06624625
0.6040002,0.06578642
0.6030002,0.0653266
0.6020002,0.06486678
0.6010002,0.06443761
0.6000002,0.06397779
0.5990002,0.06351797
0.5980002,0.0630888
0.5970002,0.06262898
0.5960002,0.0621385
0.5950002,0.06170933
0.5940002,0.06121886
0.5930002,0.06075903
0.5920002,0.06032987
0.5910002,0.05987004
0.5900002,0.05941022
0.5890002,0.05898106
0.5880002,0.05849057
0.5870002,0.05806141
0.5860002,0.05760158
0.5850002,0.05714176
0.5840002,0.05674325
0.5830002,0.05625277
0.5820002,0.05582361
0.5810002,0.05536379
0.5800002,0.05490396
0.5790002,0.0544748
0.5780002,0.05401497
0.5770002,0.05355515
0.5760002,0.05309533
0.5750002,0.05266616
0.5740002,0.05220634
0.5730002,0.05177717
0.5720002,0.051348
0.5710002,0.05088818
0.5700002,0.05042836
0.5690002,0.04999919
0.5680002,0.04957002
0.5670002,0.0491102
0.5660002,0.04868103
0.5650002,0.04825186
0.5640002,0.04779204
0.5630002,0.04736288
0.5620002,0.04690305
0.5610002,0.04644323
0.5600002,0.04604472
0.5590002,0.04558489
0.5580002,0.04515573
0.5570002,0.04469591
0.5560002,0.04426674
0.5550002,0.04380691
0.5540002,0.0434084
0.5530002,0.04294858
0.5520002,0.04251941
0.5510002,0.0421209
0.5500002,0.04166108
0.5490002,0.04123191
0.5480002,0.04080274
0.5470002,0.04037357
0.5460002,0.03994441
0.5450002,0.03951524
0.5440002,0.03905542
0.5430002,0.03862625
0.5420002,0.03819708
0.5410002,0.03776791
0.5400002,0.03733874
0.5390002,0.03694023
0.5380002,0.03648041
0.5370002,0.0360819
0.5360002,0.03565273
0.5350002,0.03522356
0.5340002,0.0347944
0.5330002,0.03439588
0.5320002,0.03396672
0.5310002,0.0335682
0.5300002,0.03313904
0.5290002,0.03270987
0.5280002,0.03231135
0.5270002,0.03188219
0.5260002,0.03148368
0.5250002,0.03105451
0.5240002,0.03065599
0.5230002,0.03022683
0.5220002,0.02979766
0.5210002,0.02939915
0.5200002,0.02896998
0.5190002,0.02857147
0.5180002,0.02817295
0.5170002,0.02777444
0.5160002,0.02734527
0.5150002,0.02694676
0.5140002,0.02654825
0.5130002,0.02614973
0.5120002,0.02575122
0.5110002,0.02535271
0.5100002,0.0249542
0.5090002,0.02455568
0.5080002,0.02415717
0.5070002,0.02378931
0.5060002,0.02336015
0.5050002,0.02299229
0.5040002,0.02259377
0.5030002,0.02219526
0.5020002,0.02179675
0.5010002,0.02142889
0.5000002,0.02103038
0.4990002,0.02066252
0.4980002,0.02026401
0.4970002,0.01989615
0.4960002,0.01952829
0.4950002,0.01912978
0.4940002,0.01876192
0.4930002,0.01842472
0.4920002,0.01802621
0.4910002,0.01765835
0.4900002,0.01732115
0.4890002,0.01692263
0.4880002,0.01658543
0.4870002,0.01621757
0.4860002,0.01584971
0.4850002,0.01551251
0.4840002,0.01514465
0.4830002,0.01477679
0.4820002,0.01443959
0.4810002,0.01407173
0.4800002,0.01373453
0.4790002,0.01336667
0.4780002,0.0125502
0.4770002,0.01221913
0.4760002,0.01188499
0.4750002,0.01155392
0.4740002,0.01122898
0.4730002,0.01090404
0.4720002,0.0105791
0.4710002,0.01026029
0.4700002,0.009947607
0.4690002,0.009628798
0.4680002,0.009322249
0.4670002,0.009012635
0.4660002,0.008703022
0.4650002,0.008402605
0.4640002,0.008105253
0.4630002,0.007807901
0.4620002,0.007519746
0.4610002,0.007225459
0.4600002,0.006937304
0.4590002,0.006658345
0.4580002,0.006379386
0.4570002,0.006103492
0.4560002,0.00583373
0.4550002,0.005560902
0.4540002,0.00529727
0.4530002,0.00503977
0.4520002,0.00478227
0.4510002,0.004527835
0.4500002,0.00427953
0.4490002,0.004034291
0.4480002,0.003792119
0.4470002,0.003549946
0.4460002,0.003320034
0.4450002,0.003090123
0.4440002,0.002860212
0.4430002,0.002642563
0.4420002,0.002421848
0.4410002,0.002204199
0.4400002,0.001995746
0.4390002,0.001790359
0.4380002,0.001588037
0.4370002,0.00138878
0.4360002,0.001195655
0.4350002,0.0009733025
0.4340002,0.0007847752
0.4330002,0.0006020725
0.4320002,0.0004233549
0.4310002,0.0002443306
0.4300002,7.327671E-05
0.4290002,-9.839032E-05
0.4280002,-0.0002666853
0.4270002,-0.000426397
0.4260002,-0.0005894807
0.4250002,-0.0007470464
0.4240002,-0.0008997075
0.4230002,-0.001056354
0.4220002,-0.00120503
0.4210002,-0.00135156
0.4200002,-0.001499316
0.4190002,-0.001638795
0.4180002,-0.00178226
0.4170002,-0.001922046
0.4160002,-0.002058767
0.4150002,-0.002198246
0.4140002,-0.002332821
0.4130002,-0.002466169
0.4120002,-0.002600744
0.4110002,-0.002731333
0.4100002,-0.002871426
0.4090002,-0.003009373
0.4080002,-0.003102152
0.4070002,-0.003233967
0.4060002,-0.003359652
0.4050002,-0.003491468
0.4040002,-0.003626349
0.4030002,-0.003755099
0.4020002,-0.00388998
0.4010002,-0.004024862
0.4000002,-0.004153612
0.3990002,-0.004291559
0.3980002,-0.00442644
0.3970002,-0.004561321
0.3960002,-0.004702333
0.3950002,-0.00484028
0.3940002,-0.004981292
0.3930002,-0.005119239
0.3920002,-0.005260251
0.3910002,-0.005404329
0.3900002,-0.005548407
0.3890002,-0.00569555
0.3880002,-0.005839627
0.3870002,-0.005983705
0.3860002,-0.006130849
0.3850002,-0.006274926
0.3840002,-0.006422069
0.3830002,-0.006575344
0.3820002,-0.006719421
0.3810002,-0.006869629
0.3800002,-0.007019838
0.3790002,-0.007166982
0.3780002,-0.007320256
0.3770002,-0.007464333
0.3760002,-0.007614542
0.3750002,-0.007767816
0.3740002,-0.007914959
0.3730002,-0.008068234
0.3720002,-0.008221507
0.3710002,-0.00836865
0.3700002,-0.008521925
0.3690002,-0.008672133
0.3680002,-0.008816211
0.3670002,-0.008975616
0.3660002,-0.009122759
0.3650002,-0.009266837
0.3640002,-0.009423177
0.3630002,-0.009564188
0.3620002,-0.009714398
0.3610002,-0.009858475
0.3600002,-0.009999488
0.3590002,-0.01014663
0.3580002,-0.01028764
0.3570002,-0.01042252
0.3560002,-0.01056047
0.3550002,-0.01069229
0.3540002,-0.01081797
0.3530002,-0.01094979
0.3520002,-0.01107241
0.3510002,-0.01118583
0.3500002,-0.01130232
0.3490002,-0.01140961
0.3480002,-0.0115077
0.3470002,-0.0116058
0.3460002,-0.0116947
0.3450002,-0.01178053
0.3440002,-0.01185717
0.3430002,-0.01193381
0.3420002,-0.01199205
0.3410002,-0.01204723
0.3400002,-0.01209934
0.3390002,-0.01213306
0.3380002,-0.01216985
0.3370002,-0.01219131
0.3360002,-0.01220357
0.3350002,-0.01221583
0.3340002,-0.0122097
0.3330002,-0.01219744
0.3320002,-0.01218211
0.3310002,-0.01215146
0.3300002,-0.01211161
0.3290002,-0.01206869
0.3280002,-0.01201044
0.3270002,-0.01194607
0.3260002,-0.0118725
0.3250002,-0.01178973
0.3240002,-0.01169163
0.3230002,-0.01158434
0.3220002,-0.01146172
0.3210002,-0.01132378
0.3200002,-0.01117663
0.3190002,-0.0110111
0.3180002,-0.01082717
0.3170002,-0.01063098
0.3160002,-0.01041639
0.3150002,-0.01018035
0.3140002,-0.009925916
0.3130002,-0.009656153
0.3120002,-0.009361867
0.3110002,-0.00906758
0.3100002,-0.008742639
0.3090002,-0.008414633
0.3080002,-0.008080496
0.3070002,-0.007740227
0.3060002,-0.007403024
0.3050002,-0.007068886
0.3040002,-0.006750076
0.3030002,-0.006449659
0.3020002,-0.006161503
0.3010002,-0.005894806
0.3000002,-0.005649568
0.2990002,-0.005413526
0.2980002,-0.005202007
0.2970002,-0.005005816
0.2960002,-0.004818822
0.2950002,-0.004653286
0.2940002,-0.004496946
0.2930002,-0.004346738
0.2920002,-0.004211857
0.2910002,-0.00408004
0.2900002,-0.003957421
0.2890002,-0.003843998
0.2880002,-0.003733641
0.2870002,-0.003629415
0.2860002,-0.003534385
0.2850002,-0.003439354
0.2840002,-0.003350456
0.2830002,-0.003267688
0.2820002,-0.003187985
0.2810002,-0.003111348
0.2800002,-0.003040842
0.2790002,-0.002973401
0.2780002,-0.002912092
0.2770002,-0.002850782
0.2760002,-0.002792538
0.2750002,-0.002740425
0.2740002,-0.002685246
0.2730002,-0.002636198
0.2720002,-0.002590216
0.2710002,-0.002544234
0.2700002,-0.002498251
0.2690002,-0.002455335
0.2680002,-0.002412418
0.2670002,-0.002372567
0.2660002,-0.002335781
0.2650002,-0.002298995
0.2640002,-0.002262209
0.2630002,-0.002228489
0.2620002,-0.002194769
0.2610002,-0.002161048
0.2600002,-0.002130394
0.2590002,-0.002099739
0.2580002,-0.002069084
0.2570002,-0.002041495
0.2560002,-0.002013905
0.2550002,-0.001986316
0.2540002,-0.001958727
0.2530002,-0.001934203
0.2520002,-0.001906613
0.2510002,-0.00188209
0.2500002,-0.001857566
0.2490002,-0.001836107
0.2480002,-0.001811583
0.2470002,-0.001790125
0.2460002,-0.001768667
0.2450002,-0.001747208
0.2440002,-0.00172575
0.2430002,-0.001707357
0.2420002,-0.001685899
0.2410002,-0.001667506
0.2400002,-0.001646047
0.2390002,-0.001627655
0.2380002,-0.001609262
0.2370002,-0.001628679
0.2360002,-0.001611513
0.2350002,-0.001594346
0.2340002,-0.001577486
0.2330002,-0.001560932
0.2320002,-0.001544685
0.2310002,-0.001529051
0.2300002,-0.001513417
0.2290002,-0.00149809
0.2280002,-0.001483376
0.2270002,-0.001468355
0.2260002,-0.001453947
0.2250002,-0.001439846
0.2240002,-0.001425744
0.2230002,-0.001412256
0.2220002,-0.001398768
0.2210002,-0.001385587
0.2200002,-0.001372712
0.2190002,-0.001359837
0.2180002,-0.001347268
0.2170002,-0.001335006
0.2160002,-0.001322744
0.2150002,-0.001311095
0.2140002,-0.001299447
0.2130002,-0.001287798
0.2120002,-0.001276455
0.2110002,-0.00126542
0.2100002,-0.001254384
0.2090002,-0.001243655
0.2080002,-0.001232926
0.2070002,-0.001222503
0.2060002,-0.00121208
0.2050002,-0.001201964
0.2040002,-0.001191848
0.2030002,-0.001182038
0.2020002,-0.001172229
0.2010002,-0.001162726
0.2000002,-0.001153223
0.1990002,-0.001144027
0.1980002,-0.00113483
0.1970002,-0.001125634
0.1960002,-0.00111705
0.1950002,-0.00110816
0.1940002,-0.001099577
0.1930002,-0.001090687
0.1920002,-0.00108241
0.1910002,-0.001074134
0.1900002,-0.001065857
0.1890002,-0.001057887
0.1880002,-0.001049916
0.1870002,-0.001042253
0.1860002,-0.001034589
0.1850002,-0.001026925
0.1840002,-0.001019261
0.1830002,-0.001011904
0.1820002,-0.001004547
0.1810002,-0.0009971899
0.1800002,-0.0009901392
0.1790002,-0.0009827821
0.1780002,-0.000976038
0.1770002,-0.0009689874
0.1760002,-0.0009622434
0.1750002,-0.0009558058
0.1740002,-0.0009490618
0.1730002,-0.0009423177
0.1720002,-0.0009358802
0.1710002,-0.0009294427
0.1700002,-0.0009230052
0.1690002,-0.0009171807
0.1680002,-0.0009107432
0.1670002,-0.0009046123
0.1660002,-0.0008990944
0.1650002,-0.0008929634
0.1640002,-0.000887139
0.1630002,-0.000881008
0.1620002,-0.0008754902
0.1610002,-0.0008696658
0.1600002,-0.0008641479
0.1590002,-0.0008586301
0.1580002,-0.0008531122
0.1570002,-0.0008479009
0.1560002,-0.0008426895
0.1550002,-0.0008371716
0.1540002,-0.0008319604
0.1530002,-0.000826749
0.1520002,-0.0008212312
0.1510002,-0.0008163264
0.1500002,-0.0008111151
0.1490002,-0.0008065169
0.1480002,-0.000801612
0.1470002,-0.0007967073
0.1460002,-0.0007921091
0.1450002,-0.0007875108
0.1440002,-0.000782606
0.1430002,-0.0007780078
0.1420002,-0.0007734096
0.1410002,-0.0007688114
0.1400002,-0.0007642132
0.1390002,-0.0007596149
0.1380002,-0.0007553233
0.1370002,-0.0007513381
0.1360002,-0.0007467399
0.1350002,-0.0007427548
0.1340002,-0.0007384631
0.1330002,-0.0007341714
0.1320002,-0.0007301863
0.1310002,-0.0007258946
0.1300002,-0.0007219095
0.1290002,-0.0007179244
0.1280002,-0.0007139393
0.1270002,-0.0007099541
0.1260002,-0.000705969
0.1250002,-0.0007019839
0.1240002,-0.0006983053
0.1230002,-0.0006943202
0.1220002,-0.0006906416
0.1210002,-0.0006872696
0.1200002,-0.0006832844
0.1190002,-0.0006799124
0.1180002,-0.0006762338
0.1170002,-0.0006725552
0.1160002,-0.0006691832
0.1150002,-0.0006655046
0.1140002,-0.0006621326
0.1130002,-0.0006587606
0.1120002,-0.0006553886
0.1110002,-0.0006520165
0.1100002,-0.0006486445
0.1090002,-0.0006452725
0.1080002,-0.0006422069
0.1070002,-0.0006385284
0.1060002,-0.0006354629
0.1050002,-0.0006323974
0.1040002,-0.0006290254
0.1030002,-0.0006259599
0.1020002,-0.000623201
0.1010002,-0.0006201355
0.1000002,-0.00061707
0.09900019,-0.0006140045
0.09800019,-0.0006109391
0.09700019,-0.0006081801
0.09600019,-0.0006051146
0.09500019,-0.0006023557
0.09400019,-0.0005992902
0.09300019,-0.0005965313
0.09200019,-0.0005937723
0.09100019,-0.0005907068
0.09000019,-0.000587948
0.08900019,-0.0005854955
0.08800019,-0.0005827366
0.08700019,-0.0005799776
0.08600019,-0.0005772187
0.08500019,-0.0005747664
0.08400019,-0.0005720074
0.08300019,-0.000569555
0.08200019,-0.0005667961
0.08100019,-0.0005643437
0.08000019,-0.0005618913
0.07900019,-0.0005594389
0.07800019,-0.00055668
0.07700019,-0.0005542276
0.07600019,-0.0005517752
0.07500019,-0.0005493228
0.07400019,-0.0005468705
0.07300019,-0.0005444181
0.07200019,-0.0005422722
0.07100019,-0.0005398199
0.07000019,-0.000537674
0.06900019,-0.0005352216
0.06800019,-0.0005327692
0.06700019,-0.0005306234
0.06600019,-0.000528171
0.06500019,-0.0005260251
0.06400019,-0.0005238793
0.06300019,-0.0005217335
0.06200019,-0.0005195877
0.06100019,-0.0005171353
0.06000019,-0.0005152959
0.05900019,-0.0005131501
0.05800019,-0.0005110043
0.05700019,-0.0005088585
0.05600019,-0.0005067126
0.05500019,-0.0005048733
0.05400019,-0.0005027275
0.05300019,-0.0005005816
0.05200019,-0.0004987424
0.05100019,-0.0004965966
0.05000019,-0.0004947572
0.04900019,-0.000492918
0.04800019,-0.0004907721
0.04700019,-0.0004889328
0.04600019,-0.000486787
0.04500019,-0.0004849477
0.04400019,-0.0004831084
0.04300019,-0.0004812691
0.04200019,-0.0004791233
0.04100019,-0.0004775905
0.04000019,-0.0004754447
0.03900019,-0.000473912
0.03800019,-0.0004720727
0.03700019,-0.0004702334
0.03600019,-0.0004687006
0.03500019,-0.0004668614
0.03400019,-0.0004650221
0.03300019,-0.0004631828
0.03200019,-0.00046165
0.03100019,-0.0004598107
0.03000019,-0.0004579714
0.02900019,-0.0004561322
0.02800019,-0.0004545994
0.02700019,-0.0004530667
0.02600019,-0.0004512274
0.02500019,-0.0004496947
0.02400019,-0.0004481619
0.02300019,-0.0004466292
0.02200019,-0.0004450964
0.02100019,-0.0004432572
0.02000019,-0.0004417244
0.01900019,-0.0004401917
0.01800019,-0.0004386589
0.01700019,-0.0004371261
0.01600019,-0.0004355934
0.01500019,-0.0004340607
0.01400019,-0.0004325279
0.01300019,-0.0004309952
0.01200019,-0.000429769
0.01100019,-0.0004282363
0.01000019,-0.0004267035
0.009000191,-0.0004251708
0.00800019,-0.000423638
0.007000191,-0.0004221053
0.006000191,-0.0004208791
0.005000191,-0.0004193464
0.004000191,-0.0004178136
0.003000191,-0.0004165874
0.002000191,-0.0004150547
0.001000191,-0.0004135219
1.907349E-07,-0.0004080041
0.0009998092,-0.0003994207
0.001999809,-0.000391757
0.002999809,-0.0003847064
0.003999809,-0.0003782689
0.004999809,-0.0003724445
0.005999809,-0.0003666201
0.006999809,-0.0003611022
0.007999809,-0.0003558909
0.00899981,-0.0003509861
0.009999809,-0.0003460813
0.01099981,-0.0003417897
0.01199981,-0.0003371914
0.01299981,-0.0003328998
0.01399981,-0.0003289146
0.01499981,-0.0003249295
0.01599981,-0.0003209444
0.01699981,-0.0003172658
0.01799981,-0.0003135872
0.01899981,-0.0003099086
0.01999981,-0.0003065366
0.02099981,-0.0003031646
0.02199981,-0.0002997925
0.02299981,-0.0002967271
0.02399981,-0.0002936616
0.02499981,-0.0002902895
0.02599981,-0.0002875306
0.02699981,-0.0002844651
0.02799981,-0.0002817062
0.02899981,-0.0002789472
0.02999981,-0.0002761883
0.03099981,-0.0002734294
0.03199981,-0.0002706705
0.03299981,-0.000268218
0.03399981,-0.0002654591
0.03499981,-0.0002630067
0.03599981,-0.0002605543
0.03699981,-0.000258102
0.03799981,-0.0002556496
0.03899981,-0.0002531972
0.03999981,-0.0002507448
0.04099981,-0.0002482924
0.04199981,-0.0002461466
0.04299981,-0.0002440007
0.04399981,-0.0002415484
0.04499981,-0.0002394025
0.04599981,-0.0002372567
0.04699981,-0.0002351108
0.04799981,-0.000232965
0.04899981,-0.0002308192
0.04999981,-0.0002289799
0.05099981,-0.0002268341
0.05199981,-0.0002249948
0.05299981,-0.0002228489
0.05399981,-0.0002210096
0.05499981,-0.0002191703
0.05599981,-0.000217331
0.05699981,-0.0002154918
0.05799981,-0.0002133459
0.05899981,-0.0002115066
0.05999981,-0.0002096674
0.06099981,-0.0002078281
0.06199981,-0.0002062953
0.06299981,-0.000204456
0.06399981,-0.0002026167
0.06499981,-0.000201084
0.06599981,-0.0001992447
0.06699981,-0.000197712
0.06799981,-0.0001958727
0.06899981,-0.0001943399
0.06999981,-0.0001928072
0.07099981,-0.0001909679
0.07199981,-0.0001894352
0.07299981,-0.0001879024
0.07399981,-0.0001863697
0.07499981,-0.0001848369
0.07599981,-0.0001833042
0.07699981,-0.0001817715
0.07799981,-0.0001802387
0.07899981,-0.000178706
0.07999981,-0.0001771732
0.08099981,-0.0001756405
0.08199981,-0.0001744143
0.08299981,-0.0001728816
0.08399981,-0.0001713488
0.08499981,-0.0001698161
0.08599981,-0.0001685899
0.08699981,-0.0001673637
0.08799981,-0.0001658309
0.08899981,-0.0001646047
0.08999981,-0.000163072
0.09099981,-0.0001618458
0.09199981,-0.0001603131
0.09299981,-0.0001625307
0.09399981,-0.0001612739
0.09499981,-0.000160017
0.09599981,-0.0001587602
0.09699981,-0.000157534
0.09799981,-0.0001562158
0.09899981,-0.000154867
0.09999981,-0.0001536408
0.1009998,-0.0001524453
0.1019998,-0.0001512191
0.1029998,-0.0001500236
0.1039998,-0.0001488587
0.1049998,-0.0001477245
0.1059998,-0.0001465902
0.1069998,-0.0001454866
0.1079998,-0.0001442605
0.1089998,-0.0001430343
0.1099998,-0.0001419307
0.1109998,-0.0001407965
0.1119998,-0.0001396622
0.1129998,-0.0001385893
0.1139998,-0.0001375164
0.1149998,-0.0001364128
0.1159998,-0.0001354012
0.1169998,-0.0001343283
0.1179998,-0.000133286
0.1189998,-0.0001321824
0.1199998,-0.0001310176
0.1209998,-0.0001299446
0.1219998,-0.000128933
0.1229998,-0.0001279521
0.1239998,-0.0001269098
0.1249998,-0.0001258982
0.1259998,-0.0001249479
0.1269998,-0.0001239976
0.1279998,-0.0001231086
0.1289998,-0.0001221277
0.1299998,-0.0001211467
0.1309998,-0.0001201658
0.1319998,-0.0001191541
0.1329998,-0.0001182038
0.1339998,-0.0001172229
0.1349998,-0.0001162113
0.1359998,-0.0001152916
0.1369998,-0.0001144026
0.1379998,-0.0001134523
0.1389998,-0.0001125634
0.1399998,-0.0001116744
0.1409998,-0.0001107854
0.1419998,-0.0001099577
0.1429998,-0.0001090687
0.1439998,-0.0001081797
0.1449998,-0.0001072907
0.1459998,-0.0001064937
0.1469998,-0.0001057273
0.1479998,-0.000104869
0.1489998,-0.0001040107
0.1499998,-0.0001032136
0.1509998,-0.0001023553
0.1519998,-0.0001015889
0.1529998,-0.0001006999
0.1539998,-9.987225E-05
0.1549998,-9.904457E-05
0.1559998,-9.815559E-05
0.1569998,-9.738921E-05
0.1579998,-9.662284E-05
0.1589998,-9.585647E-05
0.1599998,-9.505945E-05
0.1609998,-9.429307E-05
0.1619998,-9.349606E-05
0.1629998,-9.279099E-05
0.1639998,-9.208592E-05
0.1649998,-9.131956E-05
0.1659998,-9.058384E-05
0.1669998,-8.981747E-05
0.1679998,-8.917372E-05
0.1689998,-8.8438E-05
0.1699998,-8.773294E-05
0.1709998,-8.702788E-05
0.1719998,-8.623085E-05
0.1729998,-8.555645E-05
0.1739998,-8.49127E-05
0.1749998,-8.414633E-05
0.1759998,-8.347192E-05
0.1769998,-8.276686E-05
0.1779998,-8.20618E-05
0.1789998,-8.141805E-05
0.1799998,-8.071299E-05
0.1809998,-7.997728E-05
0.1819998,-7.936417E-05
0.1829998,-7.868977E-05
0.1839998,-7.79847E-05
0.1849998,-7.724899E-05
0.1859998,-7.660524E-05
0.1869998,-7.599215E-05
0.1879998,-7.537904E-05
0.1889998,-7.470464E-05
0.1899998,-7.41222E-05
0.1909998,-7.344779E-05
0.1919998,-7.286535E-05
0.1929998,-7.225225E-05
0.1939998,-7.160851E-05
0.1949998,-7.09954E-05
0.1959998,-7.041297E-05
0.1969998,-6.979987E-05
0.1979998,-6.924808E-05
0.1989998,-6.860433E-05
0.1999998,-6.796058E-05
0.2009998,-6.740879E-05
0.2019998,-6.676505E-05
0.2029998,-6.61826E-05
0.2039998,-6.550819E-05
0.2049998,-6.486444E-05
0.2059998,-6.431266E-05
0.2069998,-6.379152E-05
0.2079998,-6.317843E-05
0.2089998,-6.265729E-05
0.2099998,-6.20442E-05
0.2109998,-6.149241E-05
0.2119998,-6.090997E-05
0.2129998,-6.035818E-05
0.2139998,-5.983705E-05
0.2149998,-5.928526E-05
0.2159998,-5.876413E-05
0.2169998,-5.8243E-05
0.2179998,-5.769121E-05
0.2189998,-5.717008E-05
0.2199998,-5.664895E-05
0.2209998,-5.609716E-05
0.2219998,-5.563734E-05
0.2229998,-5.511621E-05
0.2239998,-5.459508E-05
0.2249998,-5.41046E-05
0.2259998,-5.358347E-05
0.2269998,-5.309299E-05
0.2279998,-5.25412E-05
0.2289998,-5.202007E-05
0.2299998,-5.156024E-05
0.2309998,-5.097781E-05
0.2319998,-5.051799E-05
0.2329998,-4.993554E-05
0.2339998,-4.944507E-05
0.2349998,-4.895459E-05
0.2359998,-4.843346E-05
0.2369998,-4.788167E-05
0.2379998,-4.742185E-05
0.2389998,-4.687006E-05
0.2399998,-4.641024E-05
0.2409998,-4.595042E-05
0.2419998,-4.545994E-05
0.2429998,-4.496946E-05
0.2439998,-4.450964E-05
0.2449998,-4.401916E-05
0.2459998,-4.358999E-05
0.2469998,-4.313017E-05
0.2479998,-4.270101E-05
0.2489998,-4.217987E-05
0.2499998,-4.17507E-05
0.2509998,-4.129088E-05
0.2519998,-4.086172E-05
0.2529998,-4.043255E-05
0.2539998,-3.991141E-05
0.2549998,-3.945159E-05
0.2559998,-3.893046E-05
0.2569998,-3.847064E-05
0.2579998,-3.794951E-05
0.2589998,-3.745903E-05
0.2599998,-3.69379E-05
0.2609998,-3.650873E-05
0.2619998,-3.604891E-05
0.2629998,-3.558908E-05
0.2639998,-3.515992E-05
0.2649998,-3.466944E-05
0.2659998,-3.427093E-05
0.2669998,-3.38111E-05
0.2679998,-3.338194E-05
0.2689998,-3.295277E-05
0.2699998,-3.255426E-05
0.2709998,-3.206378E-05
0.2719998,-3.163461E-05
0.2729998,-3.117479E-05
0.2739998,-3.068431E-05
0.2749998,-3.019383E-05
0.2759998,-2.964205E-05
0.2769998,-2.918223E-05
0.2779998,-2.884502E-05
0.2789998,-2.829324E-05
0.2799998,-2.792538E-05
0.2809998,-2.752687E-05
0.2819998,-2.706704E-05
0.2829998,-2.663788E-05
0.2839998,-2.617805E-05
0.2849998,-2.565692E-05
0.2859998,-2.51971E-05
0.2869998,-2.470662E-05
0.2879998,-2.427745E-05
0.2889998,-2.381763E-05
0.2899998,-2.338846E-05
0.2909998,-2.298995E-05
0.2919998,-2.246882E-05
0.2929998,-2.2009E-05
0.2939998,-2.148786E-05
0.2949998,-2.090542E-05
0.2959998,-2.047626E-05
0.2969998,-1.998578E-05
0.2979998,-1.946465E-05
0.2989998,-1.909679E-05
0.2999998,-1.8545E-05
0.3009998,-1.82078E-05
0.3019998,-1.771732E-05
0.3029998,-1.716554E-05
0.3039998,-1.661375E-05
0.3049998,-1.606196E-05
0.3059998,-1.557148E-05
0.3069998,-1.505035E-05
0.3079998,-1.455988E-05
0.3089998,-1.445976E-05
0.3099998,-1.392637E-05
0.3109998,-1.333167E-05
0.3119998,-1.275842E-05
0.3129998,-1.221583E-05
0.3139998,-1.174681E-05
0.3149998,-1.128393E-05
0.3159998,-1.07536E-05
0.3169998,-1.008839E-05
0.3179998,-9.459963E-06
0.3189998,-8.880586E-06
0.3199998,-8.341061E-06
0.3209998,-7.804601E-06
0.3219998,-7.219095E-06
0.3229998,-6.639718E-06
0.3239998,-5.851889E-06
0.3249998,-5.2204E-06
0.3259998,-4.68394E-06
0.3269998,-4.049386E-06
0.3279998,-3.460813E-06
0.3289998,-2.783341E-06
0.3299998,-1.97712E-06
0.3309998,-1.31191E-06
0.3319998,-5.761939E-07
0.3329998,4.916445E-08
0.3339998,7.205052E-07
0.3349998,1.489941E-06
0.3359998,2.3728E-06
0.3369998,3.182088E-06
0.3379998,3.933131E-06
0.3389998,4.687239E-06
0.3399998,5.496527E-06
0.3409998,6.37632E-06
0.3419998,7.283703E-06
0.3429998,8.255462E-06
0.3439998,9.13832E-06
0.3449998,1.001198E-05
0.3459998,1.100826E-05
0.3469998,1.207812E-05
0.3479998,1.3243E-05
0.3489998,1.435577E-05
0.3499998,1.545628E-05
0.3509998,1.663955E-05
0.3519998,1.779831E-05
0.3529998,1.92023E-05
0.3539998,2.061855E-05
0.3549998,2.203787E-05
0.3559998,2.359207E-05
0.3569998,2.514627E-05
0.3579998,2.686294E-05
0.3589998,2.912325E-05
0.3599998,3.096254E-05
0.3609998,3.3231E-05
0.3619998,3.571404E-05
0.3629998,3.844232E-05
0.3639998,4.166107E-05
0.3649998,4.509441E-05
0.3659998,4.914085E-05
0.3669998,5.383104E-05
0.3679998,5.934891E-05
0.3689998,6.621559E-05
0.3699998,7.476829E-05
0.3709998,8.56201E-05
0.3719998,9.950672E-05
0.3729998,0.0001167961
0.3739998,0.0001388062
0.3749998,0.0001661503
0.3759998,0.0001987977
0.3769998,0.0002380359
0.3779998,0.0002833131
0.3789998,0.0003375213
0.3799998,0.0003954589
0.3809998,0.0004586079
0.3819998,0.0005285009
0.3829998,0.000605138
0.3839998,0.0006869864
0.3849998,0.0007752723
0.3859998,0.0008693826
0.3869998,0.0009680911
0.3879998,0.001071704
0.3889998,0.001178383
0.3899998,0.001288741
0.3909998,0.00140155
0.3919998,0.001515586
0.3929998,0.001631155
0.3939998,0.00174703
0.3949998,0.001861679
0.3959998,0.001974489
0.3969998,0.002085766
0.3979998,0.002193671
0.3989998,0.002298511
0.3999998,0.002398752
0.4009998,0.002497767
0.4019998,0.002591877
0.4029998,0.002684148
0.4039998,0.002774887
0.4049998,0.002858574
0.4059998,0.002945328
0.4069998,0.003029935
0.4079998,0.003139171
0.4089998,0.003225004
0.4099998,0.003307773
0.4109998,0.003387475
0.4119998,0.003473309
0.4129998,0.003549946
0.4139998,0.003632714
0.4149998,0.003715482
0.4159998,0.00379825
0.4169998,0.003884083
0.4179998,0.003972982
0.4189998,0.00405575
0.4199998,0.004144649
0.4209998,0.004233548
0.4219998,0.004322447
0.4229998,0.004417477
0.4239998,0.004512507
0.4249998,0.004607537
0.4259998,0.004705633
0.4269998,0.004806793
0.4279998,0.004907954
0.4289998,0.005009115
0.4299998,0.005116407
0.4309998,0.005223699
0.4319998,0.005330991
0.4329998,0.005450545
0.4339998,0.005567033
0.4349998,0.005680456
0.4359998,0.005809206
0.4369998,0.005925694
0.4379998,0.006054445
0.4389998,0.006189326
0.4399998,0.006315011
0.4409998,0.006456023
0.4419998,0.006597036
0.4429998,0.006738048
0.4439998,0.006888256
0.4449998,0.007035399
0.4459998,0.007191739
0.4469998,0.007354209
0.4479998,0.007513615
0.4489998,0.007682216
0.4499998,0.007853882
0.4509998,0.00802555
0.4519998,0.008206413
0.4529998,0.008390343
0.4539998,0.008577337
0.4549998,0.008773527
0.4559998,0.008972785
0.4569998,0.009175106
0.4579998,0.009383559
0.4589998,0.009598142
0.4599998,0.009815792
0.4609998,0.01003957
0.4619998,0.01027561
0.4629998,0.01050552
0.4639998,0.0107477
0.4649998,0.010996
0.4659998,0.01123818
0.4669998,0.01149568
0.4679998,0.01176237
0.4689998,0.01201987
0.4699998,0.01229577
0.4709998,0.01257166
0.4719998,0.01284755
0.4729998,0.01314184
0.4739998,0.01343
0.4749998,0.01372735
0.4759998,0.01403083
0.4769998,0.01432512
0.4779998,0.01464086
0.4789998,0.01495967
0.4799998,0.01526929
0.4809998,0.01560036
0.4819998,0.01592836
0.4829998,0.0162533
0.4839998,0.01659664
0.4849998,0.01693384
0.4859998,0.01727105
0.4869998,0.01762051
0.4879998,0.01796998
0.4889998,0.01831638
0.4899998,0.01867504
0.4909998,0.0190337
0.4919998,0.01939542
0.4929998,0.01976022
0.4939998,0.02012808
0.4949998,0.02049593
0.4959998,0.02086686
0.4969998,0.02124391
0.4979998,0.02161177
0.4989998,0.02199496
0.4999998,0.02237201
0.5009998,0.022746
0.5019998,0.02314145
0.5029998,0.02352157
0.5039998,0.02389862
0.5049998,0.0243002
0.5059998,0.02467725
0.5069998,0.02506657
0.5079998,0.02546201
0.5089998,0.02583907
0.5099998,0.02623145
0.5109998,0.02663303
0.5119998,0.02701928
0.5129998,0.02741779
0.5139998,0.02781324
0.5149998,0.02819336
0.5159998,0.028598
0.5169998,0.02899652
0.5179998,0.02938277
0.5189998,0.02979048
0.5199998,0.03018592
0.5209998,0.0313304
0.5219998,0.03172891
0.5229998,0.03215808
0.5239998,0.03252594
0.5249998,0.03295511
0.5259998,0.03335362
0.5269998,0.03375213
0.5279998,0.0341813
0.5289998,0.03457981
0.5299998,0.03497833
0.5309998,0.03537684
0.5319998,0.035806
0.5329998,0.03620452
0.5339998,0.03663369
0.5349998,0.0370322
0.5359998,0.03743071
0.5369998,0.03785988
0.5379998,0.03825839
0.5389998,0.03868756
0.5399998,0.03911673
0.5409998,0.03951524
0.5419998,0.03994441
0.5429998,0.04037357
0.5439998,0.04077209
0.5449998,0.04120126
0.5459998,0.04159977
0.5469998,0.04199828
0.5479998,0.04242745
0.5489998,0.04285662
0.5499998,0.04325513
0.5509998,0.04371495
0.5519998,0.04414412
0.5529998,0.04451197
0.5539998,0.0449718
0.5549998,0.04537031
0.5559998,0.04579948
0.5569998,0.0462593
0.5579998,0.04668847
0.5589998,0.04708698
0.5599998,0.0475468
0.5609998,0.04794532
0.5619998,0.04837449
0.5629998,0.04883431
0.5639998,0.04923282
0.5649998,0.04966199
0.5659998,0.05009115
0.5669998,0.05052032
0.5679998,0.05094949
0.5689998,0.05137866
0.5699998,0.05180782
0.5709998,0.05223699
0.5719998,0.05269681
0.5729998,0.05309533
0.5739998,0.05355515
0.5749998,0.05398431
0.5759998,0.05441349
0.5769998,0.05484265
0.5779998,0.05530247
0.5789998,0.05573164
0.5799998,0.05619146
0.5809998,0.05658998
0.5819998,0.0570498
0.5829998,0.05747896
0.5839998,0.05790814
0.5849998,0.0583373
0.5859998,0.05879712
0.5869998,0.05922629
0.5879998,0.05968611
0.5889998,0.06011529
0.5899998,0.06054445
0.5909998,0.06100427
0.5919998,0.06143344
0.5929998,0.06189326
0.5939998,0.06235309
0.5949998,0.06278225
0.5959998,0.06321142
0.5969998,0.06367125
0.5979998,0.06413107
0.5989998,0.06456023
0.5999998,0.06502005
0.6009998,0.06544922
0.6019998,0.06590905
0.6029998,0.06633821
0.6039998,0.06676738
0.6049998,0.06722721
0.6059998,0.06768703
0.6069998,0.06811619
0.6079998,0.06857602
0.6089998,0.06903584
0.6099998,0.06949566
0.6109998,0.06995548
0.6119998,0.07038464
0.6129998,0.07084447
0.6139998,0.07130429
0.6149998,0.07176412
0.6159998,0.07219329
0.6169998,0.07265311
0.6179998,0.07311293
0.6189998,0.07357275
0.6199998,0.07403257
0.6209998,0.07449239
0.6219998,0.07492156
0.6229998,0.07541204
0.6239998,0.07584121
0.6249998,0.07630103
0.6259998,0.07676085
0.6269998,0.07722067
0.6279998,0.07764985
0.6289998,0.07814032
0.6299998,0.07860014
0.6309998,0.07902931
0.6319998,0.07951979
0.6329998,0.07994895
0.6339998,0.08037812
0.6349998,0.08086859
0.6359998,0.08129777
0.6369998,0.08175759
0.6379998,0.08221742
0.6389998,0.08264658
0.6399998,0.08313706
0.6409998,0.08359688
0.6419998,0.08402605
0.6429998,0.08451653
0.6439998,0.08497635
0.6449998,0.08540551
0.6459998,0.08589599
0.6469998,0.08638646
0.6479998,0.08681564
0.6489998,0.08727546
0.6499998,0.08776593
0.6509998,0.08819511
0.6519998,0.08865493
0.6529998,0.08914541
0.6539998,0.08957457
0.6549998,0.09003439
0.6559998,0.09052487
0.6569998,0.09098469
0.6579998,0.09141386
0.6589998,0.09190433
0.6599998,0.0923335
0.6609998,0.09282398
0.6619998,0.09331446
0.6629998,0.09374363
0.6639998,0.0942341
0.6649998,0.09469392
0.6659998,0.0951231
0.6669998,0.09561357
0.6679998,0.0960734
0.6689998,0.09653322
0.6699998,0.09699304
0.6709998,0.09748352
0.6719998,0.09794334
0.6729998,0.09840316
0.6739998,0.09886298
0.6749998,0.0993228
0.6759998,0.09981328
0.6769998,0.1002731
0.6779998,0.1007329
0.6789998,0.101254
0.6799998,0.1016832
0.6809998,0.1021737
0.6819998,0.1026642
0.6829998,0.1030627
0.6839998,0.1035532
0.6849998,0.104013
0.6859998,0.1044422
0.6869998,0.1049633
0.6879998,0.1054231
0.6889998,0.1058523
0.6899998,0.1063428
0.6909998,0.1068332
0.6919998,0.1072624
0.6929998,0.1077529
0.6939998,0.1082127
0.6949998,0.1087032
0.6959998,0.109163
0.6969998,0.1096535
0.6979998,0.110144
0.6989998,0.1106038
0.6999998,0.1106957
0.6990003,0.1102666
0.6980003,0.1097454
0.6970003,0.1092856
0.6960003,0.1088258
0.6950003,0.1083353
0.6940003,0.1078448
0.6930003,0.107385
0.6920003,0.1069252
0.6910003,0.1064347
0.6900003,0.1059442
0.6890003,0.1054538
0.6880003,0.1049633
0.6870003,0.1045341
0.6860003,0.1040436
0.6850003,0.1035532
0.6840003,0.103124
0.6830003,0.1026335
0.6820003,0.102143
0.6810003,0.1016832
0.6800003,0.1012234
0.6790003,0.1007023
0.6780003,0.1002731
0.6770003,0.09981328
0.6760003,0.09929215
0.6750003,0.09886298
0.6740003,0.09837251
0.6730003,0.09791268
0.6720003,0.09745286
0.6710003,0.09696238
0.6700003,0.09650256
0.6690003,0.09601208
0.6680003,0.09552161
0.6670003,0.09509244
0.6660003,0.09460196
0.6650003,0.09411149
0.6640003,0.09365166
0.6630003,0.09319184
0.6620003,0.09270137
0.6610003,0.09224154
0.6600003,0.09178172
0.6590003,0.09129124
0.6580003,0.09083142
0.6570003,0.09034094
0.6560003,0.08985046
0.6550003,0.08942129
0.6540003,0.08896147
0.6530003,0.088471
0.6520003,0.08804183
0.6510003,0.08755135
0.6500003,0.08706088
0.6490003,0.08660105
0.6480003,0.08611058
0.6470003,0.08565076
0.6460003,0.08522158
0.6450003,0.08473111
0.6440003,0.08424063
0.6430003,0.08378081
0.6420003,0.08332099
0.6410003,0.08286116
0.6400003,0.08240134
0.6390003,0.08191086
0.6380003,0.08145104
0.6370003,0.08102188
0.6360003,0.0805314
0.6350003,0.08007158
0.6340003,0.07961175
0.6330003,0.07915193
0.6320003,0.07869211
0.6310003,0.07823228
0.6300003,0.07777246
0.6290003,0.07728198
0.6280003,0.07682216
0.6270003,0.07636234
0.6260003,0.07590251
0.6250003,0.07547335
0.6240003,0.07501353
0.6230003,0.07452305
0.6220003,0.07409389
0.6210003,0.07360341
0.6200003,0.07314359
0.6190003,0.07268376
0.6180003,0.07222394
0.6170003,0.07176412
0.6160003,0.07133495
0.6150003,0.07084447
0.6140003,0.0704153
0.6130003,0.06992482
0.6120003,0.06943435
0.6110003,0.06900518
0.6100003,0.06857602
0.6090003,0.06808554
0.6080003,0.06765637
0.6070003,0.06719655
0.6060003,0.06670607
0.6050003,0.0662769
0.6040003,0.06581708
0.6030003,0.0653266
0.6020003,0.06489744
0.6010003,0.06446826
0.6000003,0.06397779
0.5990003,0.06354862
0.5980003,0.06311946
0.5970003,0.06262898
0.5960003,0.06216915
0.5950003,0.06173999
0.5940003,0.06128017
0.5930003,0.06082034
0.5920003,0.06036052
0.5910003,0.0599007
0.5900003,0.05944088
0.5890003,0.05901171
0.5880003,0.05855189
0.5870003,0.05812272
0.5860003,0.05766289
0.5850003,0.05720307
0.5840003,0.05677391
0.5830003,0.05631408
0.5820003,0.05585426
0.5810003,0.0554251
0.5800003,0.05496527
0.5790003,0.0545361
0.5780003,0.05407628
0.5770003,0.05364711
0.5760003,0.05318729
0.5750003,0.05272747
0.5740003,0.0522983
0.5730003,0.05186913
0.5720003,0.05140931
0.5710003,0.05098015
0.5700003,0.05055097
0.5690003,0.05009115
0.5680003,0.04966199
0.5670003,0.04923282
0.5660003,0.04874234
0.5650003,0.04831317
0.5640003,0.04788401
0.5630003,0.04745484
0.5620003,0.04702567
0.5610003,0.0465965
0.5600003,0.04613668
0.5590003,0.04570751
0.5580003,0.04527835
0.5570003,0.04481852
0.5560003,0.04438936
0.5550003,0.04396019
0.5540003,0.04353102
0.5530003,0.04310185
0.5520003,0.04267269
0.5510003,0.04221286
0.5500003,0.04181435
0.5490003,0.04135453
0.5480003,0.04092536
0.5470003,0.04049619
0.5460003,0.04006703
0.5450003,0.03966851
0.5440003,0.03920869
0.5430003,0.03877952
0.5420003,0.03835035
0.5410003,0.03795184
0.5400003,0.03749202
0.5390003,0.03709351
0.5380003,0.03666434
0.5370003,0.03623517
0.5360003,0.03583666
0.5350003,0.03540749
0.5340003,0.03497833
0.5330003,0.03457981
0.5320003,0.03415065
0.5310003,0.03375213
0.5300003,0.03332296
0.5290003,0.0328938
0.5280003,0.03249529
0.5270003,0.03206612
0.5260003,0.0316676
0.5250003,0.03123844
0.5240003,0.03083992
0.5230003,0.03041076
0.5220003,0.03001224
0.5210003,0.02961373
0.5200003,0.02918456
0.5190003,0.02878605
0.5180003,0.02838754
0.5170003,0.02795837
0.5160003,0.02755986
0.5150003,0.02716134
0.5140003,0.02676283
0.5130003,0.02636432
0.5120003,0.0259658
0.5110003,0.02556729
0.5100003,0.02516878
0.5090003,0.02477027
0.5080003,0.02437175
0.5070003,0.02397324
0.5060003,0.02360538
0.5050003,0.02320687
0.5040003,0.02280836
0.5030003,0.0224405
0.5020003,0.02204199
0.5010003,0.02164347
0.5000003,0.02127562
0.4990003,0.0208771
0.4980003,0.02050925
0.4970003,0.02014139
0.4960003,0.01974287
0.4950003,0.01937502
0.4940003,0.01900716
0.4930003,0.0186393
0.4920003,0.0183021
0.4910003,0.01790359
0.4900003,0.01753573
0.4890003,0.01719853
0.4880003,0.01683067
0.4870003,0.01646281
0.4860003,0.01609495
0.4850003,0.01575775
0.4840003,0.01538989
0.4830003,0.01505269
0.4820003,0.01468483
0.4810003,0.01434763
0.4800003,0.01401042
0.4790003,0.01364256
0.4780003,0.01330536
0.4770003,0.0124797
0.4760003,0.01213943
0.4750003,0.01181755
0.4740003,0.01148954
0.4730003,0.01115847
0.4720003,0.01084273
0.4710003,0.01052392
0.4700003,0.01020511
0.4690003,0.009892429
0.4680003,0.009582815
0.4670003,0.009270136
0.4660003,0.008966654
0.4650003,0.00866317
0.4640003,0.008362753
0.4630003,0.008068467
0.4620003,0.007777246
0.4610003,0.007482959
0.4600003,0.00719787
0.4590003,0.00691278
0.4580003,0.006633821
0.4570003,0.006357928
0.4560003,0.0060851
0.4550003,0.005812271
0.4540003,0.005551706
0.4530003,0.005285008
0.4520003,0.005024442
0.4510003,0.004776138
0.4500003,0.004518638
0.4490003,0.004270334
0.4480003,0.004028161
0.4470003,0.003782922
0.4460003,0.003553011
0.4450003,0.003320034
0.4440003,0.003087058
0.4430003,0.002866343
0.4420003,0.002642563
0.4410003,0.002424913
0.4400003,0.002216461
0.4390003,0.002004942
0.4380003,0.001799555
0.4370003,0.001600299
0.4360003,0.001397977
0.4350003,0.001207917
0.4340003,0.0009843382
0.4330003,0.0007976503
0.4320003,0.0006164802
0.4310003,0.0004343906
0.4300003,0.0002593515
0.4290003,8.553865E-05
0.4280003,-8.704804E-05
0.4270003,-0.0002528398
0.4260003,-0.0004178136
0.4250003,-0.0005781384
0.4240003,-0.0007323321
0.4230003,-0.0008911242
0.4220003,-0.001045318
0.4210003,-0.001192461
0.4200003,-0.001342057
0.4190003,-0.001486441
0.4180003,-0.001631438
0.4170003,-0.001772451
0.4160003,-0.001912543
0.4150003,-0.002056008
0.4140003,-0.002190889
0.4130003,-0.00232669
0.4120003,-0.00246433
0.4110003,-0.002594613
0.4100003,-0.002736545
0.4090003,-0.002876331
0.4080003,-0.003003855
0.4070003,-0.003102152
0.4060003,-0.003230902
0.4050003,-0.003362718
0.4040003,-0.003497599
0.4030003,-0.003626349
0.4020003,-0.00376123
0.4010003,-0.003893046
0.4000003,-0.004027927
0.3990003,-0.004165874
0.3980003,-0.00429769
0.3970003,-0.004435637
0.3960003,-0.004573583
0.3950003,-0.004708464
0.3940003,-0.004849477
0.3930003,-0.004990489
0.3920003,-0.005131501
0.3910003,-0.005278645
0.3900003,-0.005416591
0.3890003,-0.005560669
0.3880003,-0.005707812
0.3870003,-0.005851889
0.3860003,-0.005999033
0.3850003,-0.006146176
0.3840003,-0.006287188
0.3830003,-0.006440463
0.3820003,-0.006587605
0.3810003,-0.006734748
0.3800003,-0.006884957
0.3790003,-0.007032101
0.3780003,-0.007185374
0.3770003,-0.007335583
0.3760003,-0.007485792
0.3750003,-0.007636
0.3740003,-0.007786209
0.3730003,-0.007939483
0.3720003,-0.008089691
0.3710003,-0.008242966
0.3700003,-0.00839624
0.3690003,-0.008543383
0.3680003,-0.008699723
0.3670003,-0.008849931
0.3660003,-0.008994009
0.3650003,-0.009150349
0.3640003,-0.009300557
0.3630003,-0.009441569
0.3620003,-0.009594844
0.3610003,-0.009738921
0.3600003,-0.009876868
0.3590003,-0.01003014
0.3580003,-0.01016809
0.3570003,-0.01029991
0.3560003,-0.01044092
0.3550003,-0.01056967
0.3540003,-0.01069535
0.3530003,-0.01082104
0.3520003,-0.01094059
0.3510003,-0.01105401
0.3500003,-0.01116744
0.3490003,-0.0112686
0.3480003,-0.01136669
0.3470003,-0.01145866
0.3460003,-0.01154449
0.3450003,-0.01162419
0.3440003,-0.0116947
0.3430003,-0.01176214
0.3420003,-0.01182038
0.3410003,-0.01186943
0.3400003,-0.01190928
0.3390003,-0.01194607
0.3380003,-0.01197059
0.3370003,-0.01198592
0.3360003,-0.01199818
0.3350003,-0.01199818
0.3340003,-0.01198899
0.3330003,-0.01197366
0.3320003,-0.01194913
0.3310003,-0.01190928
0.3300003,-0.01187556
0.3290003,-0.01181732
0.3280003,-0.01175601
0.3270003,-0.0116947
0.3260003,-0.01160887
0.3250003,-0.01151997
0.3240003,-0.01142187
0.3230003,-0.01129925
0.3220003,-0.01117663
0.3210003,-0.01103869
0.3200003,-0.01087928
0.3190003,-0.01070761
0.3180003,-0.01052062
0.3170003,-0.01031217
0.3160003,-0.01008839
0.3150003,-0.009849278
0.3140003,-0.009588713
0.3130003,-0.009309754
0.3120003,-0.009015468
0.3110003,-0.008705853
0.3100003,-0.008383978
0.3090003,-0.008052906
0.3080003,-0.007715703
0.3070003,-0.007387696
0.3060003,-0.00705969
0.3050003,-0.006737814
0.3040003,-0.006437397
0.3030003,-0.006152307
0.3020003,-0.005882544
0.3010003,-0.005637306
0.3000003,-0.005407395
0.2990003,-0.005192811
0.2980003,-0.005002751
0.2970003,-0.004818822
0.2960003,-0.00465022
0.2950003,-0.004496946
0.2940003,-0.004355934
0.2930003,-0.004217987
0.2920003,-0.004092303
0.2910003,-0.003972749
0.2900003,-0.003859326
0.2890003,-0.003755099
0.2880003,-0.003657004
0.2870003,-0.003558908
0.2860003,-0.003466944
0.2850003,-0.00338111
0.2840003,-0.003298342
0.2830003,-0.00321864
0.2820003,-0.003145068
0.2810003,-0.003074562
0.2800003,-0.003007122
0.2790003,-0.002945812
0.2780003,-0.002884502
0.2770003,-0.002826258
0.2760003,-0.002774145
0.2750003,-0.002722032
0.2740003,-0.002669919
0.2730003,-0.002623936
0.2720003,-0.002574889
0.2710003,-0.002531972
0.2700003,-0.002489055
0.2690003,-0.002449204
0.2680003,-0.002409352
0.2670003,-0.002369501
0.2660003,-0.002332716
0.2650003,-0.00229593
0.2640003,-0.002262209
0.2630003,-0.002228489
0.2620003,-0.002197834
0.2610003,-0.002167179
0.2600003,-0.002136525
0.2590003,-0.00210587
0.2580003,-0.002075215
0.2570003,-0.002047626
0.2560003,-0.002020036
0.2550003,-0.001992447
0.2540003,-0.001967923
0.2530003,-0.001943399
0.2520003,-0.001918875
0.2510003,-0.001894351
0.2500003,-0.001869828
0.2490003,-0.001848369
0.2480003,-0.001823845
0.2470003,-0.001802387
0.2460003,-0.001780929
0.2450003,-0.00175947
0.2440003,-0.001741077
0.2430003,-0.001719619
0.2420003,-0.001701226
0.2410003,-0.001682833
0.2400003,-0.001661375
0.2390003,-0.001642982
0.2380003,-0.001624589
0.2370003,-0.001609262
0.2360003,-0.001627453
0.2350003,-0.001610593
0.2340003,-0.001594039
0.2330003,-0.001577792
0.2320003,-0.001561545
0.2310003,-0.001545911
0.2300003,-0.001530584
0.2290003,-0.001515563
0.2280003,-0.001500542
0.2270003,-0.001485828
0.2260003,-0.00147142
0.2250003,-0.001457319
0.2240003,-0.001443524
0.2230003,-0.001430343
0.2220003,-0.001416548
0.2210003,-0.001403673
0.2200003,-0.001390798
0.2190003,-0.001378229
0.2180003,-0.001365967
0.2170003,-0.001353706
0.2160003,-0.001341444
0.2150003,-0.001329795
0.2140003,-0.001317839
0.2130003,-0.001306497
0.2120003,-0.001295155
0.2110003,-0.001284119
0.2100003,-0.001273083
0.2090003,-0.001262354
0.2080003,-0.001251318
0.2070003,-0.001240896
0.2060003,-0.001230473
0.2050003,-0.001220664
0.2040003,-0.001210854
0.2030003,-0.001200738
0.2020003,-0.001190928
0.2010003,-0.001181425
0.2000003,-0.001171922
0.1990003,-0.001162726
0.1980003,-0.00115353
0.1970003,-0.00114464
0.1960003,-0.001135443
0.1950003,-0.00112686
0.1940003,-0.001118583
0.1930003,-0.00111
0.1920003,-0.001101723
0.1910003,-0.001093446
0.1900003,-0.001085169
0.1890003,-0.001077199
0.1880003,-0.001069229
0.1870003,-0.001061258
0.1860003,-0.001053595
0.1850003,-0.001045931
0.1840003,-0.001038267
0.1830003,-0.00103091
0.1820003,-0.001023247
0.1810003,-0.001015889
0.1800003,-0.001008839
0.1790003,-0.001001788
0.1780003,-0.000995044
0.1770003,-0.0009879934
0.1760003,-0.0009812494
0.1750003,-0.0009748118
0.1740003,-0.0009677612
0.1730003,-0.0009613237
0.1720003,-0.0009551927
0.1710003,-0.0009484487
0.1700003,-0.0009423177
0.1690003,-0.0009358802
0.1680003,-0.0009297492
0.1670003,-0.0009236183
0.1660003,-0.0009174873
0.1650003,-0.0009116629
0.1640003,-0.0009058384
0.1630003,-0.0009000141
0.1620003,-0.0008941896
0.1610003,-0.0008886718
0.1600003,-0.0008828474
0.1590003,-0.0008773295
0.1580003,-0.0008718116
0.1570003,-0.0008666003
0.1560003,-0.000861389
0.1550003,-0.0008558711
0.1540003,-0.0008506598
0.1530003,-0.0008454485
0.1520003,-0.0008405437
0.1510003,-0.0008353324
0.1500003,-0.0008304276
0.1490003,-0.0008252163
0.1480003,-0.0008203115
0.1470003,-0.0008154067
0.1460003,-0.0008108085
0.1450003,-0.0008059037
0.1440003,-0.0008013055
0.1430003,-0.0007967073
0.1420003,-0.0007918025
0.1410003,-0.0007875108
0.1400003,-0.0007829126
0.1390003,-0.0007783144
0.1380003,-0.0007740227
0.1370003,-0.0007694245
0.1360003,-0.0007651328
0.1350003,-0.0007608412
0.1340003,-0.0007565495
0.1330003,-0.0007525643
0.1320003,-0.0007485792
0.1310003,-0.0007442875
0.1300003,-0.0007403024
0.1290003,-0.0007363172
0.1280003,-0.0007320256
0.1270003,-0.000728347
0.1260003,-0.0007243619
0.1250003,-0.0007203768
0.1240003,-0.0007166982
0.1230003,-0.0007130196
0.1220003,-0.0007090345
0.1210003,-0.0007053559
0.1200003,-0.0007016773
0.1190003,-0.0006979987
0.1180003,-0.0006946267
0.1170003,-0.0006909482
0.1160003,-0.0006872696
0.1150003,-0.0006838975
0.1140003,-0.0006805255
0.1130003,-0.0006771535
0.1120003,-0.0006737814
0.1110003,-0.0006704094
0.1100003,-0.0006670374
0.1090003,-0.0006636653
0.1080003,-0.0006602933
0.1070003,-0.0006569213
0.1060003,-0.0006538558
0.1050003,-0.0006504838
0.1040003,-0.0006474183
0.1030003,-0.0006443528
0.1020003,-0.0006412873
0.1010003,-0.0006382219
0.1000003,-0.0006351563
0.09900028,-0.0006320909
0.09800029,-0.0006290254
0.09700029,-0.0006259599
0.09600028,-0.000623201
0.09500029,-0.0006201355
0.09400029,-0.0006173765
0.09300029,-0.0006146176
0.09200028,-0.0006115522
0.09100029,-0.0006087932
0.09000029,-0.0006060342
0.08900028,-0.0006032753
0.08800028,-0.0006005164
0.08700029,-0.0005977575
0.08600029,-0.0005949985
0.08500028,-0.0005922396
0.08400029,-0.0005897872
0.08300029,-0.0005870283
0.08200029,-0.0005842693
0.08100028,-0.0005818169
0.08000029,-0.0005793645
0.07900029,-0.0005769122
0.07800028,-0.0005744598
0.07700028,-0.0005717009
0.07600029,-0.000569555
0.07500029,-0.0005667961
0.07400028,-0.0005643437
0.07300029,-0.0005618913
0.07200029,-0.0005594389
0.07100029,-0.0005569865
0.07000028,-0.0005548407
0.06900029,-0.0005523883
0.06800029,-0.0005502424
0.06700028,-0.0005477901
0.06600028,-0.0005456443
0.06500029,-0.0005434984
0.06400029,-0.0005413526
0.06300028,-0.0005389001
0.06200029,-0.0005367543
0.06100029,-0.0005346085
0.06000029,-0.0005324627
0.05900029,-0.0005303168
0.05800029,-0.000528171
0.05700029,-0.0005260251
0.05600028,-0.0005238793
0.05500029,-0.0005217335
0.05400028,-0.0005195877
0.05300029,-0.0005174418
0.05200029,-0.0005156025
0.05100029,-0.0005134566
0.05000029,-0.0005116174
0.04900029,-0.0005094716
0.04800029,-0.0005073257
0.04700029,-0.0005054864
0.04600029,-0.0005036471
0.04500028,-0.0005015013
0.04400029,-0.000499662
0.04300028,-0.0004978227
0.04200029,-0.0004959835
0.04100028,-0.0004938376
0.04000029,-0.0004919983
0.03900029,-0.0004904656
0.03800029,-0.0004883197
0.03700029,-0.0004864805
0.03600029,-0.0004846411
0.03500029,-0.0004828018
0.03400028,-0.0004809626
0.03300029,-0.0004791233
0.03200028,-0.000477284
0.03100029,-0.0004757512
0.03000029,-0.000473912
0.02900029,-0.0004720727
0.02800029,-0.0004705399
0.02700029,-0.0004687006
0.02600029,-0.0004671679
0.02500029,-0.0004653286
0.02400029,-0.0004634893
0.02300029,-0.0004619566
0.02200029,-0.0004601173
0.02100029,-0.0004585845
0.02000029,-0.0004567453
0.01900029,-0.0004552125
0.01800029,-0.0004536798
0.01700029,-0.000452147
0.01600029,-0.0004503077
0.01500029,-0.000448775
0.01400029,-0.0004472423
0.01300029,-0.0004457095
0.01200029,-0.0004441768
0.01100029,-0.0004423375
0.01000029,-0.0004411113
0.009000286,-0.000439272
0.008000286,-0.0004377393
0.007000286,-0.0004362065
0.006000286,-0.0004346738
0.005000286,-0.000433141
0.004000286,-0.0004316083
0.003000286,-0.0004300755
0.002000286,-0.0004285428
0.001000286,-0.0004270101
2.861023E-07,-0.0004214922
0.0009997139,-0.0004126023
0.001999714,-0.000404632
0.002999714,-0.0003975815
0.003999714,-0.0003905308
0.004999714,-0.0003843998
0.005999714,-0.0003785754
0.006999714,-0.000372751
0.007999714,-0.0003672332
0.008999714,-0.0003623284
0.009999714,-0.0003571171
0.01099971,-0.0003525188
0.01199971,-0.0003479206
0.01299971,-0.0003433224
0.01399971,-0.0003390307
0.01499971,-0.0003350456
0.01599971,-0.0003307539
0.01699971,-0.0003267688
0.01799971,-0.0003227837
0.01899971,-0.0003191051
0.01999971,-0.0003154265
0.02099971,-0.0003117479
0.02199971,-0.0003083759
0.02299971,-0.0003050039
0.02399971,-0.0003019384
0.02499971,-0.0002985664
0.02599971,-0.0002955009
0.02699971,-0.0002921289
0.02799971,-0.0002893699
0.02899971,-0.0002863044
0.02999971,-0.0002832389
0.03099971,-0.0002801734
0.03199971,-0.0002774145
0.03299971,-0.0002746556
0.03399972,-0.0002718967
0.03499971,-0.0002691377
0.03599972,-0.0002663788
0.03699971,-0.0002639264
0.03799972,-0.0002611674
0.03899971,-0.0002587151
0.03999971,-0.0002562627
0.04099971,-0.0002538103
0.04199971,-0.0002513579
0.04299971,-0.0002489055
0.04399971,-0.0002467597
0.04499971,-0.0002443073
0.04599971,-0.0002421615
0.04699972,-0.0002397091
0.04799971,-0.0002375632
0.04899972,-0.0002354174
0.04999971,-0.0002332716
0.05099971,-0.0002308192
0.05199971,-0.0002286733
0.05299971,-0.0002268341
0.05399971,-0.0002246882
0.05499971,-0.0002225424
0.05599971,-0.0002207031
0.05699971,-0.0002185573
0.05799972,-0.0002164114
0.05899971,-0.0002145721
0.05999972,-0.0002127328
0.06099971,-0.0002108935
0.06199971,-0.0002090542
0.06299971,-0.000207215
0.06399971,-0.0002053757
0.06499971,-0.0002035364
0.06599972,-0.0002016971
0.06699971,-0.0002001643
0.06799971,-0.0001983251
0.06899972,-0.0001964858
0.06999972,-0.000194953
0.07099971,-0.0001931137
0.07199971,-0.000191581
0.07299972,-0.0001900483
0.07399971,-0.000188209
0.07499971,-0.0001866762
0.07599971,-0.0001851435
0.07699972,-0.0001836107
0.07799971,-0.0001817715
0.07899971,-0.0001802387
0.07999972,-0.000178706
0.08099972,-0.0001771732
0.08199971,-0.0001756405
0.08299971,-0.0001741077
0.08399972,-0.000172575
0.08499971,-0.0001713488
0.08599971,-0.0001698161
0.08699971,-0.0001682833
0.08799972,-0.0001670571
0.08899971,-0.0001655244
0.08999971,-0.0001642982
0.09099972,-0.0001627655
0.09199972,-0.0001612327
0.09299971,-0.0001600065
0.09399971,-0.0001620709
0.09499972,-0.0001607834
0.09599971,-0.0001594959
0.09699971,-0.0001582391
0.09799971,-0.0001568902
0.09899972,-0.000155664
0.09999971,-0.0001544072
0.1009997,-0.0001531503
0.1019997,-0.0001518628
0.1029997,-0.0001505447
0.1039997,-0.0001493798
0.1049997,-0.0001480616
0.1059997,-0.0001468661
0.1069997,-0.0001456706
0.1079997,-0.0001445057
0.1089997,-0.0001433102
0.1099997,-0.0001422679
0.1109997,-0.000141103
0.1119997,-0.0001399994
0.1129997,-0.0001389265
0.1139997,-0.0001377616
0.1149997,-0.0001365661
0.1159997,-0.0001354012
0.1169997,-0.0001343589
0.1179997,-0.0001333473
0.1189997,-0.0001322131
0.1199997,-0.0001312015
0.1209997,-0.0001301592
0.1219997,-0.000129117
0.1229997,-0.0001280747
0.1239997,-0.0001269405
0.1249997,-0.0001258675
0.1259997,-0.0001248559
0.1269997,-0.0001238443
0.1279997,-0.000122894
0.1289997,-0.0001219437
0.1299997,-0.0001208708
0.1309997,-0.0001199818
0.1319997,-0.0001190622
0.1329997,-0.0001180812
0.1339997,-0.0001171616
0.1349997,-0.0001162419
0.1359997,-0.000115353
0.1369997,-0.0001144026
0.1379997,-0.000113483
0.1389997,-0.0001125327
0.1399997,-0.0001116437
0.1409997,-0.0001107547
0.1419997,-0.0001098351
0.1429997,-0.0001089767
0.1439997,-0.0001080877
0.1449997,-0.0001072294
0.1459997,-0.0001063404
0.1469997,-0.0001054821
0.1479997,-0.0001046238
0.1489997,-0.0001037654
0.1499997,-0.0001029684
0.1509997,-0.0001021407
0.1519997,-0.0001012517
0.1529997,-0.0001004547
0.1539997,-9.959636E-05
0.1549997,-9.879933E-05
0.1559997,-9.797165E-05
0.1569997,-9.714397E-05
0.1579997,-9.63776E-05
0.1589997,-9.554992E-05
0.1599997,-9.472224E-05
0.1609997,-9.398653E-05
0.1619997,-9.31895E-05
0.1629997,-9.245379E-05
0.1639997,-9.168741E-05
0.1649997,-9.098235E-05
0.1659997,-9.021599E-05
0.1669997,-8.944961E-05
0.1679997,-8.874455E-05
0.1689997,-8.800883E-05
0.1699997,-8.727312E-05
0.1709997,-8.656806E-05
0.1719997,-8.5863E-05
0.1729997,-8.509662E-05
0.1739997,-8.448353E-05
0.1749997,-8.368651E-05
0.1759997,-8.298145E-05
0.1769997,-8.233769E-05
0.1779997,-8.163263E-05
0.1789997,-8.095823E-05
0.1799997,-8.034513E-05
0.1809997,-7.964007E-05
0.1819997,-7.896566E-05
0.1829997,-7.829125E-05
0.1839997,-7.767816E-05
0.1849997,-7.700375E-05
0.1859997,-7.636E-05
0.1869997,-7.565494E-05
0.1879997,-7.50725E-05
0.1889997,-7.439809E-05
0.1899997,-7.384631E-05
0.1909997,-7.323321E-05
0.1919997,-7.25588E-05
0.1929997,-7.194571E-05
0.1939997,-7.133261E-05
0.1949997,-7.068886E-05
0.1959997,-7.004511E-05
0.1969997,-6.946267E-05
0.1979997,-6.888022E-05
0.1989997,-6.820582E-05
0.1999997,-6.765403E-05
0.2009997,-6.697963E-05
0.2019997,-6.636653E-05
0.2029997,-6.581475E-05
0.2039997,-6.514033E-05
0.2049997,-6.452724E-05
0.2059997,-6.39448E-05
0.2069997,-6.330105E-05
0.2079997,-6.281057E-05
0.2089997,-6.222813E-05
0.2099997,-6.158437E-05
0.2109997,-6.112456E-05
0.2119997,-6.04808E-05
0.2129997,-5.995967E-05
0.2139997,-5.946919E-05
0.2149997,-5.888675E-05
0.2159997,-5.842693E-05
0.2169997,-5.79058E-05
0.2179997,-5.732335E-05
0.2189997,-5.680222E-05
0.2199997,-5.621978E-05
0.2209997,-5.5668E-05
0.2219997,-5.514687E-05
0.2229997,-5.453377E-05
0.2239997,-5.395133E-05
0.2249997,-5.343019E-05
0.2259997,-5.293972E-05
0.2269997,-5.238793E-05
0.2279997,-5.180549E-05
0.2289997,-5.134566E-05
0.2299997,-5.088584E-05
0.2309997,-5.03034E-05
0.2319997,-4.981292E-05
0.2329997,-4.932245E-05
0.2339997,-4.883197E-05
0.2349997,-4.84028E-05
0.2359997,-4.788167E-05
0.2369997,-4.736054E-05
0.2379997,-4.690071E-05
0.2389997,-4.637958E-05
0.2399997,-4.585845E-05
0.2409997,-4.542928E-05
0.2419997,-4.490815E-05
0.2429997,-4.438702E-05
0.2439997,-4.389654E-05
0.2449997,-4.340606E-05
0.2459997,-4.291559E-05
0.2469997,-4.233315E-05
0.2479997,-4.187332E-05
0.2489997,-4.132153E-05
0.2499997,-4.083106E-05
0.2509997,-4.037124E-05
0.2519997,-3.988076E-05
0.2529997,-3.945159E-05
0.2539997,-3.896112E-05
0.2549997,-3.843998E-05
0.2559997,-3.807212E-05
0.2569997,-3.7551E-05
0.2579997,-3.712183E-05
0.2589997,-3.672331E-05
0.2599997,-3.620218E-05
0.2609997,-3.571171E-05
0.2619997,-3.528254E-05
0.2629997,-3.479206E-05
0.2639997,-3.427093E-05
0.2649997,-3.374979E-05
0.2659997,-3.319801E-05
0.2669997,-3.27995E-05
0.2679997,-3.230902E-05
0.2689997,-3.187985E-05
0.2699997,-3.142003E-05
0.2709997,-3.092955E-05
0.2719997,-3.050039E-05
0.2729997,-3.007122E-05
0.2739997,-2.964205E-05
0.2749997,-2.921288E-05
0.2759997,-2.87224E-05
0.2769997,-2.823193E-05
0.2779997,-2.77721E-05
0.2789997,-2.725097E-05
0.2799997,-2.685246E-05
0.2809997,-2.630067E-05
0.2819997,-2.571823E-05
0.2829997,-2.531972E-05
0.2839997,-2.48599E-05
0.2849997,-2.436942E-05
0.2859997,-2.39096E-05
0.2869997,-2.341912E-05
0.2879997,-2.292864E-05
0.2889997,-2.249947E-05
0.2899997,-2.203965E-05
0.2909997,-2.157983E-05
0.2919997,-2.10587E-05
0.2929997,-2.059887E-05
0.2939997,-2.004709E-05
0.2949997,-1.94953E-05
0.2959997,-1.900482E-05
0.2969997,-1.851435E-05
0.2979997,-1.802387E-05
0.2989997,-1.756405E-05
0.2999997,-1.704292E-05
0.3009997,-1.655244E-05
0.3019997,-1.609262E-05
0.3029997,-1.557148E-05
0.3039997,-1.508101E-05
0.3049997,-1.446791E-05
0.3059997,-1.385481E-05
0.3069997,-1.327237E-05
0.3079997,-1.278189E-05
0.3089997,-1.258369E-05
0.3099997,-1.204416E-05
0.3109997,-1.155062E-05
0.3119997,-1.098657E-05
0.3129997,-1.045625E-05
0.3139997,-9.919784E-06
0.3149997,-9.364932E-06
0.3159997,-8.690527E-06
0.3169997,-8.095823E-06
0.3179997,-7.403024E-06
0.3189997,-6.743945E-06
0.3199997,-6.23201E-06
0.3209997,-5.563734E-06
0.3219997,-4.9629E-06
0.3229997,-4.377393E-06
0.3239997,-3.69379E-06
0.3249997,-3.08989E-06
0.3259997,-2.473728E-06
0.3269997,-1.682833E-06
0.3279997,-9.777722E-07
0.3289997,-2.665802E-07
0.3299997,4.84463E-07
0.3309997,1.19872E-06
0.3319997,1.943633E-06
0.3329997,2.688545E-06
0.3339997,3.424261E-06
0.3349997,4.172239E-06
0.3359997,4.926347E-06
0.3369997,5.760158E-06
0.3379997,6.600101E-06
0.3389997,7.473763E-06
0.3399997,8.436325E-06
0.3409997,9.355969E-06
0.3419997,1.019285E-05
0.3429997,1.122591E-05
0.3439997,1.21241E-05
0.3449997,1.312038E-05
0.3459997,1.418717E-05
0.3469997,1.515893E-05
0.3479997,1.629009E-05
0.3489997,1.743658E-05
0.3499997,1.861986E-05
0.3509997,1.995947E-05
0.3519997,2.133281E-05
0.3529997,2.26571E-05
0.3539997,2.407029E-05
0.3549997,2.559383E-05
0.3559997,2.703767E-05
0.3569997,2.906194E-05
0.3579997,3.077861E-05
0.3589997,3.264856E-05
0.3599997,3.470243E-05
0.3609997,3.703219E-05
0.3619997,3.948458E-05
0.3629997,4.218221E-05
0.3639997,4.521704E-05
0.3649997,4.868103E-05
0.3659997,5.260485E-05
0.3669997,5.732569E-05
0.3679997,6.284356E-05
0.3689997,6.983286E-05
0.3699997,7.83549E-05
0.3709997,8.896147E-05
0.3719997,0.0001027561
0.3729997,0.0001203214
0.3739997,0.0001426687
0.3749997,0.0001707792
0.3759997,0.0002043769
0.3769997,0.0002443508
0.3779997,0.000290425
0.3789997,0.0003457981
0.3799997,0.0004046554
0.3809997,0.0004690305
0.3819997,0.0005398432
0.3829997,0.0006167868
0.3839997,0.0006998614
0.3849997,0.0007887604
0.3859997,0.0008831773
0.3869997,0.0009818858
0.3879997,0.001085806
0.3889997,0.001191871
0.3899997,0.001302535
0.3909997,0.001416265
0.3919997,0.001529687
0.3929997,0.001645869
0.3939997,0.001760518
0.3949997,0.001874248
0.3959997,0.001988897
0.3969997,0.002098335
0.3979997,0.002207159
0.3989997,0.002312918
0.3999997,0.00241224
0.4009997,0.002513095
0.4019997,0.002607818
0.4029997,0.002699169
0.4039997,0.002791747
0.4049997,0.002877274
0.4059997,0.002962801
0.4069997,0.003077861
0.4079997,0.003157564
0.4089997,0.003243397
0.4099997,0.003332296
0.4109997,0.003411999
0.4119997,0.003497832
0.4129997,0.0035806
0.4139997,0.003663369
0.4149997,0.003749202
0.4159997,0.003835035
0.4169997,0.003917804
0.4179997,0.004009768
0.4189997,0.004098667
0.4199997,0.004187566
0.4209997,0.00427953
0.4219997,0.00437456
0.4229997,0.004466525
0.4239997,0.00456462
0.4249997,0.004662716
0.4259997,0.004763877
0.4269997,0.004868103
0.4279997,0.004969264
0.4289997,0.005073491
0.4299997,0.005186913
0.4309997,0.005294205
0.4319997,0.005407628
0.4329997,0.005527182
0.4339997,0.00564367
0.4349997,0.005763224
0.4359997,0.005891975
0.4369997,0.006014594
0.4379997,0.00614641
0.4389997,0.006284356
0.4399997,0.006413106
0.4409997,0.006557184
0.4419997,0.006701262
0.4429997,0.006842274
0.4439997,0.006998613
0.4449997,0.007151887
0.4459997,0.007305162
0.4469997,0.007470698
0.4479997,0.007636234
0.4489997,0.007807901
0.4499997,0.007982633
0.4509997,0.008160431
0.4519997,0.008341295
0.4529997,0.008531354
0.4539997,0.00872448
0.4549997,0.008920671
0.4559997,0.009122993
0.4569997,0.00932838
0.4579997,0.009539898
0.4589997,0.009757548
0.4599997,0.009978263
0.4609997,0.01020817
0.4619997,0.01044115
0.4629997,0.01067719
0.4639997,0.0109163
0.4649997,0.01117073
0.4659997,0.01141597
0.4669997,0.01167347
0.4679997,0.01194324
0.4689997,0.0122038
0.4699997,0.01247663
0.4709997,0.01276172
0.4719997,0.01303148
0.4729997,0.01332883
0.4739997,0.01362312
0.4749997,0.01390821
0.4759997,0.01422089
0.4769997,0.01452437
0.4779997,0.01482479
0.4789997,0.01514973
0.4799997,0.01546547
0.4809997,0.01578429
0.4819997,0.01611842
0.4829997,0.01644336
0.4839997,0.0167775
0.4849997,0.01711777
0.4859997,0.01745804
0.4869997,0.01779524
0.4879997,0.01814471
0.4889997,0.0185003
0.4899997,0.0188467
0.4909997,0.01920537
0.4919997,0.01957016
0.4929997,0.01991962
0.4939997,0.02029361
0.4949997,0.02065534
0.4959997,0.021014
0.4969997,0.02140025
0.4979997,0.02175891
0.4989997,0.02213597
0.4999997,0.02251608
0.5009997,0.02288088
0.5019997,0.02326406
0.5029997,0.02364725
0.5039997,0.02401511
0.5049997,0.02440442
0.5059997,0.02478454
0.5069997,0.0251616
0.5079997,0.02555704
0.5089997,0.0259341
0.5099997,0.02631115
0.5109997,0.02670967
0.5119997,0.02710205
0.5129997,0.0274883
0.5139997,0.02788681
0.5149997,0.02827
0.5159997,0.02866238
0.5169997,0.02905783
0.5179997,0.02945021
0.5189997,0.02984259
0.5199997,0.0309932
0.5209997,0.03139171
0.5219997,0.03179022
0.5229997,0.03218874
0.5239997,0.03258725
0.5249997,0.03298576
0.5259997,0.03338427
0.5269997,0.03378279
0.5279997,0.0341813
0.5289997,0.03461047
0.5299997,0.03497833
0.5309997,0.03537684
0.5319997,0.035806
0.5329997,0.03620452
0.5339997,0.03663369
0.5349997,0.0370322
0.5359997,0.03743071
0.5369997,0.03782922
0.5379997,0.03828905
0.5389997,0.03868756
0.5399997,0.03908607
0.5409997,0.03951524
0.5419997,0.03991375
0.5429997,0.04034292
0.5439997,0.04077209
0.5449997,0.0411706
0.5459997,0.04159977
0.5469997,0.04199828
0.5479997,0.0423968
0.5489997,0.04285662
0.5499997,0.04325513
0.5509997,0.04365364
0.5519997,0.04411346
0.5529997,0.04451197
0.5539997,0.04494114
0.5549997,0.04537031
0.5559997,0.04579948
0.5569997,0.04619799
0.5579997,0.04665781
0.5589997,0.04705633
0.5599997,0.04748549
0.5609997,0.04794532
0.5619997,0.04834383
0.5629997,0.048773
0.5639997,0.04923282
0.5649997,0.04963133
0.5659997,0.0500605
0.5669997,0.05048966
0.5679997,0.05091884
0.5689997,0.05137866
0.5699997,0.05177717
0.5709997,0.05220634
0.5719997,0.0526355
0.5729997,0.05306467
0.5739997,0.05349384
0.5749997,0.05395366
0.5759997,0.05435218
0.5769997,0.054812
0.5779997,0.05527182
0.5789997,0.05567033
0.5799997,0.05613015
0.5809997,0.05655932
0.5819997,0.05701914
0.5829997,0.05744831
0.5839997,0.05787748
0.5849997,0.05830665
0.5859997,0.05873581
0.5869997,0.05919564
0.5879997,0.0596248
0.5889997,0.06005397
0.5899997,0.06051379
0.5909997,0.06094296
0.5919997,0.06140279
0.5929997,0.06183195
0.5939997,0.06229177
0.5949997,0.0627516
0.5959997,0.06318077
0.5969997,0.06360994
0.5979997,0.06406976
0.5989997,0.06449892
0.5999997,0.06495874
0.6009997,0.06541856
0.6019997,0.06584774
0.6029997,0.0662769
0.6039997,0.06673672
0.6049997,0.06719655
0.6059997,0.06762572
0.6069997,0.06808554
0.6079997,0.0685147
0.6089997,0.06897452
0.6099997,0.069465
0.6109997,0.06989417
0.6119997,0.07035399
0.6129997,0.07081382
0.6139997,0.07124298
0.6149997,0.07170281
0.6159997,0.07216263
0.6169997,0.0725918
0.6179997,0.07305162
0.6189997,0.07351144
0.6199997,0.0739406
0.6209997,0.07440043
0.6219997,0.07486025
0.6229997,0.07532008
0.6239997,0.0757799
0.6249997,0.07620906
0.6259997,0.07666889
0.6269997,0.07712871
0.6279997,0.07758854
0.6289997,0.07804836
0.6299997,0.07850818
0.6309997,0.07893734
0.6319997,0.07939716
0.6329997,0.07985699
0.6339997,0.08031681
0.6349997,0.08077663
0.6359997,0.08123646
0.6369997,0.08166563
0.6379997,0.0820948
0.6389997,0.08258527
0.6399997,0.08301444
0.6409997,0.08350492
0.6419997,0.08396474
0.6429997,0.08442456
0.6439997,0.08485373
0.6449997,0.0853442
0.6459997,0.08580403
0.6469997,0.08623319
0.6479997,0.08669301
0.6489997,0.08715284
0.6499997,0.08764332
0.6509997,0.08807249
0.6519997,0.08856296
0.6529997,0.08905344
0.6539997,0.08948261
0.6549997,0.08994243
0.6559997,0.0904329
0.6569997,0.09089272
0.6579997,0.09132189
0.6589997,0.09184303
0.6599997,0.09224154
0.6609997,0.09270137
0.6619997,0.09322249
0.6629997,0.09365166
0.6639997,0.09414214
0.6649997,0.09463262
0.6659997,0.09503113
0.6669997,0.09552161
0.6679997,0.09598143
0.6689997,0.09644125
0.6699997,0.09690107
0.6709997,0.09733024
0.6719997,0.09779006
0.6729997,0.09828054
0.6739997,0.09874036
0.6749997,0.09916953
0.6759997,0.09966001
0.6769997,0.1001198
0.6779997,0.1005796
0.6789997,0.1010701
0.6799997,0.1015299
0.6809997,0.1019898
0.6819997,0.1024802
0.6829997,0.1029401
0.6839997,0.1033999
0.6849997,0.1038597
0.6859997,0.1043195
0.6869997,0.10481
0.6879997,0.1053005
0.6889997,0.1057603
0.6899997,0.1062201
0.6909997,0.10668
0.6919997,0.1071091
0.6929997,0.1075996
0.6939997,0.1080594
0.6949997,0.1085499
0.6959997,0.1090404
0.6969997,0.1094695
0.6979997,0.1099294
0.6989997,0.1103892
0.6999997,0.1104505
0.6990004,0.10996
0.6980004,0.1095615
0.6970004,0.1091017
0.6960004,0.1086419
0.6950004,0.1081514
0.6940004,0.1076609
0.6930004,0.1071704
0.6920004,0.1067106
0.6910004,0.1062508
0.6900004,0.1058523
0.6890004,0.1053311
0.6880004,0.1048407
0.6870004,0.1043808
0.6860004,0.103921
0.6850004,0.1033999
0.6840004,0.1029707
0.6830004,0.1024802
0.6820004,0.1019898
0.6810004,0.1015299
0.6800004,0.1010395
0.6790004,0.100549
0.6780004,0.1001198
0.6770004,0.09962936
0.6760004,0.09913888
0.6750004,0.09870971
0.6740004,0.09821923
0.6730004,0.09772875
0.6720004,0.09726893
0.6710004,0.09680911
0.6700004,0.09634929
0.6690004,0.09588946
0.6680004,0.09539898
0.6670004,0.09493916
0.6660004,0.09444869
0.6650004,0.09395821
0.6640004,0.09349839
0.6630004,0.09300791
0.6620004,0.09254809
0.6610004,0.09208827
0.6600004,0.09162845
0.6590004,0.09116862
0.6580004,0.0907088
0.6570004,0.09021832
0.6560004,0.0897585
0.6550004,0.08929868
0.6540004,0.08883885
0.6530004,0.08834838
0.6520004,0.08791921
0.6510004,0.08742873
0.6500004,0.08696891
0.6490004,0.08650909
0.6480004,0.08604927
0.6470004,0.08555879
0.6460004,0.08512962
0.6450004,0.08463915
0.6440004,0.08417932
0.6430004,0.08368885
0.6420004,0.08322902
0.6410004,0.08273854
0.6400004,0.08230938
0.6390004,0.0818189
0.6380004,0.08135908
0.6370004,0.08092991
0.6360004,0.08043943
0.6350004,0.07997961
0.6340004,0.07955044
0.6330004,0.07905997
0.6320004,0.07860014
0.6310004,0.07814032
0.6300004,0.0776805
0.6290004,0.07722067
0.6280004,0.07676085
0.6270004,0.07630103
0.6260004,0.07584121
0.6250004,0.07538139
0.6240004,0.07492156
0.6230004,0.07449239
0.6220004,0.07400192
0.6210004,0.07351144
0.6200004,0.07308228
0.6190004,0.07262245
0.6180004,0.07216263
0.6170004,0.07170281
0.6160004,0.07124298
0.6150004,0.07081382
0.6140004,0.07032334
0.6130004,0.06986352
0.6120004,0.0694037
0.6110004,0.06894387
0.6100004,0.06848405
0.6090004,0.06802423
0.6080004,0.06759506
0.6070004,0.06710459
0.6060004,0.06667542
0.6050004,0.0662156
0.6040004,0.06575577
0.6030004,0.0653266
0.6020004,0.06486678
0.6010004,0.06440695
0.6000004,0.06397779
0.5990004,0.06351797
0.5980004,0.06305815
0.5970004,0.06262898
0.5960004,0.06216915
0.5950004,0.06170933
0.5940004,0.06124951
0.5930004,0.06078969
0.5920004,0.06032987
0.5910004,0.0599007
0.5900004,0.05944088
0.5890004,0.05901171
0.5880004,0.05855189
0.5870004,0.05809207
0.5860004,0.05766289
0.5850004,0.05720307
0.5840004,0.05677391
0.5830004,0.05631408
0.5820004,0.05588492
0.5810004,0.0554251
0.5800004,0.05499592
0.5790004,0.05456676
0.5780004,0.05407628
0.5770004,0.05364711
0.5760004,0.05318729
0.5750004,0.05275812
0.5740004,0.05232896
0.5730004,0.05186913
0.5720004,0.05143997
0.5710004,0.05098015
0.5700004,0.05055097
0.5690004,0.05012181
0.5680004,0.04969264
0.5670004,0.04923282
0.5660004,0.04880365
0.5650004,0.04837449
0.5640004,0.04791466
0.5630004,0.04748549
0.5620004,0.04705633
0.5610004,0.0465965
0.5600004,0.04616734
0.5590004,0.04573817
0.5580004,0.045309
0.5570004,0.04484918
0.5560004,0.04442001
0.5550004,0.04399084
0.5540004,0.04356168
0.5530004,0.04313251
0.5520004,0.04270334
0.5510004,0.04227417
0.5500004,0.04184501
0.5490004,0.04141584
0.5480004,0.04098667
0.5470004,0.0405575
0.5460004,0.04012834
0.5450004,0.03972982
0.5440004,0.03927
0.5430004,0.03884083
0.5420004,0.03844232
0.5410004,0.03801315
0.5400004,0.03755333
0.5390004,0.03715482
0.5380004,0.03672565
0.5370004,0.03629648
0.5360004,0.03589797
0.5350004,0.0354688
0.5340004,0.03503963
0.5330004,0.03464112
0.5320004,0.03421196
0.5310004,0.03381344
0.5300004,0.03338427
0.5290004,0.03298576
0.5280004,0.03258725
0.5270004,0.03215808
0.5260004,0.03175957
0.5250004,0.0313304
0.5240004,0.03093189
0.5230004,0.03050272
0.5220004,0.03010421
0.5210004,0.02970569
0.5200004,0.02927653
0.5190004,0.02887801
0.5180004,0.0284795
0.5170004,0.02808099
0.5160004,0.02768247
0.5150004,0.02728396
0.5140004,0.02688545
0.5130004,0.02648694
0.5120004,0.02608843
0.5110004,0.02568991
0.5100004,0.0252914
0.5090004,0.02489289
0.5080004,0.02449437
0.5070004,0.02412652
0.5060004,0.023728
0.5050004,0.02332949
0.5040004,0.02293098
0.5030004,0.02256312
0.5020004,0.02216461
0.5010004,0.02179675
0.5000004,0.02139824
0.4990004,0.02099972
0.4980004,0.02063187
0.4970004,0.02026401
0.4960004,0.01989615
0.4950004,0.01952829
0.4940004,0.01912978
0.4930004,0.01879258
0.4920004,0.01842472
0.4910004,0.01805686
0.4900004,0.017689
0.4890004,0.01732115
0.4880004,0.01695329
0.4870004,0.01661608
0.4860004,0.01624822
0.4850004,0.01588037
0.4840004,0.01554316
0.4830004,0.01520596
0.4820004,0.0148381
0.4810004,0.0145009
0.4800004,0.01413304
0.4790004,0.01379584
0.4780004,0.01345864
0.4770004,0.01312143
0.4760004,0.0122927
0.4750004,0.01197082
0.4740004,0.01163669
0.4730004,0.01131481
0.4720004,0.01099907
0.4710004,0.01067413
0.4700004,0.01036145
0.4690004,0.01004877
0.4680004,0.009729958
0.4670004,0.009429541
0.4660004,0.009119927
0.4650004,0.008816444
0.4640004,0.008522158
0.4630004,0.008218676
0.4620004,0.00793052
0.4610004,0.0076393
0.4600004,0.007348078
0.4590004,0.00706912
0.4580004,0.006787095
0.4570004,0.006508136
0.4560004,0.006238374
0.4550004,0.005965546
0.4540004,0.005695784
0.4530004,0.005435218
0.4520004,0.005174651
0.4510004,0.004920216
0.4500004,0.004668847
0.4490004,0.004420543
0.4480004,0.004172239
0.4470004,0.003930065
0.4460004,0.003697089
0.4450004,0.003461046
0.4440004,0.003231135
0.4430004,0.003007355
0.4420004,0.002780509
0.4410004,0.00256286
0.4400004,0.002348276
0.4390004,0.002133693
0.4380004,0.001928305
0.4370004,0.001729049
0.4360004,0.001526727
0.4350004,0.001333602
0.4340004,0.001140476
0.4330004,0.0009196565
0.4320004,0.0007366472
0.4310004,0.0005521051
0.4300004,0.0003761464
0.4290004,0.0001998811
0.4280004,2.637483E-05
0.4270004,-0.0001426051
0.4260004,-0.0003086623
0.4250004,-0.0004705399
0.4240004,-0.0006281057
0.4230004,-0.0007884305
0.4220004,-0.0009417046
0.4210004,-0.00109314
0.4200004,-0.001244574
0.4190004,-0.001388345
0.4180004,-0.001536102
0.4170004,-0.001679873
0.4160004,-0.001819352
0.4150004,-0.001963737
0.4140004,-0.002099844
0.4130004,-0.002236258
0.4120004,-0.002375431
0.4110004,-0.00250786
0.4100004,-0.002649485
0.4090004,-0.002789578
0.4080004,-0.002918634
0.4070004,-0.003053822
0.4060004,-0.003148134
0.4050004,-0.00327995
0.4040004,-0.003414831
0.4030004,-0.003543581
0.4020004,-0.003678462
0.4010004,-0.003813344
0.4000004,-0.003945159
0.3990004,-0.004083106
0.3980004,-0.004214922
0.3970004,-0.004352869
0.3960004,-0.004490815
0.3950004,-0.004625696
0.3940004,-0.004766709
0.3930004,-0.004907721
0.3920004,-0.005045668
0.3910004,-0.005192811
0.3900004,-0.005333823
0.3890004,-0.0054779
0.3880004,-0.005625044
0.3870004,-0.005766056
0.3860004,-0.005913199
0.3850004,-0.006060342
0.3840004,-0.00620442
0.3830004,-0.006354629
0.3820004,-0.006501772
0.3810004,-0.00665198
0.3800004,-0.006802189
0.3790004,-0.006949332
0.3780004,-0.007102606
0.3770004,-0.007255881
0.3760004,-0.007403024
0.3750004,-0.007556298
0.3740004,-0.007709572
0.3730004,-0.007856715
0.3720004,-0.008013055
0.3710004,-0.008169394
0.3700004,-0.008319603
0.3690004,-0.008472877
0.3680004,-0.008626151
0.3670004,-0.00877636
0.3660004,-0.008929634
0.3650004,-0.009082908
0.3640004,-0.009230051
0.3630004,-0.00938026
0.3620004,-0.009530468
0.3610004,-0.00967148
0.3600004,-0.009818624
0.3590004,-0.009962701
0.3580004,-0.01009758
0.3570004,-0.0102386
0.3560004,-0.01037348
0.3550004,-0.01049916
0.3540004,-0.01063098
0.3530004,-0.01074747
0.3520004,-0.01086395
0.3510004,-0.01098044
0.3500004,-0.01107854
0.3490004,-0.01118276
0.3480004,-0.01128086
0.3470004,-0.01136363
0.3460004,-0.01145253
0.3450004,-0.01152916
0.3440004,-0.01159047
0.3430004,-0.01166098
0.3420004,-0.01171003
0.3410004,-0.01175294
0.3400004,-0.0117928
0.3390004,-0.01182345
0.3380004,-0.01184184
0.3370004,-0.01186024
0.3360004,-0.0118633
0.3350004,-0.01186024
0.3340004,-0.01184797
0.3330004,-0.01182652
0.3320004,-0.01179586
0.3310004,-0.01175907
0.3300004,-0.01171309
0.3290004,-0.01165791
0.3280004,-0.01159354
0.3270004,-0.0115169
0.3260004,-0.01144026
0.3250004,-0.01134523
0.3240004,-0.01123488
0.3230004,-0.01111532
0.3220004,-0.01098351
0.3210004,-0.0108333
0.3200004,-0.01067083
0.3190004,-0.0104961
0.3180004,-0.01029377
0.3170004,-0.01007919
0.3160004,-0.009849278
0.3150004,-0.009594844
0.3140004,-0.009325081
0.3130004,-0.009046122
0.3120004,-0.008739574
0.3110004,-0.008423829
0.3100004,-0.008098888
0.3090004,-0.007761685
0.3080004,-0.007430613
0.3070004,-0.007105672
0.3060004,-0.006783796
0.3050004,-0.006480313
0.3040004,-0.006192158
0.3030004,-0.005922395
0.3020004,-0.005671026
0.3010004,-0.005441115
0.3000004,-0.005229597
0.2990004,-0.00503034
0.2980004,-0.004852542
0.2970004,-0.004680875
0.2960004,-0.004527601
0.2950004,-0.004386589
0.2940004,-0.004251707
0.2930004,-0.004126023
0.2920004,-0.0040126
0.2910004,-0.003899177
0.2900004,-0.003794951
0.2890004,-0.003696855
0.2880004,-0.003601825
0.2870004,-0.003509861
0.2860004,-0.003427093
0.2850004,-0.003344325
0.2840004,-0.003267688
0.2830004,-0.003191051
0.2820004,-0.003120545
0.2810004,-0.003053104
0.2800004,-0.002988729
0.2790004,-0.002927419
0.2780004,-0.00287224
0.2770004,-0.002817062
0.2760004,-0.002764949
0.2750004,-0.002715901
0.2740004,-0.002666853
0.2730004,-0.002620871
0.2720004,-0.002574889
0.2710004,-0.002535037
0.2700004,-0.00249212
0.2690004,-0.002452269
0.2680004,-0.002415484
0.2670004,-0.002375632
0.2660004,-0.002341912
0.2650004,-0.002305126
0.2640004,-0.002271406
0.2630004,-0.002240751
0.2620004,-0.002207031
0.2610004,-0.002176376
0.2600004,-0.002148786
0.2590004,-0.002118132
0.2580004,-0.002090542
0.2570004,-0.002062953
0.2560004,-0.002035364
0.2550004,-0.00201084
0.2540004,-0.00198325
0.2530004,-0.001958727
0.2520004,-0.001934203
0.2510004,-0.001909679
0.2500004,-0.00188822
0.2490004,-0.001866762
0.2480004,-0.001845304
0.2470004,-0.00182078
0.2460004,-0.001799321
0.2450004,-0.001780929
0.2440004,-0.00175947
0.2430004,-0.001741077
0.2420004,-0.001722684
0.2410004,-0.001701226
0.2400004,-0.001682833
0.2390004,-0.00166444
0.2380004,-0.001646047
0.2370004,-0.001627655
0.2360004,-0.001612327
0.2350004,-0.001631132
0.2340004,-0.001614578
0.2330004,-0.001598331
0.2320004,-0.001582391
0.2310004,-0.001566757
0.2300004,-0.001551123
0.2290004,-0.001536102
0.2280004,-0.001521387
0.2270004,-0.001506673
0.2260004,-0.001492572
0.2250004,-0.001478471
0.2240004,-0.001464369
0.2230004,-0.001450881
0.2220004,-0.0014377
0.2210004,-0.001424518
0.2200004,-0.001411643
0.2190004,-0.001399075
0.2180004,-0.001386506
0.2170004,-0.001374551
0.2160004,-0.001361982
0.2150004,-0.001350027
0.2140004,-0.001338072
0.2130004,-0.001326729
0.2120004,-0.001315387
0.2110004,-0.001304351
0.2100004,-0.001293316
0.2090004,-0.001282586
0.2080004,-0.001271857
0.2070004,-0.001261128
0.2060004,-0.001250705
0.2050004,-0.001240896
0.2040004,-0.00123078
0.2030004,-0.00122097
0.2020004,-0.001211161
0.2010004,-0.001201351
0.2000004,-0.001191848
0.1990004,-0.001182345
0.1980004,-0.001173149
0.1970004,-0.001163952
0.1960004,-0.001155369
0.1950004,-0.001146479
0.1940004,-0.001137589
0.1930004,-0.001129006
0.1920004,-0.001120729
0.1910004,-0.001112452
0.1900004,-0.001104175
0.1890004,-0.001095898
0.1880004,-0.001087928
0.1870004,-0.001079958
0.1860004,-0.001072294
0.1850004,-0.001064631
0.1840004,-0.001056967
0.1830004,-0.00104961
0.1820004,-0.001042253
0.1810004,-0.001034895
0.1800004,-0.001027538
0.1790004,-0.001020181
0.1780004,-0.001013131
0.1770004,-0.001006386
0.1760004,-0.0009993357
0.1750004,-0.0009925916
0.1740004,-0.0009858476
0.1730004,-0.00097941
0.1720004,-0.0009729725
0.1710004,-0.000966535
0.1700004,-0.0009600975
0.1690004,-0.0009539665
0.1680004,-0.0009478356
0.1670004,-0.0009417046
0.1660004,-0.0009352671
0.1650004,-0.0009297492
0.1640004,-0.0009236183
0.1630004,-0.0009177938
0.1620004,-0.0009119695
0.1610004,-0.0009064515
0.1600004,-0.0009006272
0.1590004,-0.0008948027
0.1580004,-0.0008895915
0.1570004,-0.000883767
0.1560004,-0.0008785557
0.1550004,-0.0008730378
0.1540004,-0.0008678265
0.1530004,-0.0008626151
0.1520004,-0.0008574039
0.1510004,-0.000852499
0.1500004,-0.0008472878
0.1490004,-0.000842383
0.1480004,-0.0008374782
0.1470004,-0.0008325735
0.1460004,-0.0008276686
0.1450004,-0.0008230705
0.1440004,-0.0008184722
0.1430004,-0.000813874
0.1420004,-0.0008092758
0.1410004,-0.0008046775
0.1400004,-0.0008000793
0.1390004,-0.0007954811
0.1380004,-0.0007908829
0.1370004,-0.0007865912
0.1360004,-0.0007822995
0.1350004,-0.0007780078
0.1340004,-0.0007737162
0.1330004,-0.000769731
0.1320004,-0.0007654394
0.1310004,-0.0007611477
0.1300004,-0.0007571626
0.1290004,-0.000753484
0.1280004,-0.0007491923
0.1270004,-0.0007452072
0.1260004,-0.0007412221
0.1250004,-0.0007375435
0.1240004,-0.0007335583
0.1230004,-0.0007295733
0.1220004,-0.0007258946
0.1210004,-0.000722216
0.1200004,-0.0007185375
0.1190004,-0.0007148589
0.1180004,-0.0007111803
0.1170004,-0.0007078083
0.1160004,-0.0007041298
0.1150004,-0.0007007577
0.1140004,-0.0006970791
0.1130004,-0.0006937071
0.1120004,-0.0006900285
0.1110004,-0.0006866565
0.1100004,-0.0006832844
0.1090004,-0.000680219
0.1080004,-0.0006768469
0.1070004,-0.0006734749
0.1060004,-0.0006704094
0.1050004,-0.000667344
0.1040004,-0.0006639719
0.1030004,-0.0006609064
0.1020004,-0.0006578409
0.1010004,-0.0006547754
0.1000004,-0.00065171
0.09900038,-0.0006486445
0.09800038,-0.000645579
0.09700038,-0.0006425135
0.09600038,-0.000639448
0.09500038,-0.0006366891
0.09400038,-0.0006336236
0.09300038,-0.0006305581
0.09200038,-0.0006277992
0.09100038,-0.0006250403
0.09000038,-0.0006219748
0.08900038,-0.0006192158
0.08800038,-0.0006167634
0.08700038,-0.0006140045
0.08600038,-0.0006112456
0.08500038,-0.0006084866
0.08400038,-0.0006060342
0.08300038,-0.0006032753
0.08200038,-0.0006005164
0.08100038,-0.000598064
0.08000038,-0.0005953051
0.07900038,-0.0005928527
0.07800038,-0.0005904003
0.07700038,-0.000587948
0.07600038,-0.0005854955
0.07500038,-0.0005827366
0.07400038,-0.0005805907
0.07300038,-0.0005781384
0.07200038,-0.000575686
0.07100038,-0.0005732336
0.07000038,-0.0005707812
0.06900038,-0.0005683288
0.06800038,-0.000566183
0.06700038,-0.0005634241
0.06600038,-0.0005612782
0.06500039,-0.0005591324
0.06400038,-0.00055668
0.06300038,-0.0005545341
0.06200038,-0.0005520818
0.06100038,-0.0005499359
0.06000038,-0.0005477901
0.05900038,-0.0005456443
0.05800038,-0.0005431919
0.05700038,-0.000541046
0.05600038,-0.0005389001
0.05500038,-0.0005367543
0.05400038,-0.0005349151
0.05300038,-0.0005324627
0.05200038,-0.0005303168
0.05100038,-0.0005284776
0.05000038,-0.0005263317
0.04900038,-0.0005241859
0.04800038,-0.0005223466
0.04700038,-0.0005202008
0.04600038,-0.0005180549
0.04500038,-0.0005162156
0.04400038,-0.0005143763
0.04300038,-0.0005122305
0.04200038,-0.0005100847
0.04100038,-0.0005082454
0.04000038,-0.0005060995
0.03900038,-0.0005042602
0.03800038,-0.0005024209
0.03700038,-0.0005002751
0.03600038,-0.0004987424
0.03500038,-0.0004965966
0.03400038,-0.0004944507
0.03300038,-0.0004926114
0.03200038,-0.0004907721
0.03100038,-0.0004889328
0.03000038,-0.0004870935
0.02900038,-0.0004849477
0.02800038,-0.0004831084
0.02700038,-0.0004812691
0.02600038,-0.0004794298
0.02500038,-0.0004775905
0.02400038,-0.0004754447
0.02300038,-0.0004736054
0.02200038,-0.0004717661
0.02100038,-0.0004699268
0.02000038,-0.0004680876
0.01900038,-0.0004662482
0.01800038,-0.0004647155
0.01700038,-0.0004628762
0.01600038,-0.000461037
0.01500038,-0.0004591976
0.01400038,-0.0004573583
0.01300038,-0.0004555191
0.01200038,-0.0004539863
0.01100038,-0.000452147
0.01000038,-0.0004503077
0.009000381,-0.000448775
0.008000381,-0.0004469357
0.007000382,-0.0004450964
0.006000381,-0.0004435637
0.005000381,-0.0004417244
0.004000382,-0.0004401917
0.003000381,-0.0004386589
0.002000381,-0.000436513
0.001000381,-0.0004349803
3.814697E-07,-0.0004291559
0.0009996186,-0.0004199595
0.001999618,-0.0004116826
0.002999618,-0.0004043255
0.003999618,-0.0003969684
0.004999619,-0.0003905308
0.005999619,-0.0003843998
0.006999618,-0.0003785754
0.007999619,-0.000372751
0.008999619,-0.0003675397
0.009999619,-0.0003623284
0.01099962,-0.0003571171
0.01199962,-0.0003522123
0.01299962,-0.0003476141
0.01399962,-0.0003430158
0.01499962,-0.0003387242
0.01599962,-0.000334739
0.01699962,-0.0003304474
0.01799962,-0.0003264622
0.01899962,-0.0003224771
0.01999962,-0.0003187985
0.02099962,-0.0003148134
0.02199962,-0.0003111348
0.02299962,-0.0003077628
0.02399962,-0.0003043908
0.02499962,-0.0003010187
0.02599962,-0.0002979533
0.02699962,-0.0002945812
0.02799962,-0.0002912092
0.02899962,-0.0002884502
0.02999962,-0.0002850782
0.03099962,-0.0002823193
0.03199962,-0.0002795603
0.03299962,-0.0002764949
0.03399962,-0.0002737359
0.03499962,-0.000270977
0.03599962,-0.000268218
0.03699962,-0.0002654591
0.03799962,-0.0002630067
0.03899962,-0.0002602478
0.03999962,-0.0002577954
0.04099962,-0.000255343
0.04199962,-0.0002525841
0.04299962,-0.0002504383
0.04399962,-0.0002479859
0.04499962,-0.0002455335
0.04599962,-0.0002430811
0.04699962,-0.0002409353
0.04799962,-0.0002384829
0.04899962,-0.000236337
0.04999962,-0.0002341912
0.05099962,-0.0002320454
0.05199962,-0.0002298995
0.05299962,-0.0002277537
0.05399962,-0.0002256079
0.05499962,-0.000223462
0.05599962,-0.0002216227
0.05699962,-0.0002194769
0.05799962,-0.0002176376
0.05899962,-0.0002157983
0.05999962,-0.0002136525
0.06099962,-0.0002118132
0.06199962,-0.0002099739
0.06299962,-0.0002081346
0.06399962,-0.0002062953
0.06499962,-0.000204456
0.06599962,-0.0002026167
0.06699962,-0.0002007774
0.06799962,-0.0001989382
0.06899962,-0.0001974054
0.06999962,-0.0001958727
0.07099961,-0.0001940334
0.07199962,-0.0001921941
0.07299962,-0.0001906613
0.07399962,-0.0001891286
0.07499962,-0.0001875959
0.07599962,-0.0001860631
0.07699962,-0.0001845304
0.07799962,-0.0001826911
0.07899962,-0.0001811584
0.07999962,-0.0001796256
0.08099962,-0.0001780929
0.08199961,-0.0001765601
0.08299962,-0.0001750274
0.08399962,-0.0001734946
0.08499962,-0.0001722685
0.08599962,-0.0001707357
0.08699962,-0.000169203
0.08799962,-0.0001676702
0.08899962,-0.000166444
0.08999962,-0.0001649113
0.09099962,-0.0001636851
0.09199962,-0.0001621524
0.09299962,-0.0001609262
0.09399962,-0.0001628066
0.09499962,-0.0001615191
0.09599962,-0.0001602009
0.09699962,-0.0001589441
0.09799962,-0.0001576566
0.09899962,-0.0001563691
0.09999962,-0.000154959
0.1009996,-0.0001537328
0.1019996,-0.0001524759
0.1029996,-0.0001512804
0.1039996,-0.0001501768
0.1049996,-0.0001488893
0.1059996,-0.0001476018
0.1069996,-0.0001464063
0.1079996,-0.0001451801
0.1089996,-0.0001440152
0.1099996,-0.0001429116
0.1109996,-0.0001418387
0.1119996,-0.0001407352
0.1129996,-0.0001396009
0.1139996,-0.0001384054
0.1149996,-0.0001372405
0.1159996,-0.0001360756
0.1169996,-0.0001350027
0.1179996,-0.0001339604
0.1189996,-0.0001328875
0.1199996,-0.0001318452
0.1209996,-0.0001307417
0.1219996,-0.0001297914
0.1229996,-0.0001287491
0.1239996,-0.0001277068
0.1249996,-0.0001266646
0.1259996,-0.000125653
0.1269996,-0.0001246107
0.1279996,-0.0001235378
0.1289996,-0.0001225568
0.1299996,-0.0001215759
0.1309996,-0.0001205949
0.1319996,-0.0001196446
0.1329996,-0.0001186637
0.1339996,-0.0001176827
0.1349996,-0.0001167937
0.1359996,-0.0001158434
0.1369996,-0.0001148931
0.1379996,-0.0001140654
0.1389996,-0.0001131458
0.1399996,-0.0001121955
0.1409996,-0.0001113372
0.1419996,-0.0001104482
0.1429996,-0.0001095285
0.1439996,-0.0001086702
0.1449996,-0.0001077199
0.1459996,-0.0001067389
0.1469996,-0.0001060032
0.1479996,-0.0001050836
0.1489996,-0.0001042559
0.1499996,-0.0001034282
0.1509996,-0.0001026005
0.1519996,-0.0001018342
0.1529996,-0.0001010678
0.1539996,-0.0001002401
0.1549996,-9.941243E-05
0.1559996,-9.858475E-05
0.1569996,-9.769576E-05
0.1579996,-9.686808E-05
0.1589996,-9.60404E-05
0.1599996,-9.527403E-05
0.1609996,-9.444635E-05
0.1619996,-9.371064E-05
0.1629996,-9.300557E-05
0.1639996,-9.22392E-05
0.1649996,-9.15648E-05
0.1659996,-9.073711E-05
0.1669996,-9.000141E-05
0.1679996,-8.917372E-05
0.1689996,-8.840735E-05
0.1699996,-8.764098E-05
0.1709996,-8.696657E-05
0.1719996,-8.62002E-05
0.1729996,-8.55258E-05
0.1739996,-8.479008E-05
0.1749996,-8.411567E-05
0.1759996,-8.347192E-05
0.1769996,-8.27362E-05
0.1779996,-8.200049E-05
0.1789996,-8.129543E-05
0.1799996,-8.046775E-05
0.1809996,-7.9824E-05
0.1819996,-7.918024E-05
0.1829996,-7.847519E-05
0.1839996,-7.783144E-05
0.1849996,-7.721834E-05
0.1859996,-7.657459E-05
0.1869996,-7.596148E-05
0.1879996,-7.525643E-05
0.1889996,-7.464333E-05
0.1899996,-7.406089E-05
0.1909996,-7.332517E-05
0.1919996,-7.265077E-05
0.1929996,-7.197636E-05
0.1939996,-7.130195E-05
0.1949996,-7.068886E-05
0.1959996,-7.007576E-05
0.1969996,-6.946267E-05
0.1979996,-6.888022E-05
0.1989996,-6.826713E-05
0.1999996,-6.768468E-05
0.2009996,-6.707159E-05
0.2019996,-6.65198E-05
0.2029996,-6.590671E-05
0.2039996,-6.526295E-05
0.2049996,-6.45579E-05
0.2059996,-6.39448E-05
0.2069996,-6.339301E-05
0.2079996,-6.284122E-05
0.2089996,-6.225878E-05
0.2099996,-6.167634E-05
0.2109996,-6.112456E-05
0.2119996,-6.060342E-05
0.2129996,-6.005164E-05
0.2139996,-5.956116E-05
0.2149996,-5.888675E-05
0.2159996,-5.827365E-05
0.2169996,-5.769121E-05
0.2179996,-5.713943E-05
0.2189996,-5.66183E-05
0.2199996,-5.603585E-05
0.2209996,-5.554538E-05
0.2219996,-5.508555E-05
0.2229996,-5.453377E-05
0.2239996,-5.395133E-05
0.2249996,-5.327692E-05
0.2259996,-5.275579E-05
0.2269996,-5.226531E-05
0.2279996,-5.165222E-05
0.2289996,-5.119239E-05
0.2299996,-5.070191E-05
0.2309996,-5.021143E-05
0.2319996,-4.96903E-05
0.2329996,-4.923048E-05
0.2339996,-4.858673E-05
0.2349996,-4.800429E-05
0.2359996,-4.748316E-05
0.2369996,-4.693137E-05
0.2379996,-4.656351E-05
0.2389996,-4.601172E-05
0.2399996,-4.549059E-05
0.2409996,-4.509208E-05
0.2419996,-4.457095E-05
0.2429996,-4.404982E-05
0.2439996,-4.349803E-05
0.2449996,-4.291559E-05
0.2459996,-4.248642E-05
0.2469996,-4.196529E-05
0.2479996,-4.147481E-05
0.2489996,-4.095368E-05
0.2499996,-4.049386E-05
0.2509996,-4.006469E-05
0.2519996,-3.954356E-05
0.2529996,-3.908373E-05
0.2539996,-3.862391E-05
0.2549996,-3.807212E-05
0.2559996,-3.752034E-05
0.2569996,-3.706052E-05
0.2579996,-3.657004E-05
0.2589996,-3.611021E-05
0.2599996,-3.561974E-05
0.2609996,-3.506795E-05
0.2619996,-3.470009E-05
0.2629996,-3.420962E-05
0.2639996,-3.371914E-05
0.2649996,-3.322866E-05
0.2659996,-3.261556E-05
0.2669996,-3.212509E-05
0.2679996,-3.169592E-05
0.2689996,-3.120544E-05
0.2699996,-3.074562E-05
0.2709996,-3.034711E-05
0.2719996,-2.985663E-05
0.2729996,-2.93355E-05
0.2739996,-2.878371E-05
0.2749996,-2.832389E-05
0.2759996,-2.786407E-05
0.2769996,-2.740424E-05
0.2779996,-2.691377E-05
0.2789996,-2.642329E-05
0.2799996,-2.584085E-05
0.2809996,-2.538103E-05
0.2819996,-2.48599E-05
0.2829996,-2.446138E-05
0.2839996,-2.397091E-05
0.2849996,-2.348043E-05
0.2859996,-2.283668E-05
0.2869996,-2.237685E-05
0.2879996,-2.188638E-05
0.2889996,-2.145721E-05
0.2899996,-2.099739E-05
0.2909996,-2.04456E-05
0.2919996,-1.97712E-05
0.2929996,-1.931137E-05
0.2939996,-1.882089E-05
0.2949996,-1.829976E-05
0.2959996,-1.78706E-05
0.2969996,-1.731881E-05
0.2979996,-1.673637E-05
0.2989996,-1.615392E-05
0.2999996,-1.560214E-05
0.3009996,-1.511166E-05
0.3019996,-1.468249E-05
0.3029996,-1.403874E-05
0.3039996,-1.342565E-05
0.3049996,-1.316307E-05
0.3059996,-1.262661E-05
0.3069996,-1.214839E-05
0.3079996,-1.156901E-05
0.3089996,-1.086395E-05
0.3099996,-1.030604E-05
0.3109996,-9.717463E-06
0.3119996,-9.165676E-06
0.3129996,-8.662937E-06
0.3139996,-7.991596E-06
0.3149996,-7.295732E-06
0.3159996,-6.630522E-06
0.3169996,-6.017426E-06
0.3179996,-5.480966E-06
0.3189996,-4.870935E-06
0.3199996,-4.181201E-06
0.3209996,-3.463879E-06
0.3219996,-2.666853E-06
0.3229996,-2.066019E-06
0.3239996,-1.367089E-06
0.3249996,-7.355991E-07
0.3259996,-2.440713E-08
0.3269996,8.645829E-07
0.3279996,1.588037E-06
0.3289996,2.280836E-06
0.3299996,3.016552E-06
0.3309996,3.712416E-06
0.3319996,4.632061E-06
0.3329996,5.465872E-06
0.3339996,6.272094E-06
0.3349996,7.108971E-06
0.3359996,7.8968E-06
0.3369996,8.730611E-06
0.3379996,9.653321E-06
0.3389996,1.065267E-05
0.3399996,1.16091E-05
0.3409996,1.251955E-05
0.3419996,1.347904E-05
0.3429996,1.442321E-05
0.3439996,1.543175E-05
0.3449996,1.658438E-05
0.3459996,1.776459E-05
0.3469996,1.884057E-05
0.3479996,1.995947E-05
0.3489996,2.108451E-05
0.3499996,2.23015E-05
0.3509996,2.369936E-05
0.3519996,2.510948E-05
0.3529996,2.655333E-05
0.3539996,2.835688E-05
0.3549996,2.9767E-05
0.3559996,3.145302E-05
0.3569996,3.313903E-05
0.3579996,3.491702E-05
0.3589996,3.703219E-05
0.3599996,3.899411E-05
0.3609996,4.126256E-05
0.3619996,4.368429E-05
0.3629996,4.635127E-05
0.3639996,4.941675E-05
0.3649996,5.275812E-05
0.3659996,5.658998E-05
0.3669996,6.121886E-05
0.3679996,6.664476E-05
0.3689996,7.332751E-05
0.3699996,8.14817E-05
0.3709996,9.181237E-05
0.3719996,0.0001051472
0.3729996,0.00012213
0.3739996,0.0001438336
0.3749996,0.0001711164
0.3759996,0.0002042543
0.3769996,0.0002438603
0.3779996,0.0002894134
0.3789996,0.0003442654
0.3799996,0.0004018965
0.3809996,0.000465965
0.3819996,0.000535858
0.3829996,0.0006118821
0.3839996,0.0006934239
0.3849996,0.0007814032
0.3859996,0.0008739808
0.3869996,0.0009714631
0.3879996,0.001074157
0.3889996,0.001179303
0.3899996,0.001289047
0.3909996,0.001401857
0.3919996,0.00151436
0.3929996,0.001630542
0.3939996,0.001745498
0.3949996,0.001859227
0.3959996,0.001973876
0.3969996,0.00208454
0.3979996,0.002193978
0.3989996,0.002300963
0.3999996,0.002402737
0.4009996,0.002503285
0.4019996,0.002599848
0.4029996,0.002694265
0.4039996,0.002785922
0.4049996,0.002875128
0.4059996,0.00296372
0.4069996,0.003077861
0.4079996,0.003163695
0.4089996,0.003249528
0.4099996,0.003338427
0.4109996,0.003421195
0.4119996,0.003507029
0.4129996,0.003589797
0.4139996,0.00367563
0.4149996,0.003761464
0.4159996,0.003850363
0.4169996,0.003939262
0.4179996,0.004028161
0.4189996,0.004120125
0.4199996,0.00421209
0.4209996,0.004300989
0.4219996,0.004399084
0.4229996,0.00449718
0.4239996,0.00459221
0.4249996,0.004699502
0.4259996,0.004797597
0.4269996,0.004901823
0.4279996,0.005012181
0.4289996,0.005116407
0.4299996,0.005226764
0.4309996,0.005343253
0.4319996,0.00545361
0.4329996,0.005573164
0.4339996,0.005695784
0.4349996,0.005818403
0.4359996,0.005947153
0.4369996,0.006075903
0.4379996,0.006207719
0.4389996,0.0063426
0.4399996,0.006480547
0.4409996,0.006624625
0.4419996,0.006771768
0.4429996,0.00691891
0.4439996,0.007072185
0.4449996,0.007228524
0.4459996,0.00738793
0.4469996,0.007553466
0.4479996,0.007722067
0.4489996,0.007893735
0.4499996,0.008071532
0.4509996,0.008252396
0.4519996,0.008436324
0.4529996,0.008623319
0.4539996,0.008822575
0.4549996,0.009018766
0.4559996,0.009224153
0.4569996,0.009435672
0.4579996,0.009644125
0.4589996,0.009861774
0.4599996,0.01008862
0.4609996,0.01031546
0.4619996,0.01055457
0.4629996,0.01079061
0.4639996,0.01102972
0.4649996,0.01128109
0.4659996,0.01153553
0.4669996,0.01178996
0.4679996,0.01205972
0.4689996,0.01232642
0.4699996,0.01259618
0.4709996,0.01287821
0.4719996,0.01315717
0.4729996,0.01344532
0.4739996,0.01374267
0.4749996,0.01403389
0.4759996,0.01433738
0.4769996,0.01464393
0.4779996,0.01494741
0.4789996,0.01526929
0.4799996,0.01558503
0.4809996,0.01590077
0.4819996,0.01622878
0.4829996,0.01655679
0.4839996,0.01688479
0.4849996,0.01722506
0.4859996,0.01756533
0.4869996,0.01790253
0.4879996,0.01824893
0.4889996,0.01860146
0.4899996,0.0189448
0.4909996,0.01929733
0.4919996,0.01965906
0.4929996,0.02000852
0.4939996,0.02037638
0.4949996,0.02073811
0.4959996,0.02109983
0.4969996,0.02147689
0.4979996,0.02183861
0.4989996,0.02220647
0.4999996,0.02258353
0.5009996,0.02294219
0.5019996,0.02332231
0.5029996,0.02370549
0.5039996,0.02407029
0.5049996,0.02445654
0.5059996,0.02483972
0.5069996,0.02521065
0.5079996,0.02559383
0.5089996,0.02598008
0.5099996,0.026351
0.5109996,0.02674339
0.5119996,0.0271327
0.5129996,0.02751589
0.5139996,0.0279144
0.5149996,0.02829452
0.5159996,0.02868077
0.5169996,0.02907622
0.5179996,0.02946247
0.5189996,0.02985792
0.5199996,0.0309932
0.5209996,0.03139171
0.5219996,0.03179022
0.5229996,0.03218874
0.5239996,0.03255659
0.5249996,0.03298576
0.5259996,0.03338427
0.5269996,0.03375213
0.5279996,0.0341813
0.5289996,0.03457981
0.5299996,0.03497833
0.5309996,0.03537684
0.5319996,0.03577535
0.5329996,0.03617386
0.5339996,0.03660303
0.5349996,0.03700154
0.5359996,0.03740006
0.5369996,0.03782922
0.5379996,0.03822774
0.5389996,0.0386569
0.5399996,0.03905542
0.5409996,0.03948459
0.5419996,0.0398831
0.5429996,0.04031226
0.5439996,0.04071078
0.5449996,0.04113995
0.5459996,0.04156911
0.5469996,0.04196763
0.5479996,0.0423968
0.5489996,0.0427953
0.5499996,0.04322447
0.5509996,0.04365364
0.5519996,0.04405215
0.5529996,0.04448132
0.5539996,0.04491049
0.5549996,0.045309
0.5559996,0.04573817
0.5569996,0.04616734
0.5579996,0.0465965
0.5589996,0.04699502
0.5599996,0.04745484
0.5609996,0.04785335
0.5619996,0.04828252
0.5629996,0.04871169
0.5639996,0.04914085
0.5649996,0.04957002
0.5659996,0.04999919
0.5669996,0.0503977
0.5679996,0.05085753
0.5689996,0.05128669
0.5699996,0.05171586
0.5709996,0.05214503
0.5719996,0.05257419
0.5729996,0.05300336
0.5739996,0.05343253
0.5749996,0.0538617
0.5759996,0.05429087
0.5769996,0.05475069
0.5779996,0.05517985
0.5789996,0.05560903
0.5799996,0.05606885
0.5809996,0.05646735
0.5819996,0.05692718
0.5829996,0.05735635
0.5839996,0.05778552
0.5849996,0.05824534
0.5859996,0.0586745
0.5869996,0.05910368
0.5879996,0.05953284
0.5889996,0.05999266
0.5899996,0.06039118
0.5909996,0.06088165
0.5919996,0.06131082
0.5929996,0.06173999
0.5939996,0.06219981
0.5949996,0.06262898
0.5959996,0.0630888
0.5969996,0.06354862
0.5979996,0.06397779
0.5989996,0.06440695
0.5999996,0.06486678
0.6009996,0.06529595
0.6019996,0.06575577
0.6029996,0.0662156
0.6039996,0.06664476
0.6049996,0.06707393
0.6059996,0.06753375
0.6069996,0.06796291
0.6079996,0.06842274
0.6089996,0.06888256
0.6099996,0.06931173
0.6109996,0.06977155
0.6119996,0.07023137
0.6129996,0.07066055
0.6139996,0.07112037
0.6149996,0.07158019
0.6159996,0.07200935
0.6169996,0.07246917
0.6179996,0.072929
0.6189996,0.07335817
0.6199996,0.07381799
0.6209996,0.07427781
0.6219996,0.07473763
0.6229996,0.07516681
0.6239996,0.07565728
0.6249996,0.07608645
0.6259996,0.07654627
0.6269996,0.07700609
0.6279996,0.07743526
0.6289996,0.07792573
0.6299996,0.0783549
0.6309996,0.07878407
0.6319996,0.07927455
0.6329996,0.07973437
0.6339996,0.0801942
0.6349996,0.08062336
0.6359996,0.08108319
0.6369996,0.08154301
0.6379996,0.08200283
0.6389996,0.08243199
0.6399996,0.08289181
0.6409996,0.08335164
0.6419996,0.08378081
0.6429996,0.08427128
0.6439996,0.08473111
0.6449996,0.08516028
0.6459996,0.08565076
0.6469996,0.08611058
0.6479996,0.0865704
0.6489996,0.08703022
0.6499996,0.08749004
0.6509996,0.08791921
0.6519996,0.08837903
0.6529996,0.0888695
0.6539996,0.08929868
0.6549996,0.0897585
0.6559996,0.09024898
0.6569996,0.09067815
0.6579996,0.09113797
0.6589996,0.0916591
0.6599996,0.09208827
0.6609996,0.09254809
0.6619996,0.09300791
0.6629996,0.09346773
0.6639996,0.09392755
0.6649996,0.09438737
0.6659996,0.09484719
0.6669996,0.09533768
0.6679996,0.0957975
0.6689996,0.09625732
0.6699996,0.09671714
0.6709996,0.09720763
0.6719996,0.09763679
0.6729996,0.09812727
0.6739996,0.09858709
0.6749996,0.09901626
0.6759996,0.09947608
0.6769996,0.0999359
0.6779996,0.1003957
0.6789996,0.1008862
0.6799996,0.101346
0.6809996,0.1018058
0.6819996,0.1022963
0.6829996,0.1027255
0.6839996,0.103216
0.6849996,0.1036758
0.6859996,0.104105
0.6869996,0.1045954
0.6879996,0.1050553
0.6889996,0.1055151
0.6899996,0.1059749
0.6909996,0.1064654
0.6919996,0.1068945
0.6929996,0.107385
0.6939996,0.1078755
0.6949996,0.1083047
0.6959996,0.1087645
0.6969996,0.1092856
0.6979996,0.1097454
0.6989996,0.1102053
0.6999996,0.1103585
0.6990005,0.1098681
0.6980005,0.1093776
0.6970005,0.1089178
0.6960005,0.1084273
0.6950005,0.1079675
0.6940005,0.107477
0.6930005,0.1069865
0.6920004,0.1065267
0.6910005,0.1060975
0.6900005,0.105607
0.6890005,0.1051472
0.6880005,0.1046874
0.6870005,0.1041663
0.6860005,0.1037064
0.6850005,0.103216
0.6840005,0.1027561
0.6830005,0.1022963
0.6820005,0.1018058
0.6810005,0.1013767
0.6800005,0.1008862
0.6790005,0.1003651
0.6780005,0.0999359
0.6770005,0.09944542
0.6760005,0.0989856
0.6750005,0.09858709
0.6740005,0.09806596
0.6730005,0.09760614
0.6720005,0.09714631
0.6710005,0.09662518
0.6700005,0.09619602
0.6690005,0.09573619
0.6680005,0.09521506
0.6670005,0.09478589
0.6660005,0.09432607
0.6650005,0.09383559
0.6640005,0.09340642
0.6630005,0.09291594
0.6620005,0.09242547
0.6610005,0.09196565
0.6600005,0.09147517
0.6590005,0.09101535
0.6580005,0.09055553
0.6570005,0.09006505
0.6560005,0.08963588
0.6550004,0.08917606
0.6540005,0.08868558
0.6530005,0.08822576
0.6520005,0.08779659
0.6510005,0.08727546
0.6500005,0.08681564
0.6490005,0.08641712
0.6480005,0.08589599
0.6470005,0.08543617
0.6460005,0.08497635
0.6450005,0.08448587
0.6440005,0.0840567
0.6430005,0.08359688
0.6420005,0.0831064
0.6410004,0.08267724
0.6400005,0.08218676
0.6390005,0.08172693
0.6380005,0.08129777
0.6370005,0.08083794
0.6360005,0.08034747
0.6350005,0.0799183
0.6340005,0.07942782
0.6330005,0.078968
0.6320005,0.07853883
0.6310005,0.07804836
0.6300005,0.07758854
0.6290005,0.07712871
0.6280005,0.07663824
0.6270005,0.07617841
0.6260005,0.07571859
0.6250005,0.07528942
0.6240005,0.0748296
0.6230005,0.07436978
0.6220005,0.07390995
0.6210005,0.07348078
0.6200005,0.07299031
0.6190005,0.07256114
0.6180004,0.07210132
0.6170005,0.0716415
0.6160005,0.07121233
0.6150005,0.07072186
0.6140005,0.07026203
0.6130005,0.06980221
0.6120005,0.06934239
0.6110005,0.06888256
0.6100005,0.06842274
0.6090005,0.06799357
0.6080005,0.06753375
0.6070005,0.06704327
0.6060005,0.06661411
0.6050005,0.06615429
0.6040004,0.06569446
0.6030005,0.06526529
0.6020005,0.06480547
0.6010005,0.06434565
0.6000005,0.06394713
0.5990005,0.06345665
0.5980005,0.06299683
0.5970005,0.06256767
0.5960005,0.06210784
0.5950005,0.06164802
0.5940005,0.0611882
0.5930005,0.06075903
0.5920005,0.06029921
0.5910005,0.05983939
0.5900005,0.05941022
0.5890005,0.05898106
0.5880005,0.05849057
0.5870005,0.05806141
0.5860005,0.05763224
0.5850005,0.05717242
0.5840005,0.05674325
0.5830005,0.05628343
0.5820005,0.05585426
0.5810004,0.05539444
0.5800005,0.05496527
0.5790005,0.05450545
0.5780005,0.05404563
0.5770005,0.05361646
0.5760005,0.05315664
0.5750005,0.05269681
0.5740005,0.0522983
0.5730005,0.05183848
0.5720005,0.05140931
0.5710005,0.05098015
0.5700005,0.05052032
0.5690005,0.05009115
0.5680005,0.04966199
0.5670004,0.04923282
0.5660005,0.04880365
0.5650005,0.04834383
0.5640005,0.04791466
0.5630005,0.04748549
0.5620005,0.04705633
0.5610005,0.0465965
0.5600005,0.04616734
0.5590005,0.04573817
0.5580005,0.045309
0.5570005,0.04487984
0.5560005,0.04442001
0.5550005,0.04399084
0.5540005,0.04359233
0.5530005,0.04313251
0.5520005,0.04270334
0.5510005,0.04227417
0.5500005,0.04184501
0.5490005,0.04141584
0.5480005,0.04098667
0.5470005,0.0405575
0.5460005,0.04012834
0.5450005,0.03972982
0.5440005,0.03930065
0.5430005,0.03887149
0.5420005,0.03844232
0.5410005,0.03801315
0.5400005,0.03758398
0.5390005,0.03718547
0.5380005,0.0367563
0.5370005,0.03632713
0.5360005,0.03592863
0.5350005,0.03549946
0.5340005,0.03510094
0.5330005,0.03467178
0.5320005,0.03424261
0.5310005,0.03384409
0.5300004,0.03341493
0.5290005,0.03298576
0.5280005,0.0326179
0.5270005,0.03218874
0.5260005,0.03179022
0.5250005,0.03139171
0.5240005,0.03096254
0.5230005,0.03056403
0.5220005,0.03013486
0.5210005,0.02973635
0.5200005,0.02933784
0.5190005,0.02890867
0.5180005,0.02851016
0.5170005,0.02811164
0.5160004,0.02771313
0.5150005,0.02731462
0.5140005,0.02691611
0.5130005,0.02651759
0.5120005,0.02611908
0.5110005,0.02572057
0.5100005,0.02532205
0.5090005,0.02492354
0.5080005,0.02455568
0.5070005,0.02415717
0.5060005,0.02375866
0.5050005,0.0233908
0.5040005,0.02299229
0.5030005,0.02259377
0.5020005,0.02222592
0.5010005,0.02182741
0.5000005,0.02145955
0.4990005,0.02109169
0.4980005,0.02069318
0.4970005,0.02032532
0.4960005,0.01995746
0.4950005,0.0195896
0.4940005,0.01922174
0.4930005,0.01885389
0.4920005,0.01848603
0.4910005,0.01811817
0.4900005,0.01775031
0.4890005,0.01738245
0.4880005,0.01704525
0.4870005,0.01667739
0.4860005,0.01630954
0.4850005,0.01597233
0.4840005,0.01560447
0.4830005,0.01526727
0.4820005,0.01493007
0.4810005,0.01456221
0.4800005,0.01419435
0.4790005,0.0138878
0.4780005,0.01351995
0.4770005,0.0132134
0.4760005,0.01237854
0.4750005,0.01205053
0.4740005,0.01172559
0.4730005,0.01139758
0.4720005,0.01107571
0.4710005,0.01075996
0.4700005,0.01044422
0.4690005,0.01012847
0.4680005,0.009821923
0.4670005,0.009512309
0.4660005,0.00920576
0.4650005,0.00890841
0.4640005,0.008607992
0.4630005,0.008307574
0.4620005,0.008022484
0.4610005,0.007728198
0.4600005,0.007436977
0.4590005,0.00716415
0.4580005,0.006875994
0.4570005,0.006603166
0.4560005,0.006330338
0.4550005,0.006054445
0.4540005,0.005790813
0.4530005,0.005530247
0.4520005,0.005266616
0.4510005,0.005012181
0.4500005,0.004760811
0.4490005,0.004506376
0.4480005,0.004264203
0.4470005,0.00402203
0.4460005,0.003782922
0.4450005,0.003549946
0.4440005,0.003320034
0.4430005,0.003093189
0.4420005,0.002869408
0.4410005,0.002648694
0.4400005,0.00243411
0.4390005,0.002219526
0.4380005,0.002014139
0.4370005,0.001808751
0.4360005,0.001609495
0.4350005,0.00141637
0.4340005,0.001220179
0.4330005,0.001000585
0.4320005,0.0008172694
0.4310005,0.000630888
0.4300005,0.0004543162
0.4290005,0.0002777444
0.4280005,0.0001020923
0.4270005,-6.436346E-05
0.4260005,-0.0002350907
0.4250005,-0.0003984502
0.4240005,-0.0005563734
0.4230005,-0.0007166982
0.4220005,-0.0008724247
0.4210005,-0.00102386
0.4200005,-0.001175294
0.4190005,-0.001321211
0.4180005,-0.001470194
0.4170005,-0.001613965
0.4160005,-0.001753445
0.4150005,-0.001895376
0.4140005,-0.00203179
0.4130005,-0.002168511
0.4120005,-0.002300633
0.4110005,-0.002434901
0.4100005,-0.002579592
0.4090005,-0.002721831
0.4080005,-0.002852113
0.4070005,-0.002988528
0.4060005,-0.003083759
0.4050005,-0.00321864
0.4040005,-0.003356587
0.4030005,-0.003488402
0.4020005,-0.003623284
0.4010005,-0.003755099
0.4000005,-0.00388998
0.3990005,-0.004024862
0.3980005,-0.004159743
0.3970005,-0.00429769
0.3960005,-0.004435637
0.3950005,-0.004570518
0.3940005,-0.00471153
0.3930005,-0.004849477
0.3920005,-0.004987423
0.3910005,-0.005134566
0.3900005,-0.005272513
0.3890005,-0.005416591
0.3880005,-0.005563734
0.3870005,-0.005704746
0.3860005,-0.005854954
0.3850005,-0.006002098
0.3840005,-0.00614311
0.3830005,-0.006296384
0.3820005,-0.006443528
0.3810005,-0.006590671
0.3800005,-0.006743945
0.3790005,-0.006891088
0.3780005,-0.007044362
0.3770005,-0.007194571
0.3760005,-0.007344779
0.3750005,-0.007501119
0.3740005,-0.007651328
0.3730005,-0.007804601
0.3720005,-0.007960942
0.3710005,-0.008114216
0.3700005,-0.008267489
0.3690005,-0.008423829
0.3680005,-0.008574038
0.3670005,-0.008727312
0.3660005,-0.008883652
0.3650005,-0.009033861
0.3640005,-0.009184069
0.3630005,-0.009337342
0.3620005,-0.009484487
0.3610005,-0.009631629
0.3600005,-0.009775707
0.3590005,-0.009916719
0.3580005,-0.01005773
0.3570005,-0.01019568
0.3560005,-0.01032443
0.3550005,-0.01045624
0.3540005,-0.01058193
0.3530005,-0.01069535
0.3520005,-0.01081184
0.3510005,-0.0109222
0.3500005,-0.01102029
0.3490005,-0.01112452
0.3480005,-0.01121955
0.3470005,-0.01129619
0.3460005,-0.01137896
0.3450005,-0.01145559
0.3440005,-0.01151077
0.3430005,-0.01157515
0.3420005,-0.01162419
0.3410005,-0.01166405
0.3400005,-0.01170083
0.3390005,-0.01172535
0.3380005,-0.01174681
0.3370005,-0.01175601
0.3360005,-0.01175601
0.3350005,-0.01175294
0.3340005,-0.01173762
0.3330005,-0.01171003
0.3320005,-0.0116855
0.3310005,-0.01164259
0.3300005,-0.01159047
0.3290005,-0.0115353
0.3280005,-0.01147092
0.3270005,-0.01138815
0.3260005,-0.01130538
0.3250005,-0.01120729
0.3240005,-0.0110908
0.3230005,-0.01096818
0.3220005,-0.01083023
0.3210005,-0.01067696
0.3200005,-0.01050529
0.3190005,-0.0103183
0.3180005,-0.01010985
0.3170005,-0.00988913
0.3160005,-0.009646957
0.3150005,-0.00938639
0.3140005,-0.009110497
0.3130005,-0.008813146
0.3120005,-0.008503532
0.3110005,-0.008184722
0.3100005,-0.007847519
0.3090005,-0.007516447
0.3080005,-0.007191505
0.3070005,-0.006863499
0.3060005,-0.006556951
0.3050005,-0.00626573
0.3040005,-0.005989837
0.3030005,-0.005735401
0.3020005,-0.005499359
0.3010005,-0.00528171
0.3000005,-0.005082454
0.2990005,-0.004898524
0.2980005,-0.004726857
0.2970005,-0.004573583
0.2960005,-0.00442644
0.2950005,-0.00429769
0.2940005,-0.004172005
0.2930005,-0.004052451
0.2920005,-0.003942094
0.2910005,-0.003840933
0.2900005,-0.003742838
0.2890005,-0.003647808
0.2880005,-0.003558908
0.2870005,-0.003473075
0.2860005,-0.003393373
0.2850005,-0.003316735
0.2840005,-0.003240098
0.2830005,-0.003169592
0.2820005,-0.003102152
0.2810005,-0.003037777
0.2800005,-0.002976467
0.2790005,-0.002921288
0.2780005,-0.00286611
0.2770005,-0.002813996
0.2760005,-0.002761883
0.2750005,-0.002715901
0.2740005,-0.002669919
0.2730005,-0.002623936
0.2720005,-0.00258102
0.2710005,-0.002541168
0.2700005,-0.002501317
0.2690005,-0.002461466
0.2680005,-0.00242468
0.2670005,-0.002387894
0.2660005,-0.002354174
0.2650005,-0.002320454
0.2640005,-0.002286733
0.2630005,-0.002256078
0.2620005,-0.002225423
0.2610005,-0.002197834
0.2600005,-0.002167179
0.2590005,-0.00213959
0.2580005,-0.002112001
0.2570005,-0.002084411
0.2560005,-0.002059887
0.2550005,-0.002032298
0.2540005,-0.002007774
0.2530005,-0.001986316
0.2520005,-0.001961792
0.2510005,-0.001937268
0.2500005,-0.00191581
0.2490005,-0.001894351
0.2480005,-0.001872893
0.2470005,-0.001851435
0.2460005,-0.001829976
0.2450005,-0.001811583
0.2440005,-0.00179319
0.2430005,-0.001771732
0.2420005,-0.001753339
0.2410005,-0.001734946
0.2400005,-0.001716554
0.2390005,-0.001698161
0.2380005,-0.001679768
0.2370005,-0.001661375
0.2360005,-0.001646047
0.2350005,-0.00163072
0.2340005,-0.001612327
0.2330005,-0.001632664
0.2320005,-0.001616724
0.2310005,-0.00160109
0.2300005,-0.001585763
0.2290005,-0.001570742
0.2280005,-0.001555721
0.2270005,-0.001541313
0.2260005,-0.001527212
0.2250005,-0.001512804
0.2240005,-0.001499009
0.2230005,-0.001485521
0.2220005,-0.001471727
0.2210005,-0.001458545
0.2200005,-0.00144567
0.2190005,-0.001432795
0.2180005,-0.001420227
0.2170005,-0.001407965
0.2160005,-0.00139509
0.2150005,-0.001383441
0.2140005,-0.001371485
0.2130005,-0.001359837
0.2120005,-0.001348188
0.2110005,-0.001336539
0.2100005,-0.001325503
0.2090005,-0.001314467
0.2080005,-0.001303432
0.2070005,-0.001292703
0.2060005,-0.00128228
0.2050005,-0.001271551
0.2040005,-0.001261128
0.2030005,-0.001251012
0.2020005,-0.001240896
0.2010005,-0.001231086
0.2000005,-0.001221277
0.1990005,-0.001211467
0.1980005,-0.001201964
0.1970005,-0.001192461
0.1960005,-0.001183265
0.1950005,-0.001174068
0.1940005,-0.001165178
0.1930005,-0.001156288
0.1920005,-0.001148012
0.1910005,-0.001139428
0.1900005,-0.001131151
0.1890005,-0.001122875
0.1880005,-0.001114291
0.1870005,-0.001106015
0.1860005,-0.001098351
0.1850005,-0.001090381
0.1840005,-0.00108241
0.1830005,-0.001075053
0.1820005,-0.001067389
0.1810005,-0.001060032
0.1800005,-0.001052675
0.1790005,-0.001045011
0.1780005,-0.001037654
0.1770005,-0.001030604
0.1760005,-0.001023247
0.1750005,-0.001016809
0.1740005,-0.001009758
0.1730005,-0.001002708
0.1720005,-0.0009965767
0.1710005,-0.0009898327
0.1700005,-0.0009833951
0.1690005,-0.0009769576
0.1680005,-0.0009705202
0.1670005,-0.0009643892
0.1660005,-0.0009582583
0.1650005,-0.0009515142
0.1640005,-0.0009456897
0.1630005,-0.0009395588
0.1620005,-0.0009340409
0.1610005,-0.0009282165
0.1600005,-0.0009223921
0.1590005,-0.0009165677
0.1580005,-0.0009110498
0.1570005,-0.0009055319
0.1560005,-0.0009000141
0.1550005,-0.0008948027
0.1540005,-0.0008895915
0.1530005,-0.0008840736
0.1520005,-0.0008788622
0.1510005,-0.0008736509
0.1500005,-0.0008684396
0.1490005,-0.0008635348
0.1480005,-0.0008586301
0.1470005,-0.0008534187
0.1460005,-0.000848514
0.1450005,-0.0008436092
0.1440005,-0.0008387044
0.1430005,-0.0008341062
0.1420005,-0.0008295079
0.1410005,-0.0008249097
0.1400005,-0.0008203115
0.1390005,-0.0008154067
0.1380005,-0.0008111151
0.1370005,-0.0008065169
0.1360005,-0.0008022251
0.1350005,-0.0007979335
0.1340005,-0.0007936418
0.1330005,-0.0007890436
0.1320005,-0.0007850585
0.1310005,-0.0007807668
0.1300005,-0.0007767816
0.1290005,-0.00077249
0.1280005,-0.0007681983
0.1270005,-0.0007645197
0.1260005,-0.0007605346
0.1250005,-0.0007565495
0.1240005,-0.0007528709
0.1230005,-0.0007488858
0.1220005,-0.0007452072
0.1210005,-0.0007415286
0.1200005,-0.0007375435
0.1190005,-0.0007338649
0.1180005,-0.0007301863
0.1170005,-0.0007265077
0.1160005,-0.0007228291
0.1150005,-0.0007194571
0.1140005,-0.0007157786
0.1130005,-0.0007124065
0.1120005,-0.0007090345
0.1110005,-0.0007056625
0.1100005,-0.0007022904
0.1090005,-0.0006989184
0.1080005,-0.0006955464
0.1070005,-0.0006921744
0.1060005,-0.0006888023
0.1050005,-0.0006854302
0.1040005,-0.0006823648
0.1030005,-0.0006792994
0.1020005,-0.0006762338
0.1010005,-0.0006728618
0.1000005,-0.0006697963
0.09900048,-0.0006667308
0.09800047,-0.0006636653
0.09700048,-0.0006609064
0.09600048,-0.0006575344
0.09500048,-0.0006547754
0.09400047,-0.0006520165
0.09300048,-0.000648951
0.09200048,-0.0006461921
0.09100047,-0.0006431266
0.09000048,-0.0006403677
0.08900048,-0.0006376088
0.08800048,-0.0006345432
0.08700047,-0.0006317843
0.08600048,-0.0006290254
0.08500048,-0.0006259599
0.08400048,-0.0006235075
0.08300047,-0.0006207486
0.08200048,-0.0006179896
0.08100048,-0.0006155373
0.08000048,-0.0006127784
0.07900048,-0.0006100194
0.07800048,-0.000607567
0.07700048,-0.000604808
0.07600047,-0.0006023557
0.07500048,-0.0005999033
0.07400048,-0.0005974509
0.07300048,-0.0005949985
0.07200047,-0.0005922396
0.07100048,-0.0005897872
0.07000048,-0.0005873349
0.06900048,-0.0005845759
0.06800048,-0.00058243
0.06700048,-0.0005799776
0.06600048,-0.0005775253
0.06500047,-0.0005750729
0.06400048,-0.000572927
0.06300048,-0.0005704747
0.06200048,-0.0005680223
0.06100048,-0.0005655699
0.06000048,-0.0005634241
0.05900048,-0.0005606651
0.05800048,-0.0005585193
0.05700048,-0.0005563734
0.05600048,-0.0005542276
0.05500048,-0.0005517752
0.05400048,-0.0005493228
0.05300048,-0.000547177
0.05200048,-0.0005450312
0.05100048,-0.0005428853
0.05000048,-0.0005407395
0.04900048,-0.000538287
0.04800048,-0.0005361412
0.04700048,-0.0005336889
0.04600048,-0.000531543
0.04500048,-0.0005293972
0.04400048,-0.0005272513
0.04300048,-0.0005251055
0.04200048,-0.0005229597
0.04100048,-0.0005208139
0.04000048,-0.000518668
0.03900048,-0.0005165222
0.03800048,-0.0005143763
0.03700048,-0.0005122305
0.03600048,-0.0005100847
0.03500048,-0.0005079389
0.03400048,-0.0005060995
0.03300048,-0.0005039537
0.03200048,-0.0005018078
0.03100048,-0.000499662
0.03000048,-0.0004975162
0.02900048,-0.0004956769
0.02800048,-0.0004935311
0.02700048,-0.0004913852
0.02600048,-0.0004895459
0.02500048,-0.0004874001
0.02400048,-0.0004852542
0.02300048,-0.0004834149
0.02200048,-0.0004812691
0.02100048,-0.0004791233
0.02000048,-0.000477284
0.01900048,-0.0004751382
0.01800048,-0.0004732989
0.01700048,-0.0004714596
0.01600048,-0.0004693137
0.01500048,-0.0004671679
0.01400048,-0.0004653286
0.01300048,-0.0004634893
0.01200048,-0.00046165
0.01100048,-0.0004598107
0.01000048,-0.0004579714
0.009000476,-0.0004561322
0.008000477,-0.0004539863
0.007000477,-0.000452147
0.006000477,-0.0004503077
0.005000477,-0.0004484684
0.004000477,-0.0004469357
0.003000477,-0.0004447899
0.002000477,-0.0004429506
0.001000477,-0.0004414178
