EXPID. 0621
[电化学]: CV : -0.8 >> -0.8 >> -1.5 >> -0.8(V) @ 0.01(V/s) X 10(Seg)
起始电位 (V),-0.8
上限电位 (V),-0.8
下限电位 (V),-1.5
终止电位 (V),-0.8
扫速 (V/s),0.01
电解液 信息:
KOH,1
-0.8,-0.4558256
-0.801,-0.4181201
-0.802,-0.3362718
-0.803,-0.1961792
-0.804,-0.1382416
-0.805,-0.1134217
-0.806,-0.09974964
-0.807,-0.0909517
-0.808,-0.08472877
-0.809,-0.07997727
-0.81,-0.07596149
-0.811,-0.07262012
-0.812,-0.06961595
-0.813,-0.06694897
-0.814,-0.0645579
-0.815,-0.06232009
-0.816,-0.06023557
-0.817,-0.05833497
-0.818,-0.05649568
-0.819,-0.05474835
-0.82,-0.0531543
-0.821,-0.05156025
-0.822,-0.05008882
-0.823,-0.04870935
-0.824,-0.04732988
-0.825,-0.04607304
-0.826,-0.04484684
-0.827,-0.04365131
-0.828,-0.04254773
-0.829,-0.04144416
-0.83,-0.04037124
-0.831,-0.03939028
-0.832,-0.03840933
-0.833,-0.03745903
-0.834,-0.03653939
-0.835,-0.03561974
-0.836,-0.03476141
-0.837,-0.03387242
-0.838,-0.03298343
-0.839,-0.03209443
-0.84,-0.03117479
-0.841,-0.03031646
-0.842,-0.02955008
-0.843,-0.02875306
-0.844,-0.02798669
-0.845,-0.02731228
-0.846,-0.02663788
-0.847,-0.02599413
-0.848,-0.02538103
-0.849,-0.02476793
-0.85,-0.02418549
-0.851,-0.02360305
-0.852,-0.02302061
-0.853,-0.02246882
-0.854,-0.02194769
-0.855,-0.02142656
-0.856,-0.02087477
-0.857,-0.02038429
-0.858,-0.01986316
-0.859,-0.01934203
-0.86,-0.01885155
-0.861,-0.01836107
-0.862,-0.01790125
-0.863,-0.01744143
-0.864,-0.01698161
-0.865,-0.01655244
-0.866,-0.01612327
-0.867,-0.01582084
-0.868,-0.01541313
-0.869,-0.01501155
-0.87,-0.01462837
-0.871,-0.0142697
-0.872,-0.01390491
-0.873,-0.01357077
-0.874,-0.01324277
-0.875,-0.01291476
-0.876,-0.01261128
-0.877,-0.01231086
-0.878,-0.01201657
-0.879,-0.01173762
-0.88,-0.01146479
-0.881,-0.01119196
-0.882,-0.01093446
-0.883,-0.01068616
-0.884,-0.01043785
-0.885,-0.01020487
-0.886,-0.009971898
-0.887,-0.009745052
-0.888,-0.009533534
-0.889,-0.00931895
-0.89,-0.009113563
-0.891,-0.008923503
-0.892,-0.008724246
-0.893,-0.008537252
-0.894,-0.008359454
-0.895,-0.008178591
-0.896,-0.008006924
-0.897,-0.007844454
-0.898,-0.007685048
-0.899,-0.007528708
-0.9,-0.0073785
-0.901,-0.007231356
-0.902,-0.007087279
-0.903,-0.006946267
-0.904,-0.006814451
-0.905,-0.00667957
-0.906,-0.006550819
-0.907,-0.0064282
-0.908,-0.006308646
-0.909,-0.006186027
-0.91,-0.006078735
-0.911,-0.005965312
-0.912,-0.005854954
-0.913,-0.00575686
-0.914,-0.005655698
-0.915,-0.005557603
-0.916,-0.005465638
-0.917,-0.005370609
-0.918,-0.005284776
-0.919,-0.005198942
-0.92,-0.005113108
-0.921,-0.005036471
-0.922,-0.004956769
-0.923,-0.004880131
-0.924,-0.004809625
-0.925,-0.004739119
-0.926,-0.004668613
-0.927,-0.004607304
-0.928,-0.004539863
-0.929,-0.004478553
-0.93,-0.004423374
-0.931,-0.004362065
-0.932,-0.004306886
-0.933,-0.004254773
-0.934,-0.004199594
-0.935,-0.004150547
-0.936,-0.004101499
-0.937,-0.004052451
-0.938,-0.004006469
-0.939,-0.003963552
-0.94,-0.003920636
-0.941,-0.003877719
-0.942,-0.003840933
-0.943,-0.003801082
-0.944,-0.003764296
-0.945,-0.003730575
-0.946,-0.00369379
-0.947,-0.003660069
-0.948,-0.003623284
-0.949,-0.003595694
-0.95,-0.003568105
-0.951,-0.00353745
-0.952,-0.003509861
-0.953,-0.003485337
-0.954,-0.003457748
-0.955,-0.003436289
-0.956,-0.003411765
-0.957,-0.003384176
-0.958,-0.003365783
-0.959,-0.003341259
-0.96,-0.003319801
-0.961,-0.003301408
-0.962,-0.00327995
-0.963,-0.003258491
-0.964,-0.003243164
-0.965,-0.003221706
-0.966,-0.003203312
-0.967,-0.003187985
-0.968,-0.003169592
-0.969,-0.003154265
-0.97,-0.003138937
-0.971,-0.003117479
-0.972,-0.003105217
-0.973,-0.003089889
-0.974,-0.003074562
-0.975,-0.0030623
-0.976,-0.003046973
-0.977,-0.003031645
-0.978,-0.003022449
-0.979,-0.003007122
-0.98,-0.00299486
-0.981,-0.002985663
-0.982,-0.002973401
-0.983,-0.002958074
-0.984,-0.002948877
-0.985,-0.002939681
-0.986,-0.002927419
-0.987,-0.002918222
-0.988,-0.002909026
-0.989,-0.00289983
-0.99,-0.002890633
-0.991,-0.002878371
-0.992,-0.002869175
-0.993,-0.002859978
-0.994,-0.002850782
-0.995,-0.002844651
-0.996,-0.002832389
-0.997,-0.002823193
-0.998,-0.002817062
-0.999,-0.002807865
-1,-0.002801734
-1.001,-0.002792538
-1.002,-0.002786407
-1.003,-0.00277721
-1.004,-0.002768014
-1.005,-0.002761883
-1.006,-0.002758818
-1.007,-0.002746556
-1.008,-0.00274349
-1.009,-0.002737359
-1.01,-0.002728163
-1.011,-0.002722032
-1.012,-0.002718966
-1.013,-0.00270977
-1.014,-0.002706704
-1.015,-0.002700574
-1.016,-0.002694442
-1.017,-0.002691377
-1.018,-0.002685246
-1.019,-0.002679115
-1.02,-0.002676049
-1.021,-0.002669919
-1.022,-0.002663787
-1.023,-0.002660722
-1.024,-0.002654591
-1.025,-0.002651526
-1.026,-0.00264846
-1.027,-0.002642329
-1.028,-0.002639264
-1.029,-0.002633133
-1.03,-0.002630068
-1.031,-0.002627002
-1.032,-0.002620871
-1.033,-0.002617805
-1.034,-0.00261474
-1.035,-0.002611674
-1.036,-0.002605543
-1.037,-0.002605543
-1.038,-0.002602478
-1.039,-0.002599412
-1.04,-0.002596347
-1.041,-0.002590216
-1.042,-0.002593281
-1.043,-0.002590216
-1.044,-0.002587151
-1.045,-0.002587151
-1.046,-0.002584085
-1.047,-0.00258102
-1.048,-0.00258102
-1.049,-0.002577954
-1.05,-0.002577954
-1.051,-0.002574889
-1.052,-0.002571823
-1.053,-0.002571823
-1.054,-0.002571823
-1.055,-0.002568757
-1.056,-0.002571823
-1.057,-0.002568757
-1.058,-0.002565692
-1.059,-0.002568757
-1.06,-0.002565692
-1.061,-0.002562626
-1.062,-0.002565692
-1.063,-0.002562626
-1.064,-0.002562626
-1.065,-0.002565692
-1.066,-0.002562626
-1.067,-0.002562626
-1.068,-0.002562626
-1.069,-0.002562626
-1.07,-0.002565692
-1.071,-0.002562626
-1.072,-0.002562626
-1.073,-0.002565692
-1.074,-0.002562626
-1.075,-0.002562626
-1.076,-0.002565692
-1.077,-0.002565692
-1.078,-0.002565692
-1.079,-0.002565692
-1.08,-0.002565692
-1.081,-0.002568757
-1.082,-0.002568757
-1.083,-0.002568757
-1.084,-0.002571823
-1.085,-0.002571823
-1.086,-0.002574889
-1.087,-0.002574889
-1.088,-0.002574889
-1.089,-0.002577954
-1.09,-0.002577954
-1.091,-0.002577954
-1.092,-0.00258102
-1.093,-0.00258102
-1.094,-0.00258102
-1.095,-0.00258102
-1.096,-0.002587151
-1.097,-0.002587151
-1.098,-0.002587151
-1.099,-0.002590216
-1.1,-0.002590216
-1.101,-0.002590216
-1.102,-0.002593281
-1.103,-0.002593281
-1.104,-0.002596347
-1.105,-0.002596347
-1.106,-0.002596347
-1.107,-0.002599412
-1.108,-0.002599412
-1.109,-0.002602478
-1.11,-0.002602478
-1.111,-0.002605543
-1.112,-0.002608609
-1.113,-0.002608609
-1.114,-0.002608609
-1.115,-0.002611674
-1.116,-0.002611674
-1.117,-0.00261474
-1.118,-0.00261474
-1.119,-0.002617805
-1.12,-0.002617805
-1.121,-0.002617805
-1.122,-0.002620871
-1.123,-0.002623936
-1.124,-0.002623936
-1.125,-0.002627002
-1.126,-0.002627002
-1.127,-0.002627002
-1.128,-0.002630068
-1.129,-0.002633133
-1.13,-0.002633133
-1.131,-0.002633133
-1.132,-0.002636198
-1.133,-0.002636198
-1.134,-0.002639264
-1.135,-0.002639264
-1.136,-0.002639264
-1.137,-0.002642329
-1.138,-0.002645395
-1.139,-0.002645395
-1.14,-0.00264846
-1.141,-0.00264846
-1.142,-0.00264846
-1.143,-0.002651526
-1.144,-0.002651526
-1.145,-0.002651526
-1.146,-0.002657657
-1.147,-0.002657657
-1.148,-0.002657657
-1.149,-0.002660722
-1.15,-0.002660722
-1.151,-0.002660722
-1.152,-0.002663787
-1.153,-0.002663787
-1.154,-0.002666853
-1.155,-0.002666853
-1.156,-0.002669919
-1.157,-0.002669919
-1.158,-0.002672984
-1.159,-0.002672984
-1.16,-0.002676049
-1.161,-0.002676049
-1.162,-0.002679115
-1.163,-0.00268218
-1.164,-0.002679115
-1.165,-0.002685246
-1.166,-0.002685246
-1.167,-0.002685246
-1.168,-0.002688312
-1.169,-0.002688312
-1.17,-0.002691377
-1.171,-0.002694442
-1.172,-0.002694442
-1.173,-0.002694442
-1.174,-0.002697508
-1.175,-0.002697508
-1.176,-0.002697508
-1.177,-0.002700574
-1.178,-0.002703639
-1.179,-0.002703639
-1.18,-0.002706704
-1.181,-0.002706704
-1.182,-0.00270977
-1.183,-0.00270977
-1.184,-0.002712835
-1.185,-0.002715901
-1.186,-0.002715901
-1.187,-0.002718966
-1.188,-0.002718966
-1.189,-0.002718966
-1.19,-0.002722032
-1.191,-0.002725097
-1.192,-0.002725097
-1.193,-0.002728163
-1.194,-0.002728163
-1.195,-0.002728163
-1.196,-0.002731228
-1.197,-0.002734293
-1.198,-0.002734293
-1.199,-0.002737359
-1.2,-0.002737359
-1.201,-0.002740425
-1.202,-0.002740425
-1.203,-0.002740425
-1.204,-0.00274349
-1.205,-0.002746556
-1.206,-0.002746556
-1.207,-0.002746556
-1.208,-0.002752687
-1.209,-0.002749621
-1.21,-0.002752687
-1.211,-0.002755752
-1.212,-0.002755752
-1.213,-0.002758818
-1.214,-0.002761883
-1.215,-0.002758818
-1.216,-0.002761883
-1.217,-0.002764949
-1.218,-0.002768014
-1.219,-0.002768014
-1.22,-0.002768014
-1.221,-0.00277108
-1.222,-0.00277108
-1.223,-0.00277108
-1.224,-0.00277721
-1.225,-0.00277721
-1.226,-0.00277721
-1.227,-0.002780276
-1.228,-0.002780276
-1.229,-0.002783341
-1.23,-0.002786407
-1.231,-0.002786407
-1.232,-0.002789472
-1.233,-0.002789472
-1.234,-0.002792538
-1.235,-0.002795603
-1.236,-0.002795603
-1.237,-0.002795603
-1.238,-0.002798669
-1.239,-0.002798669
-1.24,-0.002801734
-1.241,-0.0028048
-1.242,-0.0028048
-1.243,-0.002807865
-1.244,-0.002807865
-1.245,-0.002807865
-1.246,-0.002810931
-1.247,-0.002810931
-1.248,-0.002813996
-1.249,-0.002817062
-1.25,-0.002817062
-1.251,-0.002820127
-1.252,-0.002820127
-1.253,-0.002820127
-1.254,-0.002823193
-1.255,-0.002826258
-1.256,-0.002826258
-1.257,-0.002829324
-1.258,-0.002829324
-1.259,-0.002829324
-1.26,-0.002832389
-1.261,-0.002835455
-1.262,-0.00283852
-1.263,-0.00283852
-1.264,-0.002841586
-1.265,-0.002841586
-1.266,-0.002841586
-1.267,-0.002847716
-1.268,-0.002850782
-1.269,-0.002847716
-1.27,-0.002850782
-1.271,-0.002853847
-1.272,-0.002853847
-1.273,-0.002856913
-1.274,-0.002859978
-1.275,-0.002859978
-1.276,-0.002863044
-1.277,-0.00286611
-1.278,-0.00286611
-1.279,-0.002869175
-1.28,-0.002869175
-1.281,-0.00287224
-1.282,-0.002875306
-1.283,-0.002875306
-1.284,-0.002878371
-1.285,-0.002878371
-1.286,-0.002881437
-1.287,-0.002884502
-1.288,-0.002884502
-1.289,-0.002887568
-1.29,-0.002890633
-1.291,-0.002893699
-1.292,-0.002893699
-1.293,-0.002896764
-1.294,-0.00289983
-1.295,-0.002902895
-1.296,-0.002905961
-1.297,-0.002905961
-1.298,-0.002909026
-1.299,-0.002912092
-1.3,-0.002912092
-1.301,-0.002915157
-1.302,-0.002918222
-1.303,-0.002921288
-1.304,-0.002921288
-1.305,-0.002924354
-1.306,-0.002924354
-1.307,-0.002930485
-1.308,-0.002930485
-1.309,-0.00293355
-1.31,-0.002936616
-1.311,-0.002936616
-1.312,-0.002939681
-1.313,-0.002942747
-1.314,-0.002942747
-1.315,-0.002948877
-1.316,-0.002948877
-1.317,-0.002951943
-1.318,-0.002955008
-1.319,-0.002955008
-1.32,-0.002958074
-1.321,-0.002961139
-1.322,-0.002961139
-1.323,-0.00296727
-1.324,-0.002970336
-1.325,-0.002970336
-1.326,-0.002973401
-1.327,-0.002976467
-1.328,-0.002976467
-1.329,-0.002982598
-1.33,-0.002985663
-1.331,-0.002985663
-1.332,-0.002988729
-1.333,-0.002991794
-1.334,-0.002991794
-1.335,-0.002997925
-1.336,-0.003000991
-1.337,-0.003004056
-1.338,-0.003007122
-1.339,-0.003007122
-1.34,-0.003010187
-1.341,-0.003013253
-1.342,-0.003016318
-1.343,-0.003019383
-1.344,-0.003022449
-1.345,-0.003022449
-1.346,-0.003025514
-1.347,-0.003031645
-1.348,-0.003034711
-1.349,-0.003037777
-1.35,-0.003037777
-1.351,-0.003040842
-1.352,-0.003043907
-1.353,-0.003046973
-1.354,-0.003050038
-1.355,-0.003053104
-1.356,-0.003056169
-1.357,-0.003059235
-1.358,-0.0030623
-1.359,-0.003065366
-1.36,-0.003068431
-1.361,-0.003071497
-1.362,-0.003071497
-1.363,-0.003077628
-1.364,-0.003080693
-1.365,-0.003083759
-1.366,-0.003086824
-1.367,-0.003089889
-1.368,-0.003092955
-1.369,-0.003096021
-1.37,-0.003099086
-1.371,-0.003102152
-1.372,-0.003108283
-1.373,-0.003108283
-1.374,-0.003114413
-1.375,-0.003120545
-1.376,-0.003117479
-1.377,-0.003126675
-1.378,-0.003126675
-1.379,-0.003132806
-1.38,-0.003135872
-1.381,-0.003142003
-1.382,-0.003145068
-1.383,-0.003148134
-1.384,-0.003151199
-1.385,-0.00315733
-1.386,-0.003163461
-1.387,-0.003166527
-1.388,-0.003172658
-1.389,-0.003175723
-1.39,-0.003178789
-1.391,-0.003184919
-1.392,-0.003191051
-1.393,-0.003194116
-1.394,-0.003203312
-1.395,-0.003206378
-1.396,-0.003212509
-1.397,-0.00321864
-1.398,-0.003224771
-1.399,-0.003230902
-1.4,-0.003237033
-1.401,-0.003243164
-1.402,-0.00325236
-1.403,-0.003255426
-1.404,-0.003261557
-1.405,-0.003273819
-1.406,-0.00327995
-1.407,-0.003286081
-1.408,-0.003295277
-1.409,-0.003301408
-1.41,-0.003310604
-1.411,-0.003322866
-1.412,-0.003325932
-1.413,-0.003338194
-1.414,-0.00334739
-1.415,-0.003356587
-1.416,-0.003371914
-1.417,-0.00338111
-1.418,-0.003390307
-1.419,-0.003402569
-1.42,-0.003414831
-1.421,-0.003424027
-1.422,-0.00344242
-1.423,-0.003451617
-1.424,-0.003466944
-1.425,-0.003485337
-1.426,-0.003497599
-1.427,-0.003512926
-1.428,-0.003528254
-1.429,-0.003546647
-1.43,-0.003565039
-1.431,-0.003580367
-1.432,-0.003601825
-1.433,-0.003620218
-1.434,-0.003641677
-1.435,-0.0036662
-1.436,-0.003684593
-1.437,-0.003709117
-1.438,-0.003733641
-1.439,-0.003758165
-1.44,-0.003782689
-1.441,-0.003813344
-1.442,-0.003840933
-1.443,-0.003871588
-1.444,-0.003902242
-1.445,-0.003932897
-1.446,-0.003966617
-1.447,-0.004006469
-1.448,-0.004040189
-1.449,-0.00408004
-1.45,-0.004119892
-1.451,-0.004159743
-1.452,-0.004205726
-1.453,-0.004251707
-1.454,-0.004294624
-1.455,-0.004346738
-1.456,-0.004398851
-1.457,-0.004450964
-1.458,-0.004509208
-1.459,-0.004567452
-1.46,-0.004625696
-1.461,-0.004693137
-1.462,-0.004757512
-1.463,-0.004828018
-1.464,-0.00490159
-1.465,-0.004978227
-1.466,-0.00505793
-1.467,-0.005140697
-1.468,-0.005223466
-1.469,-0.00531543
-1.47,-0.00541046
-1.471,-0.00550549
-1.472,-0.005609716
-1.473,-0.005720073
-1.474,-0.0058243
-1.475,-0.005940788
-1.476,-0.006060342
-1.477,-0.006182961
-1.478,-0.006314777
-1.479,-0.006449659
-1.48,-0.006587605
-1.481,-0.006734748
-1.482,-0.006884957
-1.483,-0.007041297
-1.484,-0.007203767
-1.485,-0.007372369
-1.486,-0.007547101
-1.487,-0.007727965
-1.488,-0.007911894
-1.489,-0.00811115
-1.49,-0.008307341
-1.491,-0.008512728
-1.492,-0.008730377
-1.493,-0.008948027
-1.494,-0.009174872
-1.495,-0.009407849
-1.496,-0.009646957
-1.497,-0.00989526
-1.498,-0.0101497
-1.499,-0.01041333
-1.5,-0.01059113
-1.499,-0.01060952
-1.498,-0.01061565
-1.497,-0.01061871
-1.496,-0.01061871
-1.495,-0.01061258
-1.494,-0.01060952
-1.493,-0.01060032
-1.492,-0.010585
-1.491,-0.0105758
-1.49,-0.01055741
-1.489,-0.01053901
-1.488,-0.01052062
-1.487,-0.0104961
-1.486,-0.01047157
-1.485,-0.01044398
-1.484,-0.01041333
-1.483,-0.01038267
-1.482,-0.01034895
-1.481,-0.0103091
-1.48,-0.01027538
-1.479,-0.01023247
-1.478,-0.01018955
-1.477,-0.0101497
-1.476,-0.01010065
-1.475,-0.01005467
-1.474,-0.01000255
-1.473,-0.009947374
-1.472,-0.009898326
-1.471,-0.009843147
-1.47,-0.009784903
-1.469,-0.009729725
-1.468,-0.009668415
-1.467,-0.009610171
-1.466,-0.009551927
-1.465,-0.009484487
-1.464,-0.009423177
-1.463,-0.009358802
-1.462,-0.009291361
-1.461,-0.009230051
-1.46,-0.00916261
-1.459,-0.009098236
-1.458,-0.009030795
-1.457,-0.008963354
-1.456,-0.008895914
-1.455,-0.008828473
-1.454,-0.008754901
-1.453,-0.008687461
-1.452,-0.008613889
-1.451,-0.008537252
-1.45,-0.008469812
-1.449,-0.008393174
-1.448,-0.008319603
-1.447,-0.008249097
-1.446,-0.008172459
-1.445,-0.008101954
-1.444,-0.008025317
-1.443,-0.007951745
-1.442,-0.007878173
-1.441,-0.007804601
-1.44,-0.00773103
-1.439,-0.007660524
-1.438,-0.007590018
-1.437,-0.007513381
-1.436,-0.00744594
-1.435,-0.007375435
-1.434,-0.007298797
-1.433,-0.007225225
-1.432,-0.007157785
-1.431,-0.007081148
-1.43,-0.007010642
-1.429,-0.006940136
-1.428,-0.006869629
-1.427,-0.006802189
-1.426,-0.006728617
-1.425,-0.006661177
-1.424,-0.006596802
-1.423,-0.006526296
-1.422,-0.006461921
-1.421,-0.006388349
-1.42,-0.006320909
-1.419,-0.006256533
-1.418,-0.006189092
-1.417,-0.006124718
-1.416,-0.006060342
-1.415,-0.005995967
-1.414,-0.005934658
-1.413,-0.005870283
-1.412,-0.005808973
-1.411,-0.005750729
-1.41,-0.005689419
-1.409,-0.005631175
-1.408,-0.00557293
-1.407,-0.005508556
-1.406,-0.005453377
-1.405,-0.005401264
-1.404,-0.005339954
-1.403,-0.005287841
-1.402,-0.005232662
-1.401,-0.005174418
-1.4,-0.00512537
-1.399,-0.005073257
-1.398,-0.005018078
-1.397,-0.004969031
-1.396,-0.004913852
-1.395,-0.004864804
-1.394,-0.004818822
-1.393,-0.004766709
-1.392,-0.004720726
-1.391,-0.004674744
-1.39,-0.004625696
-1.389,-0.004582779
-1.388,-0.004539863
-1.387,-0.004493881
-1.386,-0.004450964
-1.385,-0.004411113
-1.384,-0.004368196
-1.383,-0.004328344
-1.382,-0.004288493
-1.381,-0.004248642
-1.38,-0.004211857
-1.379,-0.004172005
-1.378,-0.004135219
-1.377,-0.004101499
-1.376,-0.004061648
-1.375,-0.004027927
-1.374,-0.003994207
-1.373,-0.003957421
-1.372,-0.003926767
-1.371,-0.003893046
-1.37,-0.003859326
-1.369,-0.003831736
-1.368,-0.003801082
-1.367,-0.003770427
-1.366,-0.003739772
-1.365,-0.003712183
-1.364,-0.003684593
-1.363,-0.003657004
-1.362,-0.003629415
-1.361,-0.003604891
-1.36,-0.003577302
-1.359,-0.003549712
-1.358,-0.003528254
-1.357,-0.003500664
-1.356,-0.00347614
-1.355,-0.003457748
-1.354,-0.003433224
-1.353,-0.0034087
-1.352,-0.003390307
-1.351,-0.003365783
-1.35,-0.003344325
-1.349,-0.003325932
-1.348,-0.003304473
-1.347,-0.003283015
-1.346,-0.003264622
-1.345,-0.003243164
-1.344,-0.003224771
-1.343,-0.003206378
-1.342,-0.003184919
-1.341,-0.003169592
-1.34,-0.003151199
-1.339,-0.003132806
-1.338,-0.003117479
-1.337,-0.003099086
-1.336,-0.003083759
-1.335,-0.003068431
-1.334,-0.003046973
-1.333,-0.003034711
-1.332,-0.003019383
-1.331,-0.003000991
-1.33,-0.002988729
-1.329,-0.002973401
-1.328,-0.002958074
-1.327,-0.002945812
-1.326,-0.002930485
-1.325,-0.002918222
-1.324,-0.002905961
-1.323,-0.002890633
-1.322,-0.002878371
-1.321,-0.00286611
-1.32,-0.002850782
-1.319,-0.00283852
-1.318,-0.002829324
-1.317,-0.002813996
-1.316,-0.0028048
-1.315,-0.002792538
-1.314,-0.00277721
-1.313,-0.00277108
-1.312,-0.002758818
-1.311,-0.002746556
-1.31,-0.002737359
-1.309,-0.002725097
-1.308,-0.002712835
-1.307,-0.002703639
-1.306,-0.002691377
-1.305,-0.00268218
-1.304,-0.002672984
-1.303,-0.002660722
-1.302,-0.002651526
-1.301,-0.002642329
-1.3,-0.002630068
-1.299,-0.002623936
-1.298,-0.00261474
-1.297,-0.002602478
-1.296,-0.002596347
-1.295,-0.002584085
-1.294,-0.002577954
-1.293,-0.002568757
-1.292,-0.002559561
-1.291,-0.002550365
-1.29,-0.002544234
-1.289,-0.002531972
-1.288,-0.002525841
-1.287,-0.00251971
-1.286,-0.002507448
-1.285,-0.002504382
-1.284,-0.00249212
-1.283,-0.00248599
-1.282,-0.002476793
-1.281,-0.002467597
-1.28,-0.002461466
-1.279,-0.002452269
-1.278,-0.002443073
-1.277,-0.002440007
-1.276,-0.002430811
-1.275,-0.002421614
-1.274,-0.002415484
-1.273,-0.002406287
-1.272,-0.002400156
-1.271,-0.002394025
-1.27,-0.002384829
-1.269,-0.002378698
-1.268,-0.002372567
-1.267,-0.002366436
-1.266,-0.002357239
-1.265,-0.002351108
-1.264,-0.002341912
-1.263,-0.002338846
-1.262,-0.002332716
-1.261,-0.002323519
-1.26,-0.002317388
-1.259,-0.002311257
-1.258,-0.002302061
-1.257,-0.002298995
-1.256,-0.002289799
-1.255,-0.002283668
-1.254,-0.002280602
-1.253,-0.002271406
-1.252,-0.002265275
-1.251,-0.002259144
-1.25,-0.002253013
-1.249,-0.002246882
-1.248,-0.002240751
-1.247,-0.002231555
-1.246,-0.002228489
-1.245,-0.002222358
-1.244,-0.002213162
-1.243,-0.002213162
-1.242,-0.002203965
-1.241,-0.002197834
-1.24,-0.002191703
-1.239,-0.002185572
-1.238,-0.002182507
-1.237,-0.002176376
-1.236,-0.002167179
-1.235,-0.002164114
-1.234,-0.002161048
-1.233,-0.002151852
-1.232,-0.002148786
-1.231,-0.002142655
-1.23,-0.002136525
-1.229,-0.002130394
-1.228,-0.002124263
-1.227,-0.002121197
-1.226,-0.002115066
-1.225,-0.002108935
-1.224,-0.00210587
-1.223,-0.002099739
-1.222,-0.002093608
-1.221,-0.002090542
-1.22,-0.002084411
-1.219,-0.00207828
-1.218,-0.002075215
-1.217,-0.002066019
-1.216,-0.002062953
-1.215,-0.002059887
-1.214,-0.002050691
-1.213,-0.002050691
-1.212,-0.00204456
-1.211,-0.002038429
-1.21,-0.002035364
-1.209,-0.002029233
-1.208,-0.002023102
-1.207,-0.002020036
-1.206,-0.002016971
-1.205,-0.00201084
-1.204,-0.002007774
-1.203,-0.002001643
-1.202,-0.001995512
-1.201,-0.001992447
-1.2,-0.001986316
-1.199,-0.00198325
-1.198,-0.00197712
-1.197,-0.001970988
-1.196,-0.001967923
-1.195,-0.001964858
-1.194,-0.001958727
-1.193,-0.001955661
-1.192,-0.00194953
-1.191,-0.001946465
-1.19,-0.001940334
-1.189,-0.001937268
-1.188,-0.001931137
-1.187,-0.001928072
-1.186,-0.001925006
-1.185,-0.001918875
-1.184,-0.00191581
-1.183,-0.001909679
-1.182,-0.001906613
-1.181,-0.001903548
-1.18,-0.001897417
-1.179,-0.001894351
-1.178,-0.00188822
-1.177,-0.001885155
-1.176,-0.00188209
-1.175,-0.001879024
-1.174,-0.001872893
-1.173,-0.001869828
-1.172,-0.001866762
-1.171,-0.001860631
-1.17,-0.001857566
-1.169,-0.0018545
-1.168,-0.001851435
-1.167,-0.001845304
-1.166,-0.001842238
-1.165,-0.001839173
-1.164,-0.001833042
-1.163,-0.001829976
-1.162,-0.001826911
-1.161,-0.00182078
-1.16,-0.001817714
-1.159,-0.001814649
-1.158,-0.001808518
-1.157,-0.001805453
-1.156,-0.001802387
-1.155,-0.001796256
-1.154,-0.00179319
-1.153,-0.001790125
-1.152,-0.001783994
-1.151,-0.001780929
-1.15,-0.001777863
-1.149,-0.001771732
-1.148,-0.001768667
-1.147,-0.001768667
-1.146,-0.001762536
-1.145,-0.00175947
-1.144,-0.001753339
-1.143,-0.001747208
-1.142,-0.001747208
-1.141,-0.001744143
-1.14,-0.001738012
-1.139,-0.001734946
-1.138,-0.001731881
-1.137,-0.00172575
-1.136,-0.001722684
-1.135,-0.001716554
-1.134,-0.001713488
-1.133,-0.001713488
-1.132,-0.001707357
-1.131,-0.001704292
-1.13,-0.001698161
-1.129,-0.00169203
-1.128,-0.00169203
-1.127,-0.001685899
-1.126,-0.001682833
-1.125,-0.001679768
-1.124,-0.001673637
-1.123,-0.001670571
-1.122,-0.001667506
-1.121,-0.001661375
-1.12,-0.001655244
-1.119,-0.001655244
-1.118,-0.001649113
-1.117,-0.001646047
-1.116,-0.001642982
-1.115,-0.001639916
-1.114,-0.001633785
-1.113,-0.00163072
-1.112,-0.001627655
-1.111,-0.001624589
-1.11,-0.001618458
-1.109,-0.00165259
-1.108,-0.001648605
-1.107,-0.00164462
-1.106,-0.001641861
-1.105,-0.00163665
-1.104,-0.001633278
-1.103,-0.001630519
-1.102,-0.00162684
-1.101,-0.001621935
-1.1,-0.001620096
-1.099,-0.001614885
-1.098,-0.001611513
-1.097,-0.001608754
-1.096,-0.001603849
-1.095,-0.001600477
-1.094,-0.001597718
-1.093,-0.001592813
-1.092,-0.001588828
-1.091,-0.001586376
-1.09,-0.001581778
-1.089,-0.001577486
-1.088,-0.00157534
-1.087,-0.001570129
-1.086,-0.001567983
-1.085,-0.001565224
-1.084,-0.001559399
-1.083,-0.00155756
-1.082,-0.001552042
-1.081,-0.001549283
-1.08,-0.001546218
-1.079,-0.001541926
-1.078,-0.001538861
-1.077,-0.001535489
-1.076,-0.001530277
-1.075,-0.001528132
-1.074,-0.00152384
-1.073,-0.001519548
-1.072,-0.001518322
-1.071,-0.001513417
-1.07,-0.001510045
-1.069,-0.001508819
-1.068,-0.001503301
-1.067,-0.001500849
-1.066,-0.00149809
-1.065,-0.001493185
-1.064,-0.001491346
-1.063,-0.001487667
-1.062,-0.001482762
-1.061,-0.00148031
-1.06,-0.001476938
-1.059,-0.001472953
-1.058,-0.001469887
-1.057,-0.001466515
-1.056,-0.001461304
-1.055,-0.001460078
-1.054,-0.001456093
-1.053,-0.001452721
-1.052,-0.001450268
-1.051,-0.00144475
-1.05,-0.001442298
-1.049,-0.001438313
-1.048,-0.001434634
-1.047,-0.001432795
-1.046,-0.001429116
-1.045,-0.001424212
-1.044,-0.001422066
-1.043,-0.001416548
-1.042,-0.001414402
-1.041,-0.001412869
-1.04,-0.001407045
-1.039,-0.001404593
-1.038,-0.00140214
-1.037,-0.001396622
-1.036,-0.001393863
-1.035,-0.001391104
-1.034,-0.001385587
-1.033,-0.001383134
-1.032,-0.001380375
-1.031,-0.001376084
-1.03,-0.001371792
-1.029,-0.001369953
-1.028,-0.001364128
-1.027,-0.001362902
-1.026,-0.00135861
-1.025,-0.001354319
-1.024,-0.001352173
-1.023,-0.001346348
-1.022,-0.001343283
-1.021,-0.001340524
-1.02,-0.001336232
-1.019,-0.001334087
-1.018,-0.001329795
-1.017,-0.001326116
-1.016,-0.001323357
-1.015,-0.001319066
-1.014,-0.001315694
-1.013,-0.001312935
-1.012,-0.001308643
-1.011,-0.001305884
-1.01,-0.001302512
-1.009,-0.001297914
-1.008,-0.001295155
-1.007,-0.001291783
-1.006,-0.001287491
-1.005,-0.001285345
-1.004,-0.001281973
-1.003,-0.001277375
-1.002,-0.001274616
-1.001,-0.001271857
-1,-0.001266339
-0.9990003,-0.001264807
-0.9980002,-0.001260208
-0.9970002,-0.001256836
-0.9960002,-0.001254077
-0.9950002,-0.001249173
-0.9940003,-0.001247027
-0.9930002,-0.001242429
-0.9920002,-0.001239976
-0.9910002,-0.001236604
-0.9900002,-0.001232313
-0.9890002,-0.001230167
-0.9880002,-0.001226488
-0.9870002,-0.001221583
-0.9860002,-0.001219437
-0.9850003,-0.001216372
-0.9840002,-0.001213
-0.9830002,-0.001210548
-0.9820002,-0.001206562
-0.9810002,-0.001201964
-0.9800002,-0.001199205
-0.9790002,-0.001195833
-0.9780002,-0.001191848
-0.9770002,-0.001189702
-0.9760002,-0.001185411
-0.9750002,-0.001182345
-0.9740002,-0.00117928
-0.9730002,-0.001174681
-0.9720002,-0.001171922
-0.9710003,-0.00116855
-0.9700002,-0.001164872
-0.9690002,-0.001161806
-0.9680002,-0.001158434
-0.9670002,-0.001155062
-0.9660002,-0.001152916
-0.9650002,-0.001148625
-0.9640002,-0.00114464
-0.9630002,-0.001141881
-0.9620003,-0.001137896
-0.9610002,-0.00113483
-0.9600002,-0.001133297
-0.9590002,-0.00112686
-0.9580002,-0.001126247
-0.9570003,-0.001122875
-0.9560002,-0.001117663
-0.9550002,-0.001115518
-0.9540002,-0.001111839
-0.9530002,-0.001107547
-0.9520002,-0.001105401
-0.9510002,-0.001101416
-0.9500002,-0.001097125
-0.9490002,-0.001094979
-0.9480003,-0.001090381
-0.9470002,-0.001086395
-0.9460002,-0.001084556
-0.9450002,-0.001081797
-0.9440002,-0.001077812
-0.9430002,-0.00107444
-0.9420002,-0.001070761
-0.9410002,-0.001067696
-0.9400002,-0.001064937
-0.9390002,-0.001060645
-0.9380002,-0.001057887
-0.9370002,-0.001055128
-0.9360002,-0.001050529
-0.9350002,-0.001047464
-0.9340003,-0.001043479
-0.9330002,-0.0010398
-0.9320002,-0.001037654
-0.9310002,-0.001033363
-0.9300002,-0.00103091
-0.9290002,-0.001028458
-0.9280002,-0.001024166
-0.9270002,-0.001021101
-0.9260002,-0.001017422
-0.9250003,-0.001013131
-0.9240002,-0.001010371
-0.9230002,-0.001007613
-0.9220002,-0.001003014
-0.9210002,-0.001000562
-0.9200003,-0.0009968834
-0.9190002,-0.0009928982
-0.9180002,-0.0009901392
-0.9170002,-0.0009858476
-0.9160002,-0.0009830886
-0.9150002,-0.0009803297
-0.9140002,-0.0009754249
-0.9130002,-0.0009735856
-0.9120002,-0.000969294
-0.9110003,-0.0009659219
-0.9100002,-0.0009634696
-0.9090002,-0.0009600975
-0.9080002,-0.0009564189
-0.9070002,-0.00095366
-0.9060002,-0.000950288
-0.9050002,-0.0009463029
-0.9040002,-0.0009438504
-0.9030002,-0.000940785
-0.9020002,-0.0009361868
-0.9010002,-0.0009349606
-0.9000002,-0.0009303623
-0.8990002,-0.0009269903
-0.8980002,-0.000925151
-0.8970003,-0.0009202462
-0.8960002,-0.0009174873
-0.8950002,-0.0009153415
-0.8940002,-0.0009107432
-0.8930002,-0.0009082909
-0.8920002,-0.0009055319
-0.8910002,-0.0009021599
-0.8900002,-0.000899401
-0.8890002,-0.0008951093
-0.8880002,-0.0008926569
-0.8870002,-0.0008895915
-0.8860002,-0.0008859128
-0.8850002,-0.0008834605
-0.8840002,-0.0008807015
-0.8830003,-0.000877023
-0.8820002,-0.0008745705
-0.8810002,-0.0008711985
-0.8800002,-0.0008675199
-0.8790002,-0.0008650676
-0.8780002,-0.0008620021
-0.8770002,-0.0008589366
-0.8760002,-0.0008558711
-0.8750002,-0.0008534187
-0.8740003,-0.000849127
-0.8730002,-0.0008469812
-0.8720002,-0.0008439157
-0.8710002,-0.0008405437
-0.8700002,-0.0008390109
-0.8690003,-0.0008356389
-0.8680002,-0.0008322669
-0.8670002,-0.0008298145
-0.8660002,-0.0008264424
-0.8650002,-0.0008242966
-0.8640002,-0.0008212312
-0.8630002,-0.0008184722
-0.8620002,-0.0008154067
-0.8610002,-0.0008126478
-0.8600003,-0.0008095824
-0.8590002,-0.00080713
-0.8580002,-0.0008034513
-0.8570002,-0.0008009989
-0.8560002,-0.0007988531
-0.8550002,-0.0007954811
-0.8540002,-0.0007924156
-0.8530002,-0.0007896567
-0.8520002,-0.0007865912
-0.8510002,-0.0007844454
-0.8500002,-0.000781993
-0.8490002,-0.0007786209
-0.8480002,-0.0007767816
-0.8470002,-0.0007727966
-0.8460003,-0.0007703441
-0.8450002,-0.0007685049
-0.8440002,-0.0007645197
-0.8430002,-0.0007620673
-0.8420002,-0.0007602281
-0.8410002,-0.0007559364
-0.8400002,-0.0007544036
-0.8390002,-0.0007522578
-0.8380002,-0.0007476595
-0.8370003,-0.0007458202
-0.8360002,-0.0007436744
-0.8350002,-0.0007396893
-0.8340002,-0.00073785
-0.8330002,-0.0007347845
-0.8320003,-0.0007317191
-0.8310002,-0.0007292667
-0.8300002,-0.0007268143
-0.8290002,-0.0007231357
-0.8280002,-0.0007216029
-0.8270002,-0.000718231
-0.8260002,-0.000715472
-0.8250002,-0.0007130196
-0.8240002,-0.000709341
-0.8230003,-0.0007071952
-0.8220002,-0.0007050494
-0.8210002,-0.0007016773
-0.8200002,-0.0006995315
-0.8190002,-0.000696466
-0.8180002,-0.0006927875
-0.8170002,-0.0006912547
-0.8160002,-0.0006875761
-0.8150002,-0.0006854302
-0.8140002,-0.0006838975
-0.8130002,-0.000680219
-0.8120002,-0.0006786863
-0.8110002,-0.0006765404
-0.8100002,-0.0006728618
-0.8090003,-0.0006710225
-0.8080002,-0.0006685701
-0.8070002,-0.0006658112
-0.8060002,-0.0006633588
-0.8050002,-0.0006605998
-0.8040002,-0.0006575344
-0.8030002,-0.0006553886
-0.8020002,-0.0006529361
-0.8010002,-0.0006507903
-0.8000003,-0.000658454
-0.8009998,-0.0006701029
-0.8019998,-0.0006789928
-0.8029998,-0.0006857368
-0.8039998,-0.0006927875
-0.8049998,-0.0007001446
-0.8059998,-0.0007056625
-0.8069998,-0.0007114868
-0.8079998,-0.0007176179
-0.8089998,-0.0007231357
-0.8099998,-0.0007286536
-0.8109998,-0.0007341714
-0.8119998,-0.0007390762
-0.8129998,-0.0007445941
-0.8139998,-0.0007494989
-0.8149998,-0.0007547102
-0.8159998,-0.0007602281
-0.8169998,-0.0007642132
-0.8179998,-0.000769731
-0.8189998,-0.0007743293
-0.8199998,-0.000779234
-0.8209998,-0.0007844454
-0.8219998,-0.0007890436
-0.8229998,-0.0007927222
-0.8239998,-0.0007985466
-0.8249998,-0.0008025317
-0.8259998,-0.0008065169
-0.8269998,-0.0008123412
-0.8279998,-0.0008166329
-0.8289998,-0.0008209246
-0.8299998,-0.0008255228
-0.8309998,-0.0008288948
-0.8319998,-0.0008341062
-0.8329998,-0.0008387044
-0.8339998,-0.000842383
-0.8349998,-0.0008475943
-0.8359998,-0.0008512728
-0.8369998,-0.0008549515
-0.8379998,-0.0008595497
-0.8389998,-0.0008638413
-0.8399998,-0.0008675199
-0.8409998,-0.0008727313
-0.8419998,-0.0008764099
-0.8429998,-0.0008797819
-0.8439998,-0.0008843801
-0.8449998,-0.0008877521
-0.8459998,-0.0008926569
-0.8469998,-0.0008969486
-0.8479998,-0.0009003207
-0.8489998,-0.0009055319
-0.8499998,-0.0009085974
-0.8509998,-0.0009128891
-0.8519998,-0.0009174873
-0.8529998,-0.0009208593
-0.8539998,-0.0009257642
-0.8549998,-0.0009303623
-0.8559998,-0.0009328147
-0.8569998,-0.0009377195
-0.8579998,-0.0009423177
-0.8589998,-0.0009450766
-0.8599998,-0.000950288
-0.8609998,-0.0009533535
-0.8619998,-0.0009579517
-0.8629998,-0.0009616303
-0.8639998,-0.0009646958
-0.8649998,-0.0009699071
-0.8659998,-0.0009732791
-0.8669998,-0.0009772643
-0.8679998,-0.0009821691
-0.8689998,-0.000985541
-0.8699998,-0.0009892196
-0.8709998,-0.0009941244
-0.8719998,-0.0009971899
-0.8729998,-0.001001175
-0.8739998,-0.001006386
-0.8749998,-0.001009452
-0.8759998,-0.001012824
-0.8769998,-0.001017729
-0.8779998,-0.001020794
-0.8789998,-0.001024166
-0.8799998,-0.001029684
-0.8809998,-0.001032443
-0.8819998,-0.001035815
-0.8829998,-0.00104072
-0.8839998,-0.001043479
-0.8849998,-0.001047157
-0.8859998,-0.001052062
-0.8869998,-0.001054514
-0.8879998,-0.001058806
-0.8889998,-0.001063098
-0.8899998,-0.00106555
-0.8909998,-0.001069842
-0.8919998,-0.001073827
-0.8929998,-0.001076892
-0.8939998,-0.001081491
-0.8949998,-0.001083943
-0.8959998,-0.001088235
-0.8969998,-0.00109222
-0.8979998,-0.001094979
-0.8989998,-0.001100497
-0.8999998,-0.001104175
-0.9009998,-0.001107547
-0.9019998,-0.001111226
-0.9029998,-0.001114598
-0.9039998,-0.001118583
-0.9049998,-0.001122568
-0.9059998,-0.001125634
-0.9069998,-0.001130232
-0.9079998,-0.00113391
-0.9089998,-0.001136976
-0.9099998,-0.001140655
-0.9109998,-0.00114464
-0.9119998,-0.001148318
-0.9129998,-0.001152303
-0.9139998,-0.001155062
-0.9149998,-0.001159967
-0.9159998,-0.001163339
-0.9169998,-0.001167018
-0.9179998,-0.001171309
-0.9189998,-0.001174068
-0.9199998,-0.00117836
-0.9209998,-0.001182958
-0.9219998,-0.001186024
-0.9229998,-0.001190622
-0.9239998,-0.001194607
-0.9249998,-0.001196753
-0.9259998,-0.001201964
-0.9269998,-0.001205336
-0.9279998,-0.001207789
-0.9289998,-0.001213306
-0.9299998,-0.001215759
-0.9309998,-0.001218824
-0.9319998,-0.001223423
-0.9329998,-0.001227101
-0.9339998,-0.001230473
-0.9349998,-0.001235071
-0.9359998,-0.001236911
-0.9369998,-0.001242122
-0.9379998,-0.001246107
-0.9389998,-0.001247946
-0.9399998,-0.001253771
-0.9409998,-0.001256223
-0.9419998,-0.001260515
-0.9429998,-0.00126542
-0.9439998,-0.001268179
-0.9449998,-0.001271551
-0.9459998,-0.001276455
-0.9469998,-0.001278295
-0.9479998,-0.001283506
-0.9489998,-0.001287798
-0.9499998,-0.001289943
-0.9509998,-0.001294848
-0.9519998,-0.001298833
-0.9529998,-0.001300673
-0.9539998,-0.001304658
-0.9549998,-0.00130895
-0.9559998,-0.001311708
-0.9569998,-0.001317533
-0.9579998,-0.001320292
-0.9589998,-0.001323664
-0.9599998,-0.001327649
-0.9609998,-0.001331327
-0.9619998,-0.001335006
-0.9629998,-0.001337152
-0.9639998,-0.00134267
-0.9649998,-0.001346962
-0.9659998,-0.001349107
-0.9669998,-0.001353706
-0.9679998,-0.001357997
-0.9689998,-0.001360143
-0.9699998,-0.001364741
-0.9709998,-0.001369033
-0.9719998,-0.001371179
-0.9729998,-0.001375164
-0.9739998,-0.001379762
-0.9749998,-0.001381295
-0.9759998,-0.001384974
-0.9769998,-0.001390491
-0.9779998,-0.001391411
-0.9789998,-0.001396316
-0.9799998,-0.001400607
-0.9809998,-0.001402753
-0.9819998,-0.001407658
-0.9829998,-0.001410417
-0.9839998,-0.001413176
-0.9849998,-0.001417468
-0.9859998,-0.00142084
-0.9869998,-0.001423292
-0.9879998,-0.001428197
-0.9889998,-0.001431569
-0.9899998,-0.001434021
-0.9909998,-0.001439232
-0.9919998,-0.001440765
-0.9929998,-0.001445057
-0.9939998,-0.001449042
-0.9949998,-0.001450881
-0.9959998,-0.001455786
-0.9969998,-0.001458852
-0.9979998,-0.001461917
-0.9989998,-0.001466209
-0.9999998,-0.001469581
-1.001,-0.001472646
-1.002,-0.001476325
-1.003,-0.001479084
-1.004,-0.001483069
-1.005,-0.001487054
-1.006,-0.001489506
-1.007,-0.001493185
-1.008,-0.001496251
-1.009,-0.001500849
-1.01,-0.001504834
-1.011,-0.001507286
-1.012,-0.001510352
-1.013,-0.00151403
-1.014,-0.001517402
-1.015,-0.001520468
-1.016,-0.001524759
-1.017,-0.001527825
-1.018,-0.001531197
-1.019,-0.001535182
-1.02,-0.001537635
-1.021,-0.001541006
-1.022,-0.001545911
-1.023,-0.001548364
-1.024,-0.001552042
-1.025,-0.001556947
-1.026,-0.001559093
-1.027,-0.001562465
-1.028,-0.00156737
-1.029,-0.001569516
-1.03,-0.001573194
-1.031,-0.001578405
-1.032,-0.001580245
-1.033,-0.001583923
-1.034,-0.001588215
-1.035,-0.001590361
-1.036,-0.001594959
-1.037,-0.001599251
-1.038,-0.001601396
-1.039,-0.001605382
-1.04,-0.00160906
-1.041,-0.001611513
-1.042,-0.001616111
-1.043,-0.001620096
-1.044,-0.001622242
-1.045,-0.00162684
-1.046,-0.001630212
-1.047,-0.001631745
-1.048,-0.001637569
-1.049,-0.001641248
-1.05,-0.001643394
-1.051,-0.001649218
-1.052,-0.001650444
-1.053,-0.001654123
-1.054,-0.001659028
-1.055,-0.00166148
-1.056,-0.001666078
-1.057,-0.00166945
-1.058,-0.001672516
-1.059,-0.001676194
-1.06,-0.001680486
-1.061,-0.001682632
-1.062,-0.001687843
-1.063,-0.001690909
-1.064,-0.001693668
-1.065,-0.001698266
-1.066,-0.001701638
-1.067,-0.00170409
-1.068,-0.001709608
-1.069,-0.001711754
-1.07,-0.001714819
-1.071,-0.001720031
-1.072,-0.001721257
-1.073,-0.001726468
-1.074,-0.00173076
-1.075,-0.001732599
-1.076,-0.001737811
-1.077,-0.001739956
-1.078,-0.001744555
-1.079,-0.001748846
-1.08,-0.001751605
-1.081,-0.001755897
-1.082,-0.001758656
-1.083,-0.001761721
-1.084,-0.001766013
-1.085,-0.001769998
-1.086,-0.001772451
-1.087,-0.001776742
-1.088,-0.001779501
-1.089,-0.001782873
-1.09,-0.001786245
-1.091,-0.001789311
-1.092,-0.001793909
-1.093,-0.001798507
-1.094,-0.001800653
-1.095,-0.001804332
-1.096,-0.00180801
-1.097,-0.001810769
-1.098,-0.001814448
-1.099,-0.001819046
-1.1,-0.001821192
-1.101,-0.001825483
-1.102,-0.001830082
-1.103,-0.001831614
-1.104,-0.001834986
-1.105,-0.001840198
-1.106,-0.00184173
-1.107,-0.001846635
-1.108,-0.00185062
-1.109,-0.001851233
-1.11,-0.001857671
-1.111,-0.00186043
-1.112,-0.001863495
-1.113,-0.001869933
-1.114,-0.001870853
-1.115,-0.001874225
-1.116,-0.001879742
-1.117,-0.001881275
-1.118,-0.001885873
-1.119,-0.001891391
-1.12,-0.001892311
-1.121,-0.001897829
-1.122,-0.001901201
-1.123,-0.00190304
-1.124,-0.001908251
-1.125,-0.001914076
-1.126,-0.001916528
-1.127,-0.001920513
-1.128,-0.001924498
-1.129,-0.001927564
-1.13,-0.001933082
-1.131,-0.001935534
-1.132,-0.001938906
-1.133,-0.001944731
-1.134,-0.001947183
-1.135,-0.001950862
-1.136,-0.00195546
-1.137,-0.001957299
-1.138,-0.001963123
-1.139,-0.001966802
-1.14,-0.001969868
-1.141,-0.001976305
-1.142,-0.001979677
-1.143,-0.001983356
-1.144,-0.001987341
-1.145,-0.001991019
-1.146,-0.001996231
-1.147,-0.001999603
-1.148,-0.002003894
-1.149,-0.002008186
-1.15,-0.002010025
-1.151,-0.00201493
-1.152,-0.002020142
-1.153,-0.0020229
-1.154,-0.002027192
-1.155,-0.00203179
-1.156,-0.002034243
-1.157,-0.002038228
-1.158,-0.002043439
-1.159,-0.002045585
-1.16,-0.002049877
-1.161,-0.002054168
-1.162,-0.002056927
-1.163,-0.002061525
-1.164,-0.002064897
-1.165,-0.00206735
-1.166,-0.002071948
-1.167,-0.002075627
-1.168,-0.002077773
-1.169,-0.002082677
-1.17,-0.002085129
-1.171,-0.002086662
-1.172,-0.002093713
-1.173,-0.002093713
-1.174,-0.002098311
-1.175,-0.002102603
-1.176,-0.002103829
-1.177,-0.002107201
-1.178,-0.00210996
-1.179,-0.002112106
-1.18,-0.002116091
-1.181,-0.00211885
-1.182,-0.002122528
-1.183,-0.002124674
-1.184,-0.002125901
-1.185,-0.002131112
-1.186,-0.002133871
-1.187,-0.002135403
-1.188,-0.002140308
-1.189,-0.002142761
-1.19,-0.0021446
-1.191,-0.002150118
-1.192,-0.002151038
-1.193,-0.002153183
-1.194,-0.002159928
-1.195,-0.00216146
-1.196,-0.002165139
-1.197,-0.00216943
-1.198,-0.002171576
-1.199,-0.002176481
-1.2,-0.002179547
-1.201,-0.002180466
-1.202,-0.00218721
-1.203,-0.002190582
-1.204,-0.002193035
-1.205,-0.002198552
-1.206,-0.002200085
-1.207,-0.002205297
-1.208,-0.002208056
-1.209,-0.002211428
-1.21,-0.002217558
-1.211,-0.002219398
-1.212,-0.002225222
-1.213,-0.002229207
-1.214,-0.002231966
-1.215,-0.002237791
-1.216,-0.002241469
-1.217,-0.002243615
-1.218,-0.002249746
-1.219,-0.002254038
-1.22,-0.002256797
-1.221,-0.002263234
-1.222,-0.002267219
-1.223,-0.002270285
-1.224,-0.002276416
-1.225,-0.002280094
-1.226,-0.00228316
-1.227,-0.00229021
-1.228,-0.002293583
-1.229,-0.002298487
-1.23,-0.002304925
-1.231,-0.002307377
-1.232,-0.002312282
-1.233,-0.002318719
-1.234,-0.002321785
-1.235,-0.002326996
-1.236,-0.002334047
-1.237,-0.002336806
-1.238,-0.002343856
-1.239,-0.002349681
-1.24,-0.002352133
-1.241,-0.002361023
-1.242,-0.002364395
-1.243,-0.002370526
-1.244,-0.002377883
-1.245,-0.002382788
-1.246,-0.002388612
-1.247,-0.002394437
-1.248,-0.002400261
-1.249,-0.002407312
-1.25,-0.00241283
-1.251,-0.002419267
-1.252,-0.002426624
-1.253,-0.002431529
-1.254,-0.002440726
-1.255,-0.002446857
-1.256,-0.002450535
-1.257,-0.002459732
-1.258,-0.002466169
-1.259,-0.0024723
-1.26,-0.002479657
-1.261,-0.002487934
-1.262,-0.002493145
-1.263,-0.002502648
-1.264,-0.002510006
-1.265,-0.002516137
-1.266,-0.00252472
-1.267,-0.002533916
-1.268,-0.002540354
-1.269,-0.002548937
-1.27,-0.00255844
-1.271,-0.002565184
-1.272,-0.002574381
-1.273,-0.002583884
-1.274,-0.002590628
-1.275,-0.002601357
-1.276,-0.002609634
-1.277,-0.002618217
-1.278,-0.002628333
-1.279,-0.00263661
-1.28,-0.002645806
-1.281,-0.002657149
-1.282,-0.002665732
-1.283,-0.002676155
-1.284,-0.002686884
-1.285,-0.002694854
-1.286,-0.002707729
-1.287,-0.002719991
-1.288,-0.002725509
-1.289,-0.002742982
-1.29,-0.002752179
-1.291,-0.002761069
-1.292,-0.00277517
-1.293,-0.002784673
-1.294,-0.002795709
-1.295,-0.002811649
-1.296,-0.002820845
-1.297,-0.002834334
-1.298,-0.002847209
-1.299,-0.002857631
-1.3,-0.002873265
-1.301,-0.00288614
-1.302,-0.002897483
-1.303,-0.002914956
-1.304,-0.002926911
-1.305,-0.002938254
-1.306,-0.00295726
-1.307,-0.002967069
-1.308,-0.002984236
-1.309,-0.003002935
-1.31,-0.00301489
-1.311,-0.00299486
-1.312,-0.003013253
-1.313,-0.003025514
-1.314,-0.003043907
-1.315,-0.0030623
-1.316,-0.003077628
-1.317,-0.003096021
-1.318,-0.003114413
-1.319,-0.003132806
-1.32,-0.003151199
-1.321,-0.003169592
-1.322,-0.003187985
-1.323,-0.003209443
-1.324,-0.003227836
-1.325,-0.003249295
-1.326,-0.003270753
-1.327,-0.003289146
-1.328,-0.003316735
-1.329,-0.003338194
-1.33,-0.003356587
-1.331,-0.003384176
-1.332,-0.0034087
-1.333,-0.003430158
-1.334,-0.003457748
-1.335,-0.003482271
-1.336,-0.003506796
-1.337,-0.003534385
-1.338,-0.003558908
-1.339,-0.003589563
-1.34,-0.003617153
-1.341,-0.003647808
-1.342,-0.003678462
-1.343,-0.003709117
-1.344,-0.003736707
-1.345,-0.003773492
-1.346,-0.003804147
-1.347,-0.003837867
-1.348,-0.003874653
-1.349,-0.003908373
-1.35,-0.003945159
-1.351,-0.003981945
-1.352,-0.004015665
-1.353,-0.004061648
-1.354,-0.004098434
-1.355,-0.00414135
-1.356,-0.004187332
-1.357,-0.004224118
-1.358,-0.004273166
-1.359,-0.004319148
-1.36,-0.00436513
-1.361,-0.004414178
-1.362,-0.004463226
-1.363,-0.004515339
-1.364,-0.004570518
-1.365,-0.004622631
-1.366,-0.00467781
-1.367,-0.004739119
-1.368,-0.004794298
-1.369,-0.004858673
-1.37,-0.004926114
-1.371,-0.004987423
-1.372,-0.005054864
-1.373,-0.005122304
-1.374,-0.005192811
-1.375,-0.005266382
-1.376,-0.005343019
-1.377,-0.005416591
-1.378,-0.005502424
-1.379,-0.005582127
-1.38,-0.005667961
-1.381,-0.005753794
-1.382,-0.005842693
-1.383,-0.005937723
-1.384,-0.006032753
-1.385,-0.006127783
-1.386,-0.006228944
-1.387,-0.00633317
-1.388,-0.006437397
-1.389,-0.006550819
-1.39,-0.006664242
-1.391,-0.006777665
-1.392,-0.006897219
-1.393,-0.007019838
-1.394,-0.007145523
-1.395,-0.007274273
-1.396,-0.007409154
-1.397,-0.007544036
-1.398,-0.007681982
-1.399,-0.007822994
-1.4,-0.007973203
-1.401,-0.008120347
-1.402,-0.00827362
-1.403,-0.008433026
-1.404,-0.008592431
-1.405,-0.008757967
-1.406,-0.008929634
-1.407,-0.00909517
-1.408,-0.009269902
-1.409,-0.009453831
-1.41,-0.009631629
-1.411,-0.00982169
-1.412,-0.01001482
-1.413,-0.01020181
-1.414,-0.01040413
-1.415,-0.01060952
-1.416,-0.01080878
-1.417,-0.01102029
-1.418,-0.01123794
-1.419,-0.01144946
-1.42,-0.01167324
-1.421,-0.01189702
-1.422,-0.0121208
-1.423,-0.01235684
-1.424,-0.01258676
-1.425,-0.0128228
-1.426,-0.01306804
-1.427,-0.01330714
-1.428,-0.01355851
-1.429,-0.01380988
-1.43,-0.01406125
-1.431,-0.01432488
-1.432,-0.01457932
-1.433,-0.01484602
-1.434,-0.01511578
-1.435,-0.01537941
-1.436,-0.01565224
-1.437,-0.01592507
-1.438,-0.01620096
-1.439,-0.01647992
-1.44,-0.01675888
-1.441,-0.0170409
-1.442,-0.01733212
-1.443,-0.01762334
-1.444,-0.01790843
-1.445,-0.01820578
-1.446,-0.01850007
-1.447,-0.01879129
-1.448,-0.0191009
-1.449,-0.01939826
-1.45,-0.01969867
-1.451,-0.02001442
-1.452,-0.02031484
-1.453,-0.02062752
-1.454,-0.02094019
-1.455,-0.02124674
-1.456,-0.02156555
-1.457,-0.02187517
-1.458,-0.02219704
-1.459,-0.02251585
-1.46,-0.0228316
-1.461,-0.02315347
-1.462,-0.02347535
-1.463,-0.02379109
-1.464,-0.02411603
-1.465,-0.02444711
-1.466,-0.02476592
-1.467,-0.02510005
-1.468,-0.02543419
-1.469,-0.025753
-1.47,-0.02609327
-1.471,-0.02642741
-1.472,-0.02675848
-1.473,-0.02709875
-1.474,-0.02743289
-1.475,-0.02776089
-1.476,-0.02811036
-1.477,-0.02843837
-1.478,-0.02877863
-1.479,-0.02912197
-1.48,-0.02945611
-1.481,-0.0298025
-1.482,-0.03013971
-1.483,-0.03059235
-1.484,-0.03092955
-1.485,-0.03126676
-1.486,-0.03160396
-1.487,-0.03194116
-1.488,-0.03230902
-1.489,-0.03264622
-1.49,-0.03301408
-1.491,-0.03335128
-1.492,-0.03368849
-1.493,-0.03405635
-1.494,-0.03439355
-1.495,-0.03473075
-1.496,-0.03509861
-1.497,-0.03543581
-1.498,-0.03580367
-1.499,-0.03614087
-1.5,-0.03626349
-1.499,-0.0359876
-1.498,-0.03571171
-1.497,-0.03540516
-1.496,-0.03512926
-1.495,-0.03482271
-1.494,-0.03451617
-1.493,-0.03420962
-1.492,-0.03390307
-1.491,-0.03359652
-1.49,-0.03328998
-1.489,-0.03298343
-1.488,-0.03270753
-1.487,-0.03237033
-1.486,-0.03206378
-1.485,-0.03178789
-1.484,-0.03145069
-1.483,-0.03114414
-1.482,-0.03086824
-1.481,-0.03056169
-1.48,-0.03025514
-1.479,-0.02997925
-1.478,-0.0296727
-1.477,-0.02936616
-1.476,-0.02905961
-1.475001,-0.02878371
-1.474,-0.02847717
-1.473,-0.02817062
-1.472,-0.02789472
-1.471,-0.02758818
-1.47,-0.02728163
-1.469,-0.02700574
-1.468,-0.02672984
-1.467,-0.02642329
-1.466,-0.0261474
-1.465,-0.02587151
-1.464,-0.02556496
-1.463,-0.02528906
-1.462,-0.02498252
-1.461,-0.02470662
-1.46,-0.02443073
-1.459,-0.02415484
-1.458,-0.02384829
-1.457,-0.02360305
-1.456,-0.02332716
-1.455,-0.02305126
-1.454,-0.02277537
-1.453,-0.02249948
-1.452,-0.02222358
-1.451,-0.02194769
-1.45,-0.02167179
-1.449,-0.02142656
-1.448,-0.02115066
-1.447,-0.02087477
-1.446,-0.02062953
-1.445,-0.02038429
-1.444,-0.0201084
-1.443,-0.01986316
-1.442,-0.01961792
-1.441,-0.01934203
-1.44,-0.01909679
-1.439,-0.01882089
-1.438,-0.01860631
-1.437,-0.01833042
-1.436,-0.01808518
-1.435,-0.0178706
-1.434,-0.0175947
-1.433,-0.01734946
-1.432,-0.01713488
-1.431,-0.01688964
-1.43,-0.0166444
-1.429,-0.01639917
-1.428,-0.01618458
-1.427,-0.01605688
-1.426,-0.01583923
-1.425,-0.01560932
-1.424,-0.01538861
-1.423,-0.01517402
-1.422,-0.01494718
-1.421,-0.01473872
-1.42,-0.01452414
-1.419,-0.01430956
-1.418,-0.0141011
-1.417,-0.01388959
-1.416,-0.0136842
-1.415,-0.01348494
-1.414,-0.01328262
-1.413,-0.01308336
-1.412,-0.01288717
-1.411,-0.01269098
-1.41,-0.01249786
-1.409,-0.01231699
-1.408,-0.01212693
-1.407,-0.01193687
-1.406,-0.01175601
-1.405,-0.01157208
-1.404,-0.01139428
-1.403,-0.01121955
-1.402,-0.01104482
-1.401,-0.01087315
-1.4,-0.01070455
-1.399,-0.01053595
-1.398,-0.01037654
-1.397,-0.01021101
-1.396,-0.01004854
-1.395,-0.00989526
-1.394,-0.009738921
-1.393,-0.009588713
-1.392,-0.009435439
-1.391,-0.009291361
-1.39,-0.009144218
-1.389,-0.00900014
-1.388,-0.008859128
-1.387,-0.008718115
-1.386,-0.008583235
-1.385,-0.008451419
-1.384,-0.008316537
-1.383,-0.008187788
-1.382,-0.008065168
-1.381,-0.007933352
-1.38,-0.007810732
-1.379,-0.007694244
-1.378,-0.007574691
-1.377,-0.007464333
-1.376,-0.00735091
-1.375,-0.007234422
-1.374,-0.007130195
-1.373,-0.007019838
-1.372,-0.006915612
-1.371,-0.006817516
-1.37,-0.00671329
-1.369,-0.006615194
-1.368,-0.006520165
-1.367,-0.006425134
-1.366,-0.00633317
-1.365,-0.006244271
-1.364,-0.006155372
-1.363,-0.006072604
-1.362,-0.005986771
-1.361,-0.005900937
-1.36,-0.005827365
-1.359,-0.005744598
-1.358,-0.005667961
-1.357,-0.005597454
-1.356,-0.005517752
-1.355,-0.005450311
-1.354,-0.005379805
-1.353,-0.005306234
-1.352,-0.005244924
-1.351,-0.005177483
-1.350001,-0.005113108
-1.349,-0.005051799
-1.348,-0.004987423
-1.347,-0.004932245
-1.346,-0.004874
-1.345,-0.004815756
-1.344,-0.004757512
-1.343,-0.004702333
-1.342,-0.00465022
-1.341,-0.004598107
-1.34,-0.004545994
-1.339,-0.004496946
-1.338,-0.004450964
-1.337,-0.004401916
-1.336,-0.004358999
-1.335,-0.004309952
-1.334,-0.004267035
-1.333,-0.004227184
-1.332,-0.004181202
-1.331,-0.004138284
-1.33,-0.004101499
-1.329,-0.004058582
-1.328,-0.004021796
-1.327,-0.003981945
-1.326,-0.003948225
-1.325,-0.003911439
-1.324,-0.003877719
-1.323,-0.003843998
-1.322,-0.003807213
-1.321,-0.003776558
-1.32,-0.003739772
-1.319,-0.003712183
-1.318,-0.003681528
-1.317,-0.003650873
-1.316,-0.003620218
-1.315,-0.003592629
-1.314,-0.003561974
-1.313,-0.003534385
-1.312,-0.003506796
-1.311,-0.003479206
-1.31,-0.003454682
-1.309,-0.003427093
-1.308,-0.003402569
-1.307,-0.003378045
-1.306,-0.003350456
-1.305,-0.003328997
-1.304,-0.003304473
-1.303,-0.003283015
-1.302,-0.003258491
-1.301,-0.003237033
-1.3,-0.003212509
-1.299,-0.003194116
-1.298,-0.003172658
-1.297,-0.003148134
-1.296,-0.003129741
-1.295,-0.003108283
-1.294,-0.003089889
-1.293,-0.003071497
-1.292,-0.003050038
-1.291,-0.003034711
-1.29,-0.003016318
-1.289,-0.002997925
-1.288,-0.002979532
-1.287,-0.002961139
-1.286,-0.002942747
-1.285,-0.002927419
-1.284,-0.002912092
-1.283,-0.002893699
-1.282,-0.002878371
-1.281,-0.002859978
-1.28,-0.002844651
-1.279,-0.002832389
-1.278,-0.002813996
-1.277,-0.002801734
-1.276,-0.002786407
-1.275,-0.00277108
-1.274,-0.002755752
-1.273,-0.00274349
-1.272,-0.002728163
-1.271,-0.002715901
-1.27,-0.002700574
-1.269,-0.002688312
-1.268,-0.002672984
-1.267,-0.002660722
-1.266,-0.00264846
-1.265,-0.002636198
-1.264,-0.002620871
-1.263,-0.002611674
-1.262,-0.002596347
-1.261,-0.002584085
-1.26,-0.002571823
-1.259,-0.002559561
-1.258,-0.002547299
-1.257,-0.002538103
-1.256,-0.002525841
-1.255,-0.002513579
-1.254,-0.002504382
-1.253,-0.00249212
-1.252,-0.002479859
-1.251,-0.002470662
-1.25,-0.0024584
-1.249,-0.002449204
-1.248,-0.002436942
-1.247,-0.00242468
-1.246,-0.002418549
-1.245,-0.002406287
-1.244,-0.002394025
-1.243,-0.002387894
-1.242,-0.002375632
-1.241,-0.002366436
-1.24,-0.002357239
-1.239,-0.002344977
-1.238,-0.002338846
-1.237,-0.002326585
-1.236,-0.002317388
-1.235,-0.002311257
-1.234,-0.002302061
-1.233,-0.002289799
-1.232,-0.002283668
-1.231,-0.002274471
-1.23,-0.002265275
-1.229,-0.002256078
-1.228,-0.002249948
-1.227,-0.002240751
-1.226,-0.002231555
-1.225001,-0.002225423
-1.224,-0.002216227
-1.223,-0.002210096
-1.222,-0.0022009
-1.221,-0.002194769
-1.22,-0.002182507
-1.219,-0.002176376
-1.218,-0.002170245
-1.217,-0.002157983
-1.216,-0.002154917
-1.215,-0.002145721
-1.214,-0.00213959
-1.213,-0.002133459
-1.212,-0.002124263
-1.211,-0.002118132
-1.21,-0.002112001
-1.209,-0.002102804
-1.208,-0.002096673
-1.207,-0.002090542
-1.206,-0.002081346
-1.205,-0.00207828
-1.204,-0.002072149
-1.203,-0.002062953
-1.202,-0.002056822
-1.201,-0.002053756
-1.2,-0.00204456
-1.199,-0.002038429
-1.198,-0.002032298
-1.197,-0.002023102
-1.196,-0.002020036
-1.195,-0.002013905
-1.194,-0.002004709
-1.193,-0.002001643
-1.192,-0.001992447
-1.191,-0.001986316
-1.19,-0.00198325
-1.189,-0.00197712
-1.188,-0.001970988
-1.187,-0.001964858
-1.186,-0.001958727
-1.185,-0.001952596
-1.184,-0.001946465
-1.183,-0.001940334
-1.182,-0.001937268
-1.181,-0.001931137
-1.18,-0.001925006
-1.179,-0.001918875
-1.178,-0.001912744
-1.177,-0.001909679
-1.176,-0.001903548
-1.175,-0.001897417
-1.174,-0.001891286
-1.173,-0.001885155
-1.172,-0.001879024
-1.171,-0.001875959
-1.17,-0.001869828
-1.169,-0.001866762
-1.168,-0.001863697
-1.167,-0.0018545
-1.166,-0.001851435
-1.165,-0.001845304
-1.164,-0.001839173
-1.163,-0.001836107
-1.162,-0.001829976
-1.161,-0.001826911
-1.16,-0.00182078
-1.159,-0.001814649
-1.158,-0.001811583
-1.157,-0.001808518
-1.156,-0.001802387
-1.155,-0.001796256
-1.154,-0.00179319
-1.153,-0.001783994
-1.152,-0.001783994
-1.151,-0.001777863
-1.15,-0.001771732
-1.149,-0.001765601
-1.148,-0.001762536
-1.147,-0.00175947
-1.146,-0.001753339
-1.145,-0.001747208
-1.144,-0.001744143
-1.143,-0.001738012
-1.142,-0.001734946
-1.141,-0.001731881
-1.14,-0.00172575
-1.139,-0.001722684
-1.138,-0.001716554
-1.137,-0.001710422
-1.136,-0.001710422
-1.135,-0.001704292
-1.134,-0.001698161
-1.133,-0.001695095
-1.132,-0.001688964
-1.131,-0.001682833
-1.13,-0.001682833
-1.129,-0.001673637
-1.128,-0.001673637
-1.127,-0.001667506
-1.126,-0.001661375
-1.125,-0.001658309
-1.124,-0.001655244
-1.123,-0.001649113
-1.122,-0.001646047
-1.121,-0.001639916
-1.12,-0.001636851
-1.119,-0.001633785
-1.118,-0.001627655
-1.117,-0.001624589
-1.116,-0.001621523
-1.115,-0.001651364
-1.114,-0.001648298
-1.113,-0.001643394
-1.112,-0.001638489
-1.111,-0.001636036
-1.11,-0.001629292
-1.109,-0.001625921
-1.108,-0.001623161
-1.107,-0.001617031
-1.106,-0.001614885
-1.105,-0.00160998
-1.104,-0.001604769
-1.103,-0.001602929
-1.102,-0.001597718
-1.101,-0.001594039
-1.100001,-0.001591281
-1.099,-0.001586069
-1.098,-0.001582391
-1.097,-0.001578405
-1.096,-0.001573501
-1.095,-0.001570435
-1.094,-0.001567676
-1.093,-0.001562465
-1.092,-0.001559093
-1.091,-0.001555108
-1.09,-0.00154959
-1.089,-0.001546524
-1.088,-0.001543459
-1.087,-0.0015407
-1.086,-0.001536102
-1.085,-0.001533649
-1.084,-0.001529051
-1.083,-0.001524146
-1.082,-0.001521081
-1.081,-0.001518015
-1.08,-0.00151403
-1.079,-0.001511271
-1.078,-0.001507286
-1.077,-0.001502075
-1.076,-0.001500542
-1.075,-0.001495637
-1.074,-0.001491652
-1.073,-0.001488587
-1.072,-0.001484908
-1.071,-0.00148123
-1.07,-0.001477858
-1.069,-0.001474486
-1.068,-0.001470194
-1.067,-0.001468048
-1.066,-0.001464063
-1.065,-0.001459771
-1.064,-0.001457319
-1.063,-0.001451801
-1.062,-0.001449962
-1.061,-0.001447203
-1.06,-0.001442298
-1.059,-0.001440459
-1.058,-0.001436167
-1.057,-0.001432489
-1.056,-0.001429423
-1.055,-0.001426051
-1.054,-0.001422066
-1.053,-0.001419307
-1.052,-0.001415628
-1.051,-0.001410724
-1.05,-0.001408884
-1.049,-0.001404286
-1.048,-0.00140214
-1.047,-0.001399075
-1.046,-0.001393863
-1.045,-0.001391717
-1.044,-0.001387426
-1.043,-0.001383134
-1.042,-0.001380069
-1.041,-0.00137731
-1.04,-0.001373325
-1.039,-0.00136934
-1.038,-0.001365661
-1.037,-0.001363515
-1.036,-0.00135861
-1.035,-0.001354932
-1.034,-0.001352173
-1.033,-0.001348188
-1.032,-0.001346042
-1.031,-0.00134267
-1.03,-0.001336232
-1.029,-0.001335619
-1.028,-0.001331021
-1.027,-0.001328262
-1.026,-0.001325503
-1.025,-0.001320905
-1.024,-0.001317226
-1.023,-0.001314774
-1.022,-0.001309869
-1.021,-0.001307723
-1.02,-0.001304658
-1.019,-0.00129822
-1.018,-0.001297914
-1.017,-0.001293622
-1.016,-0.001288411
-1.015,-0.001287185
-1.014,-0.001282893
-1.013,-0.001278601
-1.012,-0.001276455
-1.011,-0.001272777
-1.01,-0.001267872
-1.009,-0.001266339
-1.008,-0.001262048
-1.007,-0.001258369
-1.006,-0.00125653
-1.005,-0.001251932
-1.004,-0.001247946
-1.003,-0.001245801
-1.002,-0.001241202
-1.001,-0.001237524
-1,-0.001235991
-0.9990004,-0.00123078
-0.9980004,-0.001228021
-0.9970005,-0.001225262
-0.9960005,-0.001220051
-0.9950004,-0.001216985
-0.9940004,-0.001214839
-0.9930004,-0.001209321
-0.9920005,-0.001207482
-0.9910004,-0.001203803
-0.9900004,-0.001198899
-0.9890004,-0.001197059
-0.9880005,-0.001192768
-0.9870005,-0.001189089
-0.9860004,-0.001186637
-0.9850004,-0.001180812
-0.9840004,-0.00117928
-0.9830005,-0.001175601
-0.9820005,-0.001169777
-0.9810004,-0.00116855
-0.9800004,-0.001164259
-0.9790004,-0.001161193
-0.9780005,-0.001159661
-0.9770004,-0.001154449
-0.9760004,-0.001151997
-0.9750004,-0.001148625
-0.9740005,-0.001144027
-0.9730005,-0.001142494
-0.9720004,-0.001138815
-0.9710004,-0.001134524
-0.9700004,-0.001132071
-0.9690005,-0.001128086
-0.9680004,-0.001123794
-0.9670004,-0.001121648
-0.9660004,-0.00111705
-0.9650005,-0.001113985
-0.9640005,-0.001111226
-0.9630004,-0.001106015
-0.9620004,-0.001103256
-0.9610004,-0.001099884
-0.9600005,-0.001095285
-0.9590005,-0.00109222
-0.9580004,-0.001090074
-0.9570004,-0.001084863
-0.9560004,-0.00108333
-0.9550005,-0.001078119
-0.9540004,-0.00107536
-0.9530004,-0.001071681
-0.9520004,-0.001067389
-0.9510005,-0.001064631
-0.9500005,-0.001060645
-0.9490004,-0.001057273
-0.9480004,-0.001054208
-0.9470004,-0.00104961
-0.9460005,-0.001046544
-0.9450005,-0.001043479
-0.9440004,-0.001038881
-0.9430004,-0.001036428
-0.9420004,-0.001032443
-0.9410005,-0.001027845
-0.9400004,-0.001025086
-0.9390004,-0.001021714
-0.9380004,-0.001017422
-0.9370005,-0.00101497
-0.9360005,-0.001010985
-0.9350004,-0.00100608
-0.9340004,-0.001003321
-0.9330004,-0.0009996422
-0.9320005,-0.0009956572
-0.9310004,-0.0009938178
-0.9300004,-0.0009886065
-0.9290004,-0.0009861541
-0.9280005,-0.0009824756
-0.9270005,-0.0009775708
-0.9260004,-0.0009748118
-0.9250004,-0.0009711333
-0.9240004,-0.0009668416
-0.9230005,-0.0009640827
-0.9220005,-0.0009600975
-0.9210004,-0.0009558058
-0.9200004,-0.0009530469
-0.9190004,-0.0009487552
-0.9180005,-0.0009444635
-0.9170004,-0.0009420112
-0.9160004,-0.0009371064
-0.9150004,-0.0009340409
-0.9140005,-0.0009312819
-0.9130005,-0.0009272969
-0.9120004,-0.0009233117
-0.9110004,-0.0009199397
-0.9100004,-0.0009159546
-0.9090005,-0.000912276
-0.9080005,-0.000908904
-0.9070004,-0.0009058384
-0.9060004,-0.0009018534
-0.9050004,-0.0008987879
-0.9040005,-0.0008957224
-0.9030004,-0.0008914307
-0.9020004,-0.0008886718
-0.9010004,-0.0008856063
-0.9000005,-0.0008813146
-0.8990005,-0.0008788622
-0.8980004,-0.0008754902
-0.8970004,-0.0008711985
-0.8960004,-0.0008687461
-0.8950005,-0.0008653741
-0.8940005,-0.0008610824
-0.8930004,-0.0008595497
-0.8920004,-0.0008543384
-0.8910004,-0.0008512728
-0.8900005,-0.0008500467
-0.8890004,-0.0008445288
-0.8880004,-0.0008429961
-0.8870004,-0.0008405437
-0.8860005,-0.0008356389
-0.8850005,-0.0008325735
-0.8840004,-0.0008292014
-0.8830004,-0.0008255228
-0.8820004,-0.0008227639
-0.8810005,-0.0008187788
-0.8800004,-0.0008157133
-0.8790004,-0.0008129543
-0.8780004,-0.0008086627
-0.8770005,-0.0008062103
-0.8760005,-0.0008019186
-0.8750004,-0.0007985466
-0.8740004,-0.0007967073
-0.8730004,-0.0007930287
-0.8720005,-0.0007890436
-0.8710005,-0.0007872043
-0.8700004,-0.0007822995
-0.8690004,-0.0007810733
-0.8680004,-0.0007780078
-0.8670005,-0.0007743293
-0.8660004,-0.0007715704
-0.8650004,-0.0007681983
-0.8640004,-0.0007645197
-0.8630005,-0.0007623739
-0.8620005,-0.0007583887
-0.8610004,-0.0007559364
-0.8600004,-0.0007537905
-0.8590004,-0.0007488858
-0.8580005,-0.0007467399
-0.8570005,-0.0007436744
-0.8560004,-0.0007396893
-0.8550004,-0.0007369304
-0.8540004,-0.0007338649
-0.8530005,-0.0007304929
-0.8520004,-0.0007286536
-0.8510004,-0.0007237488
-0.8500004,-0.000722216
-0.8490005,-0.0007191506
-0.8480005,-0.0007151655
-0.8470004,-0.0007124065
-0.8460004,-0.000709341
-0.8450004,-0.0007053559
-0.8440005,-0.0007032101
-0.8430004,-0.0006995315
-0.8420004,-0.0006958529
-0.8410004,-0.0006934005
-0.8400005,-0.0006897219
-0.8390005,-0.0006857368
-0.8380004,-0.000684204
-0.8370004,-0.0006805255
-0.8360004,-0.0006771535
-0.8350005,-0.0006750076
-0.8340005,-0.0006701029
-0.8330004,-0.000667344
-0.8320004,-0.0006648915
-0.8310004,-0.000661213
-0.8300005,-0.000658454
-0.8290004,-0.0006553886
-0.8280004,-0.00065171
-0.8270004,-0.0006495641
-0.8260005,-0.0006458855
-0.8250005,-0.0006425135
-0.8240004,-0.0006403677
-0.8230004,-0.0006363826
-0.8220004,-0.000632704
-0.8210005,-0.0006302515
-0.8200005,-0.0006271861
-0.8190004,-0.0006238141
-0.8180004,-0.0006207486
-0.8170004,-0.0006176831
-0.8160005,-0.0006146176
-0.8150004,-0.0006112456
-0.8140004,-0.0006078735
-0.8130004,-0.000604808
-0.8120005,-0.0006017426
-0.8110005,-0.0005986771
-0.8100004,-0.0005959182
-0.8090004,-0.0005928527
-0.8080004,-0.0005897872
-0.8070005,-0.0005873349
-0.8060004,-0.0005830431
-0.8050004,-0.0005812038
-0.8040004,-0.0005781384
-0.8030005,-0.0005741533
-0.8020005,-0.0005726205
-0.8010004,-0.0005686354
-0.8000004,-0.0005787515
-0.8009996,-0.000594692
-0.8019996,-0.0006054211
-0.8029996,-0.0006140045
-0.8039996,-0.0006241206
-0.8049996,-0.0006314777
-0.8059996,-0.0006403677
-0.8069996,-0.000648951
-0.8079996,-0.0006547754
-0.8089996,-0.0006630523
-0.8099996,-0.0006694898
-0.8109996,-0.0006753142
-0.8119996,-0.0006829779
-0.8129996,-0.0006888023
-0.8139996,-0.0006952398
-0.8149996,-0.0007010642
-0.8159996,-0.0007065821
-0.8169996,-0.0007133262
-0.8179996,-0.000718844
-0.8189996,-0.000724975
-0.8199996,-0.0007307994
-0.8209996,-0.0007357041
-0.8219996,-0.0007421417
-0.8229996,-0.0007470464
-0.8239996,-0.0007519512
-0.8249996,-0.0007583887
-0.8259996,-0.0007626804
-0.8269996,-0.0007678918
-0.8279996,-0.0007734096
-0.8289996,-0.0007777013
-0.8299996,-0.0007835258
-0.8309996,-0.0007881239
-0.8319996,-0.0007930287
-0.8329996,-0.0007985466
-0.8339996,-0.0008022251
-0.8349996,-0.00080713
-0.8359996,-0.0008129543
-0.8369996,-0.0008166329
-0.8379996,-0.0008224574
-0.8389996,-0.0008270555
-0.8399996,-0.0008310407
-0.8409996,-0.000836252
-0.8419996,-0.0008405437
-0.8429996,-0.0008448354
-0.8439996,-0.0008500467
-0.8449996,-0.0008537253
-0.8459996,-0.0008586301
-0.8469996,-0.0008635348
-0.8479996,-0.0008662938
-0.8489996,-0.0008718116
-0.8499996,-0.0008757967
-0.8509996,-0.0008797819
-0.8519996,-0.0008856063
-0.8529996,-0.0008895915
-0.8539996,-0.00089327
-0.8549996,-0.000899401
-0.8559996,-0.0009024665
-0.8569996,-0.0009070646
-0.8579996,-0.000912276
-0.8589996,-0.0009153415
-0.8599996,-0.00091902
-0.8609996,-0.0009254576
-0.8619996,-0.0009285231
-0.8629996,-0.0009328147
-0.8639996,-0.0009380261
-0.8649996,-0.0009410915
-0.8659996,-0.0009456897
-0.8669996,-0.0009499814
-0.8679996,-0.0009542731
-0.8689996,-0.0009585648
-0.8699996,-0.0009625499
-0.8709996,-0.0009662285
-0.8719996,-0.0009708267
-0.8729996,-0.0009745053
-0.8739996,-0.000978797
-0.8749996,-0.0009830886
-0.8759996,-0.0009864607
-0.8769996,-0.0009907524
-0.8779996,-0.000995044
-0.8789996,-0.0009981095
-0.8799996,-0.001002708
-0.8809996,-0.001006693
-0.8819996,-0.001009758
-0.8829996,-0.00101497
-0.8839996,-0.001018648
-0.8849996,-0.001022327
-0.8859996,-0.001027538
-0.8869996,-0.001030604
-0.8879996,-0.001034282
-0.8889996,-0.001039187
-0.8899996,-0.001042559
-0.8909996,-0.001046851
-0.8919996,-0.001051449
-0.8929996,-0.001055128
-0.8939996,-0.001059419
-0.8949996,-0.001063404
-0.8959996,-0.001067083
-0.8969996,-0.001071375
-0.8979996,-0.001074747
-0.8989996,-0.001078732
-0.8999996,-0.00108333
-0.9009996,-0.001086702
-0.9019996,-0.001090687
-0.9029996,-0.001095592
-0.9039996,-0.001098044
-0.9049996,-0.001102949
-0.9059996,-0.001107547
-0.9069996,-0.001109693
-0.9079996,-0.001115824
-0.9089996,-0.001118583
-0.9099996,-0.001122875
-0.9109996,-0.001128086
-0.9119996,-0.001130845
-0.9129996,-0.00113391
-0.9139996,-0.001140041
-0.9149996,-0.001142187
-0.9159996,-0.001146785
-0.9169996,-0.001152303
-0.9179996,-0.001154756
-0.9189996,-0.001159354
-0.9199996,-0.001163952
-0.9209996,-0.001166098
-0.9219996,-0.001171309
-0.9229996,-0.001174988
-0.9239996,-0.00117744
-0.9249996,-0.001182652
-0.9259996,-0.00118633
-0.9269996,-0.001189089
-0.9279996,-0.00119522
-0.9289996,-0.001198286
-0.9299996,-0.001200738
-0.9309996,-0.001205949
-0.9319996,-0.001208402
-0.9329996,-0.001212387
-0.9339996,-0.001217598
-0.9349996,-0.001220357
-0.9359996,-0.001223729
-0.9369996,-0.001228327
-0.9379996,-0.001230473
-0.9389996,-0.001235071
-0.9399996,-0.00123967
-0.9409996,-0.001242122
-0.9419996,-0.00124672
-0.9429996,-0.001250705
-0.9439996,-0.001253464
-0.9449996,-0.001257756
-0.9459996,-0.001261435
-0.9469996,-0.001264807
-0.9479996,-0.001269098
-0.9489996,-0.00127247
-0.9499996,-0.001275229
-0.9509996,-0.001279827
-0.9519996,-0.001282893
-0.9529996,-0.001285958
-0.9539996,-0.00129117
-0.9549996,-0.001293316
-0.9559996,-0.001296994
-0.9569996,-0.001302205
-0.9579996,-0.001303432
-0.9589996,-0.001308643
-0.9599996,-0.001312935
-0.9609996,-0.001315387
-0.9619996,-0.001319679
-0.9629996,-0.001322744
-0.9639996,-0.001326116
-0.9649996,-0.001329795
-0.9659996,-0.001333167
-0.9669996,-0.001337152
-0.9679996,-0.001339911
-0.9689996,-0.001343283
-0.9699996,-0.001348188
-0.9709996,-0.00135064
-0.9719996,-0.001354319
-0.9729996,-0.001359223
-0.9739996,-0.001361676
-0.9749996,-0.001364128
-0.9759996,-0.001368726
-0.9769996,-0.001371179
-0.9779996,-0.001375164
-0.9789996,-0.001380682
-0.9799996,-0.001381295
-0.9809996,-0.001386813
-0.9819996,-0.001389878
-0.9829996,-0.001392944
-0.9839996,-0.001396929
-0.9849996,-0.001399688
-0.9859996,-0.00140306
-0.9869996,-0.001406432
-0.9879996,-0.00141011
-0.9889996,-0.001414402
-0.9899996,-0.001417468
-0.9909996,-0.001419613
-0.9919996,-0.001424825
-0.9929996,-0.001426664
-0.9939996,-0.001430343
-0.9949996,-0.001434634
-0.9959996,-0.0014377
-0.9969996,-0.001440459
-0.9979996,-0.001445364
-0.9989996,-0.001447203
-0.9999996,-0.001448736
-1.001,-0.001456093
-1.002,-0.001456706
-1.003,-0.001461917
-1.004,-0.001466515
-1.005,-0.001468048
-1.006,-0.001471727
-1.007,-0.001475405
-1.008,-0.001477551
-1.009,-0.001483069
-1.01,-0.001485215
-1.011,-0.0014892
-1.012,-0.001491959
-1.013,-0.001494718
-1.014,-0.001500236
-1.015,-0.001502995
-1.016,-0.00150606
-1.017,-0.001511578
-1.018,-0.001512804
-1.019,-0.001517709
-1.02,-0.001522307
-1.021,-0.001524759
-1.022,-0.001529664
-1.023,-0.001532423
-1.024,-0.001534569
-1.025,-0.00153978
-1.026,-0.001542539
-1.027,-0.001545605
-1.028,-0.001550816
-1.029,-0.001552962
-1.03,-0.001556334
-1.031,-0.001561239
-1.032,-0.001562772
-1.033,-0.00156645
-1.034,-0.001571355
-1.035,-0.001572274
-1.036,-0.001577486
-1.037,-0.001581471
-1.038,-0.001583617
-1.039,-0.001587908
-1.04,-0.001591587
-1.041,-0.001594039
-1.042,-0.001598025
-1.043,-0.001602929
-1.044,-0.001603542
-1.045,-0.001608754
-1.046,-0.001612739
-1.047,-0.001613965
-1.048,-0.001619789
-1.049,-0.001621322
-1.05,-0.001626227
-1.051,-0.001629292
-1.052,-0.001632358
-1.053,-0.001636036
-1.054,-0.001639715
-1.055,-0.001642781
-1.056,-0.001646153
-1.057,-0.001650138
-1.058,-0.00165351
-1.059,-0.001657188
-1.06,-0.001658721
-1.061,-0.001662706
-1.062,-0.001667918
-1.063,-0.001670676
-1.064,-0.001674662
-1.065,-0.001676194
-1.066,-0.001680793
-1.067,-0.001686617
-1.068,-0.001688763
-1.069,-0.001693055
-1.07,-0.001697653
-1.071,-0.001698572
-1.072,-0.001702864
-1.073,-0.001708075
-1.074,-0.001709915
-1.075,-0.001714819
-1.076,-0.001719418
-1.077,-0.001720337
-1.078,-0.001724629
-1.079,-0.00172984
-1.08,-0.001731066
-1.081,-0.001735971
-1.082,-0.001739037
-1.083,-0.001741796
-1.084,-0.001747314
-1.085,-0.001748846
-1.086,-0.001752525
-1.087,-0.001757123
-1.088,-0.001759882
-1.089,-0.00176448
-1.09,-0.001768772
-1.091,-0.001770305
-1.092,-0.00177429
-1.093,-0.001778275
-1.094,-0.001781647
-1.095,-0.001786858
-1.096,-0.001789617
-1.097,-0.001793909
-1.098,-0.001797587
-1.099,-0.00180004
-1.1,-0.001804332
-1.101,-0.00180801
-1.102,-0.001811075
-1.103,-0.001816287
-1.104,-0.001818739
-1.105,-0.001822724
-1.106,-0.001827323
-1.107,-0.001830082
-1.108,-0.001833147
-1.109,-0.001839278
-1.11,-0.001841117
-1.111,-0.001844489
-1.112,-0.001850007
-1.113,-0.00185246
-1.114,-0.001857977
-1.115,-0.001862269
-1.116,-0.001865028
-1.117,-0.001869933
-1.118,-0.001872692
-1.119,-0.001876983
-1.12,-0.001882808
-1.121,-0.00188526
-1.122,-0.001890165
-1.123,-0.001894763
-1.124,-0.001897522
-1.125,-0.00190396
-1.126,-0.001907638
-1.127,-0.001911623
-1.128,-0.001915302
-1.129,-0.001917754
-1.13,-0.001922966
-1.131,-0.001926951
-1.132,-0.001931549
-1.133,-0.00193676
-1.134,-0.0019386
-1.135,-0.001942891
-1.136,-0.001949329
-1.137,-0.001952088
-1.138,-0.001956686
-1.139,-0.001962204
-1.14,-0.001965576
-1.141,-0.001968641
-1.142,-0.001975999
-1.143,-0.001977838
-1.144,-0.001982743
-1.145,-0.001989793
-1.146,-0.001989487
-1.147,-0.001995924
-1.148,-0.002000829
-1.149,-0.002003281
-1.15,-0.002009412
-1.151,-0.002012784
-1.152,-0.002015237
-1.153,-0.002021368
-1.154,-0.002024433
-1.155,-0.002027192
-1.156,-0.002033936
-1.157,-0.002036695
-1.158,-0.002039148
-1.159,-0.002046198
-1.16,-0.002047424
-1.161,-0.002051716
-1.162,-0.002056927
-1.163,-0.00205754
-1.164,-0.002063364
-1.165,-0.002065817
-1.166,-0.002069802
-1.167,-0.0020744
-1.168,-0.002076853
-1.169,-0.002078079
-1.17,-0.002085129
-1.171,-0.002085743
-1.172,-0.002090034
-1.173,-0.002095552
-1.174,-0.002094633
-1.175,-0.002098924
-1.176,-0.002103829
-1.177,-0.002104749
-1.178,-0.002108427
-1.179,-0.002112106
-1.18,-0.002112719
-1.181,-0.00211793
-1.182,-0.002122528
-1.183,-0.002122835
-1.184,-0.002126514
-1.185,-0.002131418
-1.186,-0.002132338
-1.187,-0.002138469
-1.188,-0.002141228
-1.189,-0.002144293
-1.19,-0.002149811
-1.191,-0.002151651
-1.192,-0.002156862
-1.193,-0.002160234
-1.194,-0.002166058
-1.195,-0.002170044
-1.196,-0.002174335
-1.197,-0.00217924
-1.198,-0.002184758
-1.199,-0.002189049
-1.2,-0.002194567
-1.201,-0.002200392
-1.202,-0.002204377
-1.203,-0.002209282
-1.204,-0.002216332
-1.205,-0.002220317
-1.206,-0.002227368
-1.207,-0.002232886
-1.208,-0.002235951
-1.209,-0.002243615
-1.21,-0.002250053
-1.211,-0.002255264
-1.212,-0.002262621
-1.213,-0.002266606
-1.214,-0.002273657
-1.215,-0.002280707
-1.216,-0.002286225
-1.217,-0.002293276
-1.218,-0.00230094
-1.219,-0.002306151
-1.22,-0.002313202
-1.221,-0.002320559
-1.222,-0.002326383
-1.223,-0.002334353
-1.224,-0.002342017
-1.225,-0.002348148
-1.226,-0.002357038
-1.227,-0.002364395
-1.228,-0.002371139
-1.229,-0.002381255
-1.23,-0.002388306
-1.231,-0.00239597
-1.232,-0.002405473
-1.233,-0.002413136
-1.234,-0.002422026
-1.235,-0.002430916
-1.236,-0.002439806
-1.237,-0.002448389
-1.238,-0.002458506
-1.239,-0.002467089
-1.24,-0.002476592
-1.241,-0.002486708
-1.242,-0.002493758
-1.243,-0.002508166
-1.244,-0.002517363
-1.245,-0.00252472
-1.246,-0.002538821
-1.247,-0.002545259
-1.248,-0.002557521
-1.249,-0.002571315
-1.25,-0.002579592
-1.251,-0.002592467
-1.252,-0.00260289
-1.253,-0.002614845
-1.254,-0.00262772
-1.255,-0.002638143
-1.256,-0.002652244
-1.257,-0.002664812
-1.258,-0.002675235
-1.259,-0.002690869
-1.26,-0.002704051
-1.261,-0.002715086
-1.262,-0.002731027
-1.263,-0.002744515
-1.264,-0.00275831
-1.265,-0.002775476
-1.266,-0.002785592
-1.267,-0.002802453
-1.268,-0.00281778
-1.269,-0.002829429
-1.27,-0.002847209
-1.271,-0.002864069
-1.272,-0.002876637
-1.273,-0.002897176
-1.274,-0.002910358
-1.275,-0.002926605
-1.276,-0.002945304
-1.277,-0.002960632
-1.278,-0.002979331
-1.279,-0.002998644
-1.28,-0.003014277
-1.281,-0.002997925
-1.282,-0.003013253
-1.283,-0.003031645
-1.284,-0.003053104
-1.285,-0.003068431
-1.286,-0.003086824
-1.287,-0.003111348
-1.288,-0.003129741
-1.289,-0.003148134
-1.29,-0.003169592
-1.291,-0.003191051
-1.292,-0.003209443
-1.293,-0.003233967
-1.294,-0.003255426
-1.295,-0.003276884
-1.296,-0.003298342
-1.297,-0.003319801
-1.298,-0.00334739
-1.299,-0.003368848
-1.3,-0.003393373
-1.301,-0.003417896
-1.302,-0.00344242
-1.303,-0.003463879
-1.304,-0.003494533
-1.305,-0.003519057
-1.306,-0.003543581
-1.307,-0.003574236
-1.308,-0.00359876
-1.309,-0.003629415
-1.31,-0.003653938
-1.311,-0.003684593
-1.312,-0.003715248
-1.313,-0.003742838
-1.314,-0.003773492
-1.315,-0.003807213
-1.316,-0.003834802
-1.317,-0.003871588
-1.318,-0.003902242
-1.319,-0.003932897
-1.32,-0.003972749
-1.321,-0.004006469
-1.322,-0.004040189
-1.323,-0.00408004
-1.324,-0.004116826
-1.325,-0.004153612
-1.326,-0.004193463
-1.327,-0.004233315
-1.328,-0.004273166
-1.329,-0.004316083
-1.33,-0.004355934
-1.331,-0.004401916
-1.332,-0.004447898
-1.333,-0.00448775
-1.334,-0.004536797
-1.335,-0.004585845
-1.336,-0.004628762
-1.337,-0.004680875
-1.338,-0.004736054
-1.339,-0.004782036
-1.34,-0.00484028
-1.341,-0.004895459
-1.342,-0.004944507
-1.343,-0.005008881
-1.344,-0.005070191
-1.345,-0.005122304
-1.346,-0.005189745
-1.347,-0.00525412
-1.348,-0.00531543
-1.349,-0.00538287
-1.35,-0.005453377
-1.351,-0.005523883
-1.352,-0.005591323
-1.353,-0.005671026
-1.354,-0.005747663
-1.355,-0.0058243
-1.356,-0.005904003
-1.357,-0.005989837
-1.358,-0.006066473
-1.359,-0.006152307
-1.36,-0.006247337
-1.361,-0.00633317
-1.362,-0.0064282
-1.363,-0.00652323
-1.364,-0.006621325
-1.365,-0.006722487
-1.366,-0.006826713
-1.367,-0.006927874
-1.368,-0.007038231
-1.369,-0.007148589
-1.37,-0.007262012
-1.371,-0.0073785
-1.372,-0.007494988
-1.373,-0.007620673
-1.374,-0.007743292
-1.375,-0.007868977
-1.376,-0.008006924
-1.377,-0.00813874
-1.378,-0.008270555
-1.379,-0.008417699
-1.38,-0.008555645
-1.381,-0.008705853
-1.382,-0.008859128
-1.383,-0.009009337
-1.384,-0.009165676
-1.385,-0.009325081
-1.386,-0.009487552
-1.387,-0.009656153
-1.388,-0.009827821
-1.389,-0.009999488
-1.39,-0.01018035
-1.391,-0.01035508
-1.392,-0.01053901
-1.393,-0.01072907
-1.394,-0.01091913
-1.395,-0.01111226
-1.396,-0.01131151
-1.397,-0.01151077
-1.398,-0.01171616
-1.399,-0.01192154
-1.4,-0.01213
-1.401,-0.01234765
-1.402,-0.0125653
-1.403,-0.01278295
-1.404,-0.01300979
-1.405,-0.01323357
-1.406,-0.01346348
-1.407,-0.01370259
-1.408,-0.01392944
-1.409,-0.01416854
-1.41,-0.01441685
-1.411,-0.01466209
-1.412,-0.01490733
-1.413,-0.01516176
-1.414,-0.01541619
-1.415,-0.01567063
-1.416,-0.0159312
-1.417,-0.01619483
-1.418,-0.01645846
-1.419,-0.01672822
-1.42,-0.01700105
-1.421,-0.01726775
-1.422,-0.01754977
-1.423,-0.01782566
-1.424,-0.01810156
-1.425,-0.01838971
-1.426,-0.01867174
-1.427,-0.01895683
-1.428,-0.01924498
-1.429,-0.01953927
-1.43,-0.01982743
-1.431,-0.02012784
-1.432,-0.02042519
-1.433,-0.02072561
-1.434,-0.02102909
-1.435,-0.02132951
-1.436,-0.02164219
-1.437,-0.02194567
-1.438,-0.02225835
-1.439,-0.02257103
-1.44,-0.02288064
-1.441,-0.02319639
-1.442,-0.02351826
-1.443,-0.02382481
-1.444,-0.02414975
-1.445,-0.02447469
-1.446,-0.02478738
-1.447,-0.02510618
-1.448,-0.02544645
-1.449,-0.02577139
-1.45,-0.0260994
-1.451,-0.02643354
-1.452,-0.02675541
-1.453,-0.02708342
-1.454,-0.02742369
-1.455,-0.02775783
-1.456,-0.02809503
-1.457,-0.02843223
-1.458,-0.02876331
-1.459,-0.02910664
-1.46,-0.02944384
-1.461,-0.02979024
-1.462,-0.03013664
-1.463,-0.03059235
-1.464,-0.03092955
-1.465,-0.03126676
-1.466,-0.03160396
-1.467,-0.03197182
-1.468,-0.03233967
-1.469,-0.03267688
-1.47,-0.03304474
-1.471,-0.03341259
-1.472,-0.0337498
-1.473,-0.03411765
-1.474,-0.03445486
-1.475,-0.03482271
-1.476,-0.03519057
-1.477,-0.03555843
-1.478,-0.03592629
-1.479,-0.03629415
-1.48,-0.036662
-1.481,-0.03702986
-1.482,-0.03739772
-1.483,-0.03776558
-1.484,-0.03813344
-1.485,-0.03847064
-1.486,-0.03886915
-1.487,-0.03923701
-1.488,-0.03960487
-1.489,-0.03997273
-1.49,-0.04037124
-1.491,-0.0407391
-1.492,-0.04113761
-1.493,-0.04150547
-1.494,-0.04187332
-1.495,-0.04224118
-1.496,-0.04260904
-1.497,-0.04300755
-1.498,-0.04340607
-1.499,-0.04377393
-1.5,-0.04389654
-1.499001,-0.04362065
-1.498001,-0.0433141
-1.497001,-0.0429769
-1.496001,-0.0426397
-1.495001,-0.04233315
-1.494001,-0.04199595
-1.493001,-0.04165874
-1.492001,-0.04135219
-1.491001,-0.04101499
-1.490001,-0.04067779
-1.489001,-0.04034058
-1.488001,-0.04000338
-1.487001,-0.03966618
-1.486001,-0.03932897
-1.485001,-0.03899177
-1.484001,-0.03865457
-1.483001,-0.03831736
-1.482001,-0.03798017
-1.481001,-0.03764296
-1.480001,-0.03730575
-1.479001,-0.03696856
-1.478001,-0.03663135
-1.477001,-0.03629415
-1.476001,-0.03595695
-1.475001,-0.03561974
-1.474001,-0.03528254
-1.473001,-0.03497599
-1.472001,-0.03460813
-1.471001,-0.03427093
-1.470001,-0.03396438
-1.469001,-0.03362718
-1.468001,-0.03328998
-1.467001,-0.03298343
-1.466001,-0.03264622
-1.465001,-0.03230902
-1.464001,-0.03200247
-1.463001,-0.03166527
-1.462001,-0.03132806
-1.461001,-0.03102152
-1.460001,-0.03068431
-1.459001,-0.03037777
-1.458001,-0.03007122
-1.457001,-0.02973401
-1.456001,-0.02942747
-1.455001,-0.02912092
-1.454001,-0.02881437
-1.453001,-0.02847717
-1.452001,-0.02817062
-1.451001,-0.02786407
-1.450001,-0.02752687
-1.449001,-0.02722032
-1.448001,-0.02694443
-1.447001,-0.02660722
-1.446001,-0.02633133
-1.445001,-0.02602478
-1.444001,-0.02571823
-1.443001,-0.02541168
-1.442001,-0.02510513
-1.441001,-0.02479859
-1.440001,-0.02452269
-1.439001,-0.02421615
-1.438001,-0.0239096
-1.437001,-0.0236337
-1.436001,-0.02332716
-1.435001,-0.02305126
-1.434001,-0.02274471
-1.433001,-0.02246882
-1.432001,-0.02219293
-1.431001,-0.02191703
-1.430001,-0.02161049
-1.429001,-0.02133459
-1.428001,-0.0210587
-1.427001,-0.0207828
-1.426001,-0.02050691
-1.425001,-0.02026167
-1.424001,-0.01998578
-1.423001,-0.01970989
-1.422001,-0.01943399
-1.421001,-0.01918875
-1.420001,-0.01891286
-1.419001,-0.01866762
-1.418001,-0.01839173
-1.417001,-0.01814649
-1.416001,-0.0178706
-1.415001,-0.01762536
-1.414001,-0.01738012
-1.413001,-0.01713488
-1.412001,-0.01688964
-1.411001,-0.0166444
-1.410001,-0.01639917
-1.409001,-0.01615393
-1.408001,-0.01604462
-1.407001,-0.01580858
-1.406001,-0.01558173
-1.405001,-0.01535489
-1.404001,-0.01513111
-1.403001,-0.01491039
-1.402001,-0.01468661
-1.401001,-0.01446283
-1.400001,-0.01425438
-1.399001,-0.01403673
-1.398001,-0.01382828
-1.397001,-0.01362595
-1.396001,-0.01341444
-1.395001,-0.01321211
-1.394001,-0.01301286
-1.393001,-0.01281053
-1.392001,-0.01261434
-1.391001,-0.01242122
-1.390001,-0.01222809
-1.389001,-0.01204417
-1.388001,-0.01185717
-1.387001,-0.01167018
-1.386001,-0.01149238
-1.385001,-0.01130845
-1.384001,-0.01113372
-1.383001,-0.01096205
-1.382001,-0.01078732
-1.381001,-0.01062178
-1.380001,-0.01045931
-1.379001,-0.01029071
-1.378001,-0.0101313
-1.377001,-0.009971898
-1.376001,-0.009815559
-1.375001,-0.009665349
-1.374001,-0.009512075
-1.373001,-0.009364933
-1.372001,-0.009217789
-1.371001,-0.009076777
-1.370001,-0.008935764
-1.369001,-0.008800884
-1.368001,-0.008662937
-1.367001,-0.008531122
-1.366001,-0.008402371
-1.365001,-0.008270555
-1.364001,-0.008151001
-1.363001,-0.008025317
-1.362001,-0.007902697
-1.361001,-0.007789274
-1.360001,-0.007672786
-1.359001,-0.007559363
-1.358001,-0.007449006
-1.357001,-0.007338648
-1.356001,-0.007231356
-1.355001,-0.007124064
-1.354001,-0.007019838
-1.353001,-0.006924808
-1.352001,-0.006823647
-1.351001,-0.006725552
-1.350001,-0.006630522
-1.349001,-0.006538557
-1.348001,-0.006446593
-1.347001,-0.006357694
-1.346001,-0.006268795
-1.345001,-0.006186027
-1.344001,-0.006103259
-1.343001,-0.006017426
-1.342001,-0.005940788
-1.341001,-0.005861086
-1.340001,-0.005784449
-1.339001,-0.005713942
-1.338001,-0.005637306
-1.337001,-0.005563734
-1.336001,-0.005496293
-1.335001,-0.005425788
-1.334001,-0.005361412
-1.333001,-0.005300103
-1.332001,-0.005229597
-1.331001,-0.005168287
-1.330001,-0.005106977
-1.329001,-0.005042602
-1.328001,-0.004987423
-1.327001,-0.004932245
-1.326001,-0.004870935
-1.325001,-0.004818822
-1.324001,-0.004766709
-1.323001,-0.00471153
-1.322001,-0.004659417
-1.321001,-0.004613434
-1.320001,-0.004561321
-1.319001,-0.004515339
-1.318001,-0.004466291
-1.317001,-0.004420309
-1.316001,-0.004377393
-1.315001,-0.00433141
-1.314001,-0.004288493
-1.313001,-0.004248642
-1.312001,-0.004205726
-1.311001,-0.004165874
-1.310001,-0.004129088
-1.309001,-0.004086172
-1.308001,-0.004049386
-1.307001,-0.0040126
-1.306001,-0.003972749
-1.305001,-0.003942094
-1.304001,-0.003905308
-1.303001,-0.003871588
-1.302001,-0.003837867
-1.301001,-0.003804147
-1.300001,-0.003770427
-1.299001,-0.003742838
-1.298001,-0.003709117
-1.297001,-0.003678462
-1.296001,-0.003647808
-1.295001,-0.003620218
-1.294001,-0.003592629
-1.293001,-0.003561974
-1.292001,-0.003534385
-1.291001,-0.003506796
-1.290001,-0.00347614
-1.289001,-0.003454682
-1.288001,-0.003430158
-1.287001,-0.003399503
-1.286001,-0.003378045
-1.285001,-0.003350456
-1.284001,-0.003328997
-1.283001,-0.003304473
-1.282001,-0.00327995
-1.281001,-0.003258491
-1.280001,-0.003237033
-1.279001,-0.003212509
-1.278001,-0.003191051
-1.277001,-0.003169592
-1.276001,-0.003148134
-1.275001,-0.003126675
-1.274001,-0.003111348
-1.273001,-0.003086824
-1.272001,-0.003068431
-1.271001,-0.003050038
-1.270001,-0.00302858
-1.269001,-0.003010187
-1.268001,-0.002991794
-1.267001,-0.002973401
-1.266001,-0.002955008
-1.265001,-0.00293355
-1.264001,-0.002918222
-1.263001,-0.00289983
-1.262001,-0.002881437
-1.261001,-0.002869175
-1.260001,-0.002850782
-1.259001,-0.002835455
-1.258001,-0.002820127
-1.257001,-0.002801734
-1.256001,-0.002786407
-1.255001,-0.00277108
-1.254001,-0.002755752
-1.253001,-0.002740425
-1.252001,-0.002725097
-1.251001,-0.002712835
-1.250001,-0.002697508
-1.249001,-0.002679115
-1.248001,-0.002666853
-1.247001,-0.002651526
-1.246001,-0.002639264
-1.245001,-0.002627002
-1.244001,-0.002611674
-1.243001,-0.002596347
-1.242001,-0.002587151
-1.241001,-0.002571823
-1.240001,-0.002556496
-1.239001,-0.002547299
-1.238001,-0.002535037
-1.237001,-0.00251971
-1.236001,-0.002510513
-1.235001,-0.002498251
-1.234001,-0.00248599
-1.233001,-0.002473728
-1.232001,-0.002461466
-1.231001,-0.002449204
-1.230001,-0.002440007
-1.229001,-0.00242468
-1.228001,-0.002415484
-1.227001,-0.002406287
-1.226001,-0.002394025
-1.225001,-0.002381763
-1.224001,-0.002372567
-1.223001,-0.002360305
-1.222001,-0.002351108
-1.221001,-0.002341912
-1.220001,-0.00232965
-1.219001,-0.002320454
-1.218001,-0.002311257
-1.217001,-0.002298995
-1.216001,-0.002289799
-1.215001,-0.002283668
-1.214001,-0.002271406
-1.213001,-0.002265275
-1.212001,-0.002253013
-1.211001,-0.002243817
-1.210001,-0.00223462
-1.209001,-0.002225423
-1.208001,-0.002216227
-1.207001,-0.002207031
-1.206001,-0.002197834
-1.205001,-0.002188638
-1.204001,-0.002179441
-1.203001,-0.002170245
-1.202001,-0.002164114
-1.201001,-0.002154917
-1.200001,-0.002145721
-1.199001,-0.002136525
-1.198001,-0.002130394
-1.197001,-0.002121197
-1.196001,-0.002115066
-1.195001,-0.00210587
-1.194001,-0.002096673
-1.193001,-0.002090542
-1.192001,-0.002081346
-1.191001,-0.002072149
-1.190001,-0.002069084
-1.189001,-0.002059887
-1.188001,-0.002050691
-1.187001,-0.00204456
-1.186001,-0.002038429
-1.185001,-0.002026167
-1.184001,-0.002023102
-1.183001,-0.002013905
-1.182001,-0.002007774
-1.181001,-0.002001643
-1.180001,-0.001992447
-1.179001,-0.001986316
-1.178001,-0.001980185
-1.177001,-0.001970988
-1.176001,-0.001964858
-1.175001,-0.001958727
-1.174001,-0.001952596
-1.173001,-0.001943399
-1.172001,-0.001937268
-1.171001,-0.001934203
-1.170001,-0.001925006
-1.169001,-0.001921941
-1.168001,-0.00191581
-1.167001,-0.001906613
-1.166001,-0.001903548
-1.165001,-0.001897417
-1.164001,-0.00188822
-1.163001,-0.001885155
-1.162001,-0.001879024
-1.161001,-0.001869828
-1.160001,-0.001866762
-1.159001,-0.001860631
-1.158001,-0.001851435
-1.157001,-0.001848369
-1.156001,-0.001842238
-1.155001,-0.001836107
-1.154001,-0.001833042
-1.153001,-0.001823845
-1.152001,-0.001817714
-1.151001,-0.001814649
-1.150001,-0.001805453
-1.149001,-0.001802387
-1.148001,-0.001796256
-1.147001,-0.001790125
-1.146001,-0.00178706
-1.145001,-0.001780929
-1.144001,-0.001774798
-1.143001,-0.001771732
-1.142001,-0.001765601
-1.141001,-0.001756405
-1.140001,-0.001756405
-1.139001,-0.001747208
-1.138001,-0.001744143
-1.137001,-0.001741077
-1.136001,-0.001731881
-1.135001,-0.001728815
-1.134001,-0.001722684
-1.133001,-0.001716554
-1.132001,-0.001710422
-1.131001,-0.001707357
-1.130001,-0.001701226
-1.129001,-0.001695095
-1.128001,-0.001688964
-1.127001,-0.001685899
-1.126001,-0.001679768
-1.125001,-0.001676702
-1.124001,-0.001673637
-1.123001,-0.001667506
-1.122001,-0.001661375
-1.121001,-0.001658309
-1.120001,-0.001652178
-1.119001,-0.001649113
-1.118001,-0.001642982
-1.117001,-0.001636851
-1.116001,-0.001636851
-1.115001,-0.001627655
-1.114001,-0.001624589
-1.113001,-0.001621523
-1.112001,-0.001651057
-1.111001,-0.001646766
-1.110001,-0.001643087
-1.109001,-0.001637263
-1.108001,-0.001632051
-1.107001,-0.001631132
-1.106001,-0.001622548
-1.105001,-0.001619483
-1.104001,-0.001616417
-1.103001,-0.001608447
-1.102001,-0.001606608
-1.101001,-0.00160201
-1.100001,-0.001595879
-1.099001,-0.001593426
-1.098001,-0.001588522
-1.097001,-0.001583004
-1.096001,-0.001581164
-1.095001,-0.00157442
-1.094001,-0.001570129
-1.093001,-0.001568596
-1.092001,-0.001561239
-1.091001,-0.001558173
-1.090001,-0.001554495
-1.089001,-0.001548364
-1.088001,-0.001545298
-1.087001,-0.001541926
-1.086001,-0.001536715
-1.085001,-0.001533649
-1.084001,-0.001528745
-1.083001,-0.001524759
-1.082001,-0.001520468
-1.081001,-0.001517096
-1.080001,-0.001513417
-1.079001,-0.001508512
-1.078001,-0.00150514
-1.077001,-0.001501768
-1.076001,-0.00149717
-1.075001,-0.001492572
-1.074001,-0.001490426
-1.073001,-0.001486441
-1.072001,-0.001483069
-1.071001,-0.001480617
-1.070001,-0.001475405
-1.069001,-0.001470194
-1.068001,-0.001469581
-1.067001,-0.001463756
-1.066001,-0.001461611
-1.065001,-0.001459465
-1.064001,-0.00145364
-1.063001,-0.001450881
-1.062001,-0.001447203
-1.061001,-0.001442605
-1.060001,-0.001440459
-1.059001,-0.001437393
-1.058001,-0.001431569
-1.057001,-0.001429423
-1.056001,-0.001425438
-1.055001,-0.001420227
-1.054001,-0.001419613
-1.053001,-0.001417161
-1.052001,-0.001411643
-1.051001,-0.001406432
-1.050001,-0.001405206
-1.049001,-0.001401221
-1.048001,-0.001397235
-1.047001,-0.00139509
-1.046001,-0.001390798
-1.045001,-0.0013862
-1.044001,-0.001383747
-1.043001,-0.001380069
-1.042001,-0.001376084
-1.041001,-0.001372712
-1.040001,-0.001369953
-1.039001,-0.001365661
-1.038001,-0.001361676
-1.037001,-0.00135953
-1.036001,-0.001353706
-1.035001,-0.00135156
-1.034001,-0.001349107
-1.033001,-0.001342976
-1.032001,-0.001342057
-1.031001,-0.001336845
-1.030001,-0.001333167
-1.029001,-0.001331327
-1.028001,-0.001326423
-1.027001,-0.00132397
-1.026001,-0.001320292
-1.025001,-0.001316613
-1.024001,-0.001313548
-1.023001,-0.001309563
-1.022001,-0.001306804
-1.021001,-0.001303738
-1.020001,-0.001298833
-1.019001,-0.001296074
-1.018001,-0.001294235
-1.017001,-0.001289024
-1.016001,-0.001287491
-1.015001,-0.001284426
-1.014001,-0.001278295
-1.013001,-0.001276762
-1.012001,-0.001274003
-1.011001,-0.001268179
-1.010001,-0.001265726
-1.009001,-0.001262048
-1.008001,-0.001258063
-1.007001,-0.00125561
-1.006001,-0.001252238
-1.005001,-0.001247946
-1.004001,-0.001243655
-1.003001,-0.001240896
-1.002001,-0.00123783
-1.001001,-0.001234458
-1.000001,-0.00123078
-0.9990007,-0.001228634
-0.9980007,-0.001223423
-0.9970006,-0.001220664
-0.9960006,-0.001217598
-0.9950007,-0.001213306
-0.9940007,-0.001209934
-0.9930006,-0.001206869
-0.9920006,-0.001202271
-0.9910007,-0.001199512
-0.9900007,-0.001196753
-0.9890007,-0.001192155
-0.9880006,-0.001190009
-0.9870006,-0.001186024
-0.9860007,-0.001181119
-0.9850007,-0.00117836
-0.9840007,-0.001175294
-0.9830006,-0.001170083
-0.9820006,-0.001167631
-0.9810007,-0.001164565
-0.9800007,-0.001159047
-0.9790006,-0.001156902
-0.9780006,-0.001153223
-0.9770007,-0.001147705
-0.9760007,-0.001146479
-0.9750007,-0.0011428
-0.9740006,-0.001136976
-0.9730006,-0.001136056
-0.9720007,-0.001130232
-0.9710007,-0.001127166
-0.9700007,-0.001124408
-0.9690006,-0.001120116
-0.9680007,-0.001117357
-0.9670007,-0.001113372
-0.9660007,-0.00111
-0.9650006,-0.001106321
-0.9640006,-0.001102029
-0.9630007,-0.001098964
-0.9620007,-0.001095592
-0.9610007,-0.0010913
-0.9600006,-0.001088235
-0.9590006,-0.00108425
-0.9580007,-0.001080878
-0.9570007,-0.001077199
-0.9560006,-0.001073521
-0.9550006,-0.001070148
-0.9540007,-0.001066776
-0.9530007,-0.001061258
-0.9520007,-0.001059419
-0.9510006,-0.001055434
-0.9500006,-0.001050529
-0.9490007,-0.00104777
-0.9480007,-0.001045624
-0.9470007,-0.001041026
-0.9460006,-0.001037654
-0.9450006,-0.001033669
-0.9440007,-0.00103091
-0.9430007,-0.001025699
-0.9420006,-0.001021714
-0.9410006,-0.001019261
-0.9400007,-0.001013744
-0.9390007,-0.001010678
-0.9380007,-0.001007613
-0.9370006,-0.001002401
-0.9360006,-0.0009993357
-0.9350007,-0.0009968834
-0.9340007,-0.0009907524
-0.9330007,-0.000988913
-0.9320006,-0.000984928
-0.9310006,-0.0009803297
-0.9300007,-0.0009778773
-0.9290007,-0.0009751184
-0.9280006,-0.0009702136
-0.9270006,-0.0009659219
-0.9260007,-0.0009637761
-0.9250007,-0.0009591779
-0.9240007,-0.0009545796
-0.9230006,-0.0009518207
-0.9220006,-0.000947529
-0.9210007,-0.0009435439
-0.9200007,-0.0009401719
-0.9190007,-0.0009367999
-0.9180006,-0.0009331212
-0.9170007,-0.0009294427
-0.9160007,-0.000925151
-0.9150007,-0.0009220855
-0.9140006,-0.0009181004
-0.9130006,-0.0009153415
-0.9120007,-0.0009110498
-0.9110007,-0.0009076777
-0.9100007,-0.0009039992
-0.9090006,-0.0009000141
-0.9080006,-0.0008972551
-0.9070007,-0.0008920438
-0.9060007,-0.0008886718
-0.9050006,-0.0008868325
-0.9040006,-0.0008834605
-0.9030007,-0.0008791688
-0.9020007,-0.000877023
-0.9010007,-0.0008721182
-0.9000006,-0.0008684396
-0.8990006,-0.0008662938
-0.8980007,-0.0008616955
-0.8970007,-0.0008589366
-0.8960007,-0.0008558711
-0.8950006,-0.0008518859
-0.8940006,-0.000849127
-0.8930007,-0.0008451419
-0.8920007,-0.0008414634
-0.8910006,-0.0008390109
-0.8900006,-0.0008347193
-0.8890007,-0.0008313472
-0.8880007,-0.0008270555
-0.8870007,-0.0008246032
-0.8860006,-0.0008215377
-0.8850006,-0.0008175526
-0.8840007,-0.0008147936
-0.8830007,-0.0008114216
-0.8820007,-0.0008074365
-0.8810006,-0.000804371
-0.8800007,-0.0008013055
-0.8790007,-0.0007973204
-0.8780007,-0.0007945614
-0.8770006,-0.0007918025
-0.8760006,-0.0007878174
-0.8750007,-0.0007841389
-0.8740007,-0.0007816864
-0.8730007,-0.0007777013
-0.8720006,-0.0007746358
-0.8710006,-0.0007721835
-0.8700007,-0.0007672787
-0.8690007,-0.0007645197
-0.8680006,-0.0007623739
-0.8670006,-0.0007571626
-0.8660007,-0.0007550167
-0.8650007,-0.0007519512
-0.8640007,-0.0007485792
-0.8630006,-0.0007455137
-0.8620006,-0.0007424483
-0.8610007,-0.0007390762
-0.8600007,-0.0007357041
-0.8590007,-0.0007320256
-0.8580006,-0.0007292667
-0.8570006,-0.0007258946
-0.8560007,-0.000722216
-0.8550007,-0.0007194571
-0.8540006,-0.0007160851
-0.8530006,-0.0007121
-0.8520007,-0.0007090345
-0.8510007,-0.0007062756
-0.8500007,-0.0007013708
-0.8490006,-0.0006995315
-0.8480006,-0.0006961594
-0.8470007,-0.0006915613
-0.8460007,-0.0006891088
-0.8450007,-0.0006857368
-0.8440006,-0.0006820582
-0.8430007,-0.0006786863
-0.8420007,-0.0006765404
-0.8410007,-0.0006722487
-0.8400006,-0.0006694898
-0.8390006,-0.0006651981
-0.8380007,-0.0006621326
-0.8370007,-0.0006596802
-0.8360007,-0.0006560017
-0.8350006,-0.0006526296
-0.8340006,-0.0006486445
-0.8330007,-0.0006464986
-0.8320007,-0.0006425135
-0.8310006,-0.0006382219
-0.8300006,-0.0006363826
-0.8290007,-0.0006314777
-0.8280007,-0.0006293319
-0.8270007,-0.000626573
-0.8260006,-0.0006228944
-0.8250006,-0.0006198289
-0.8240007,-0.0006167634
-0.8230007,-0.0006124718
-0.8220007,-0.000610326
-0.8210006,-0.0006063408
-0.8200006,-0.0006023557
-0.8190007,-0.0005995968
-0.8180007,-0.0005953051
-0.8170006,-0.0005925461
-0.8160006,-0.0005904003
-0.8150007,-0.000585189
-0.8140007,-0.0005839628
-0.8130007,-0.0005802842
-0.8120006,-0.0005747664
-0.8110006,-0.0005738467
-0.8100007,-0.0005698616
-0.8090007,-0.0005664895
-0.8080007,-0.0005646503
-0.8070006,-0.0005606651
-0.8060006,-0.0005569865
-0.8050007,-0.0005545341
-0.8040007,-0.000550549
-0.8030006,-0.0005484032
-0.8020006,-0.0005456443
-0.8010007,-0.000541046
-0.8000007,-0.0005530014
-0.8009993,-0.0005710878
-0.8019994,-0.0005833497
-0.8029994,-0.0005956116
-0.8039994,-0.0006054211
-0.8049994,-0.0006149242
-0.8059993,-0.0006244272
-0.8069994,-0.0006323974
-0.8079994,-0.0006409807
-0.8089994,-0.0006492576
-0.8099993,-0.0006569213
-0.8109994,-0.0006651981
-0.8119994,-0.0006719421
-0.8129994,-0.0006792994
-0.8139994,-0.0006863499
-0.8149993,-0.0006924809
-0.8159994,-0.000699838
-0.8169994,-0.0007065821
-0.8179994,-0.0007117934
-0.8189994,-0.0007191506
-0.8199994,-0.0007258946
-0.8209994,-0.0007304929
-0.8219994,-0.0007375435
-0.8229994,-0.0007433679
-0.8239993,-0.000747353
-0.8249994,-0.0007547102
-0.8259994,-0.0007602281
-0.8269994,-0.0007645197
-0.8279994,-0.0007709572
-0.8289993,-0.0007755554
-0.8299994,-0.0007801537
-0.8309994,-0.0007865912
-0.8319994,-0.0007911894
-0.8329993,-0.0007964008
-0.8339994,-0.0008019186
-0.8349994,-0.0008059037
-0.8359994,-0.0008117282
-0.8369994,-0.0008166329
-0.8379993,-0.0008203115
-0.8389994,-0.0008270555
-0.8399994,-0.0008307341
-0.8409994,-0.000836252
-0.8419994,-0.0008414634
-0.8429993,-0.0008460616
-0.8439994,-0.0008512728
-0.8449994,-0.0008558711
-0.8459994,-0.0008595497
-0.8469993,-0.0008653741
-0.8479994,-0.0008690527
-0.8489994,-0.0008733444
-0.8499994,-0.0008791688
-0.8509994,-0.0008828474
-0.8519993,-0.0008877521
-0.8529994,-0.0008929634
-0.8539994,-0.0008957224
-0.8549994,-0.0009018534
-0.8559994,-0.0009055319
-0.8569994,-0.0009082909
-0.8579994,-0.0009150349
-0.8589994,-0.0009181004
-0.8599994,-0.0009233117
-0.8609993,-0.0009285231
-0.8619994,-0.000931895
-0.8629994,-0.0009361868
-0.8639994,-0.0009410915
-0.8649994,-0.000944157
-0.8659993,-0.0009493683
-0.8669994,-0.0009545796
-0.8679994,-0.0009576452
-0.8689994,-0.0009625499
-0.8699993,-0.0009668416
-0.8709994,-0.0009705202
-0.8719994,-0.0009751184
-0.8729994,-0.0009800232
-0.8739994,-0.0009846214
-0.8749993,-0.0009883
-0.8759994,-0.0009928982
-0.8769994,-0.0009968834
-0.8779994,-0.001000562
-0.8789994,-0.001005467
-0.8799993,-0.001009758
-0.8809994,-0.001013437
-0.8819994,-0.001018342
-0.8829994,-0.00102202
-0.8839993,-0.001026312
-0.8849994,-0.001031523
-0.8859994,-0.001034895
-0.8869994,-0.001038574
-0.8879994,-0.001043172
-0.8889993,-0.001046851
-0.8899994,-0.001050223
-0.8909994,-0.001055434
-0.8919994,-0.001058806
-0.8929994,-0.001062791
-0.8939994,-0.001068616
-0.8949994,-0.001070761
-0.8959994,-0.00107536
-0.8969994,-0.001079345
-0.8979993,-0.001082104
-0.8989994,-0.001087622
-0.8999994,-0.001090994
-0.9009994,-0.001095592
-0.9019994,-0.00110019
-0.9029993,-0.001103256
-0.9039994,-0.00110816
-0.9049994,-0.001112452
-0.9059994,-0.001114598
-0.9069993,-0.001119503
-0.9079994,-0.001124101
-0.9089994,-0.001127779
-0.9099994,-0.001133297
-0.9109994,-0.001136363
-0.9119993,-0.001138815
-0.9129994,-0.001144333
-0.9139994,-0.001147398
-0.9149994,-0.001151384
-0.9159994,-0.001155982
-0.9169993,-0.001159047
-0.9179994,-0.001163952
-0.9189994,-0.001167631
-0.9199994,-0.001171003
-0.9209993,-0.001176827
-0.9219994,-0.001179893
-0.9229994,-0.001184184
-0.9239994,-0.001187863
-0.9249994,-0.001191541
-0.9259993,-0.001195833
-0.9269994,-0.001200125
-0.9279994,-0.001202884
-0.9289994,-0.001208095
-0.9299994,-0.001211467
-0.9309993,-0.00121392
-0.9319994,-0.001219744
-0.9329994,-0.001222503
-0.9339994,-0.001225262
-0.9349993,-0.001230167
-0.9359994,-0.001233845
-0.9369994,-0.001238137
-0.9379994,-0.001242429
-0.9389994,-0.001246107
-0.9399993,-0.001249786
-0.9409994,-0.001253464
-0.9419994,-0.001257756
-0.9429994,-0.001261741
-0.9439994,-0.001264193
-0.9449994,-0.001270018
-0.9459994,-0.00127339
-0.9469994,-0.001276149
-0.9479994,-0.001281667
-0.9489993,-0.001284426
-0.9499994,-0.001287185
-0.9509994,-0.001292396
-0.9519994,-0.001294848
-0.9529994,-0.00129914
-0.9539993,-0.001302819
-0.9549994,-0.001305577
-0.9559994,-0.001310789
-0.9569994,-0.001313241
-0.9579993,-0.001316307
-0.9589994,-0.001321518
-0.9599994,-0.001324277
-0.9609994,-0.001327649
-0.9619994,-0.001331634
-0.9629993,-0.00133378
-0.9639994,-0.001338072
-0.9649994,-0.001343283
-0.9659994,-0.001344816
-0.9669994,-0.001349414
-0.9679993,-0.001353092
-0.9689994,-0.001355545
-0.9699994,-0.001359837
-0.9709994,-0.001363209
-0.9719993,-0.001365661
-0.9729994,-0.001370259
-0.9739994,-0.001373938
-0.9749994,-0.00137639
-0.9759994,-0.001380375
-0.9769993,-0.001383134
-0.9779994,-0.001385893
-0.9789994,-0.001390798
-0.9799994,-0.00139325
-0.9809994,-0.001396316
-0.9819994,-0.001401221
-0.9829994,-0.001403366
-0.9839994,-0.001406432
-0.9849994,-0.001411643
-0.9859993,-0.001413482
-0.9869994,-0.001416548
-0.9879994,-0.001421759
-0.9889994,-0.001424825
-0.9899994,-0.001428197
-0.9909993,-0.001431262
-0.9919994,-0.001433715
-0.9929994,-0.001438619
-0.9939994,-0.001442298
-0.9949993,-0.001444137
-0.9959994,-0.001450575
-0.9969994,-0.001451801
-0.9979994,-0.001456093
-0.9989994,-0.001460384
-0.9999993,-0.001463143
-1.000999,-0.001465902
-1.001999,-0.0014705
-1.002999,-0.00147234
-1.003999,-0.001477245
-1.004999,-0.00148123
-1.005999,-0.001483069
-1.006999,-0.001487667
-1.007999,-0.001491346
-1.008999,-0.001494105
-1.009999,-0.001499009
-1.010999,-0.001500849
-1.011999,-0.001504527
-1.012999,-0.001508512
-1.013999,-0.001510045
-1.014999,-0.001515256
-1.015999,-0.001518629
-1.016999,-0.001521694
-1.017999,-0.001525986
-1.018999,-0.001528438
-1.019999,-0.00153181
-1.020999,-0.001535795
-1.021999,-0.001538554
-1.022999,-0.001543152
-1.023999,-0.001547444
-1.024999,-0.001549283
-1.025999,-0.001553882
-1.026999,-0.001557867
-1.027999,-0.001559399
-1.028999,-0.001564611
-1.029999,-0.001567983
-1.030999,-0.001570435
-1.031999,-0.00157534
-1.032999,-0.001578099
-1.033999,-0.001582084
-1.034999,-0.001585763
-1.035999,-0.001589441
-1.036999,-0.001591894
-1.037999,-0.001596798
-1.038999,-0.00160017
-1.039999,-0.001603236
-1.040999,-0.001606608
-1.041999,-0.00160906
-1.042999,-0.001613352
-1.043999,-0.001616417
-1.044999,-0.001619789
-1.045999,-0.001625307
-1.046999,-0.00162684
-1.047999,-0.001631132
-1.048999,-0.001635117
-1.049999,-0.001636956
-1.050999,-0.001640328
-1.051999,-0.001645846
-1.052999,-0.001647072
-1.053999,-0.001651364
-1.054999,-0.001655349
-1.055999,-0.001657188
-1.056999,-0.001662706
-1.057999,-0.001666998
-1.058999,-0.00166945
-1.059999,-0.001673742
-1.060999,-0.001677114
-1.061999,-0.001680179
-1.062999,-0.001683551
-1.063999,-0.001687537
-1.064999,-0.001691828
-1.065999,-0.001694587
-1.066999,-0.001699799
-1.067999,-0.001702558
-1.068999,-0.001705316
-1.069999,-0.001711141
-1.070999,-0.001714513
-1.071999,-0.001715126
-1.072999,-0.00172095
-1.073999,-0.001724016
-1.074999,-0.001727695
-1.075999,-0.001733825
-1.076999,-0.001733825
-1.077999,-0.00173965
-1.078999,-0.001742715
-1.079999,-0.001743941
-1.080999,-0.001749766
-1.081999,-0.001753751
-1.082999,-0.001756203
-1.083999,-0.001762948
-1.084999,-0.001764787
-1.085999,-0.001767239
-1.086999,-0.00177337
-1.087999,-0.001775822
-1.088999,-0.001779808
-1.089999,-0.001784406
-1.090999,-0.001787165
-1.091999,-0.001790537
-1.092999,-0.001795748
-1.093999,-0.001797894
-1.094999,-0.001802799
-1.095999,-0.00180709
-1.096999,-0.00180893
-1.097999,-0.001814141
-1.098999,-0.001818433
-1.099999,-0.001820272
-1.100999,-0.00182579
-1.101999,-0.001829162
-1.102999,-0.001832534
-1.103999,-0.001837439
-1.104999,-0.001840811
-1.105999,-0.001844489
-1.106999,-0.001847555
-1.107999,-0.001851847
-1.108999,-0.001855219
-1.109999,-0.001861963
-1.110999,-0.001863802
-1.111999,-0.001867787
-1.112999,-0.001872385
-1.113999,-0.001874838
-1.114999,-0.001880969
-1.115999,-0.001883421
-1.116999,-0.001888939
-1.117999,-0.00189415
-1.118999,-0.001897522
-1.119999,-0.001902427
-1.120999,-0.001906412
-1.121999,-0.001908558
-1.122999,-0.001915609
-1.123999,-0.001918367
-1.124999,-0.001922046
-1.125999,-0.001928177
-1.126999,-0.001931549
-1.127999,-0.001934614
-1.128999,-0.001939826
-1.129999,-0.001943811
-1.130999,-0.00194657
-1.131999,-0.001952701
-1.132999,-0.00195638
-1.133999,-0.001960058
-1.134999,-0.001964656
-1.135999,-0.001967109
-1.136999,-0.00197324
-1.137999,-0.001977225
-1.138999,-0.001980903
-1.139999,-0.001988261
-1.140999,-0.001989793
-1.141999,-0.001995618
-1.142999,-0.002000216
-1.143999,-0.002002362
-1.144999,-0.002009412
-1.145999,-0.002012478
-1.146999,-0.00201493
-1.147999,-0.002021061
-1.148999,-0.002025966
-1.149999,-0.002029031
-1.150999,-0.002034549
-1.151999,-0.00203976
-1.152999,-0.002041293
-1.153999,-0.002048344
-1.154999,-0.00205049
-1.155999,-0.002054475
-1.156999,-0.002059686
-1.157999,-0.002061219
-1.158999,-0.002067656
-1.159999,-0.002070109
-1.160999,-0.002074707
-1.161999,-0.002080225
-1.162999,-0.002081758
-1.163999,-0.002086049
-1.164999,-0.002091261
-1.165999,-0.0020931
-1.166999,-0.002098924
-1.167999,-0.00210199
-1.168999,-0.002103216
-1.169999,-0.002108427
-1.170999,-0.002113945
-1.171999,-0.002114865
-1.172999,-0.002120996
-1.173999,-0.002123448
-1.174999,-0.002124061
-1.175999,-0.002129886
-1.176999,-0.002132644
-1.177999,-0.002135097
-1.178999,-0.002140002
-1.179999,-0.002142148
-1.180999,-0.002145826
-1.181999,-0.002150118
-1.182999,-0.002153183
-1.183999,-0.002156555
-1.184999,-0.002162993
-1.185999,-0.002165752
-1.186999,-0.002169737
-1.187999,-0.002174948
-1.188999,-0.002178014
-1.189999,-0.002185064
-1.190999,-0.002189356
-1.191999,-0.002195181
-1.192999,-0.002202844
-1.193999,-0.00220591
-1.194999,-0.002212654
-1.195999,-0.002217865
-1.196999,-0.00222277
-1.197999,-0.00223074
-1.198999,-0.002235032
-1.199999,-0.002241776
-1.200999,-0.002249439
-1.201999,-0.002254038
-1.202999,-0.002261702
-1.203999,-0.002267219
-1.204999,-0.002273657
-1.205999,-0.002284079
-1.206999,-0.00229021
-1.207999,-0.002295115
-1.208999,-0.002305844
-1.209999,-0.002309216
-1.210999,-0.002318413
-1.211999,-0.002328836
-1.212999,-0.00233374
-1.213999,-0.002344163
-1.214999,-0.002351827
-1.215999,-0.002357957
-1.216999,-0.002368074
-1.217999,-0.002377577
-1.218999,-0.002385241
-1.219999,-0.002397196
-1.220999,-0.00240486
-1.221999,-0.002411603
-1.222999,-0.002423865
-1.223999,-0.002431836
-1.224999,-0.002441032
-1.225999,-0.002452987
-1.226999,-0.002460958
-1.227999,-0.002472606
-1.228999,-0.002483949
-1.229999,-0.002492532
-1.230999,-0.002503875
-1.231999,-0.002516137
-1.232999,-0.002525026
-1.233999,-0.002539434
-1.234999,-0.002548937
-1.235999,-0.002561199
-1.236999,-0.002573767
-1.237999,-0.00258419
-1.238999,-0.002597678
-1.239999,-0.00261086
-1.240999,-0.002622815
-1.241999,-0.002638143
-1.242999,-0.002649178
-1.243999,-0.002660827
-1.244999,-0.002677687
-1.245999,-0.00268903
-1.246999,-0.002702825
-1.247999,-0.002719378
-1.248999,-0.00273256
-1.249999,-0.002747887
-1.250999,-0.002764134
-1.251999,-0.002777929
-1.252999,-0.002795095
-1.253999,-0.002811956
-1.254999,-0.002825444
-1.255999,-0.002843224
-1.256999,-0.002860084
-1.257999,-0.002875105
-1.258999,-0.002894111
-1.259999,-0.002913423
-1.260999,-0.002926911
-1.261999,-0.002948983
-1.262999,-0.002968602
-1.263999,-0.002982396
-1.264999,-0.003002015
-1.265999,-0.002985663
-1.266999,-0.003004056
-1.267999,-0.003022449
-1.268999,-0.003043907
-1.269999,-0.0030623
-1.270999,-0.003083759
-1.271999,-0.003105217
-1.272999,-0.00312361
-1.273999,-0.003151199
-1.274999,-0.003169592
-1.275999,-0.003191051
-1.276999,-0.003215575
-1.277999,-0.003233967
-1.278999,-0.003261557
-1.279999,-0.003283015
-1.280999,-0.003304473
-1.281999,-0.003332063
-1.282999,-0.003356587
-1.283999,-0.003378045
-1.284999,-0.003405634
-1.285999,-0.003430158
-1.286999,-0.003454682
-1.287999,-0.003482271
-1.288999,-0.003509861
-1.289999,-0.003534385
-1.290999,-0.003561974
-1.291999,-0.003589563
-1.292999,-0.003617153
-1.293999,-0.003647808
-1.294999,-0.003672331
-1.295999,-0.003706052
-1.296999,-0.003733641
-1.297999,-0.00376123
-1.298999,-0.003794951
-1.299999,-0.003825605
-1.300999,-0.00385626
-1.301999,-0.00388998
-1.302999,-0.003920636
-1.303999,-0.003954356
-1.304999,-0.003991141
-1.305999,-0.004021796
-1.306999,-0.004055517
-1.307999,-0.004098434
-1.308999,-0.004129088
-1.309999,-0.004168939
-1.310999,-0.004205726
-1.311999,-0.004242511
-1.312999,-0.004282362
-1.313999,-0.004322214
-1.314999,-0.004362065
-1.315999,-0.004404982
-1.316999,-0.004444833
-1.317999,-0.004490815
-1.318999,-0.004533732
-1.319999,-0.004576649
-1.320999,-0.004622631
-1.321999,-0.004671679
-1.322999,-0.004717661
-1.323999,-0.004766709
-1.324999,-0.004818822
-1.325999,-0.004867869
-1.326999,-0.004919983
-1.327999,-0.004975162
-1.328999,-0.005027275
-1.329999,-0.005085519
-1.330999,-0.005140697
-1.331999,-0.005202007
-1.332999,-0.005263316
-1.333999,-0.005321561
-1.334999,-0.005385936
-1.335999,-0.005447246
-1.336999,-0.005514686
-1.337999,-0.005579061
-1.338999,-0.005646502
-1.339999,-0.005720073
-1.340999,-0.00579058
-1.341999,-0.005861086
-1.342999,-0.005940788
-1.343999,-0.006017426
-1.344999,-0.006097128
-1.345999,-0.00617683
-1.346999,-0.006259599
-1.347999,-0.006342367
-1.348999,-0.006431265
-1.349999,-0.006520165
-1.350999,-0.006612129
-1.351999,-0.006701028
-1.352999,-0.006799124
-1.353999,-0.006897219
-1.354999,-0.006995314
-1.355999,-0.007102606
-1.356999,-0.007203767
-1.357999,-0.007311059
-1.358999,-0.007424482
-1.359999,-0.007531774
-1.360999,-0.007645197
-1.361999,-0.007767816
-1.362999,-0.007884304
-1.363999,-0.008006924
-1.364999,-0.008135674
-1.365999,-0.008261358
-1.366999,-0.008393174
-1.367999,-0.008528056
-1.368999,-0.008662937
-1.369999,-0.008803949
-1.370999,-0.008951092
-1.371999,-0.009092105
-1.372999,-0.009239248
-1.373999,-0.009392521
-1.374999,-0.009545796
-1.375999,-0.009705201
-1.376999,-0.009867672
-1.377999,-0.01002708
-1.378999,-0.01019874
-1.379999,-0.01037041
-1.380999,-0.01053595
-1.381999,-0.01071988
-1.382999,-0.01089461
-1.383999,-0.01107854
-1.384999,-0.01126553
-1.385999,-0.01144946
-1.386999,-0.01164565
-1.387999,-0.01183878
-1.388999,-0.01203497
-1.389999,-0.01224649
-1.390999,-0.01244268
-1.391999,-0.01265113
-1.392999,-0.01286878
-1.393999,-0.01307723
-1.394999,-0.01329488
-1.395999,-0.01352173
-1.396999,-0.01373938
-1.397999,-0.01396622
-1.398999,-0.0141992
-1.399999,-0.01442298
-1.400999,-0.01466209
-1.401999,-0.01490119
-1.402999,-0.01513724
-1.403999,-0.01537941
-1.404999,-0.01563385
-1.405999,-0.01587908
-1.406999,-0.01613045
-1.407999,-0.01638489
-1.408999,-0.01664545
-1.409999,-0.01690295
-1.410999,-0.01716045
-1.411999,-0.01742715
-1.412999,-0.01769078
-1.413999,-0.01796361
-1.414999,-0.01823644
-1.415999,-0.01851233
-1.416999,-0.01879129
-1.417999,-0.01907025
-1.418999,-0.01935227
-1.419999,-0.0196343
-1.420999,-0.01992246
-1.421999,-0.02020754
-1.422999,-0.02049876
-1.423999,-0.02079305
-1.424999,-0.02108427
-1.425999,-0.02138469
-1.426999,-0.02168511
-1.427999,-0.02198246
-1.428999,-0.02228594
-1.429999,-0.02260168
-1.430999,-0.0229021
-1.431999,-0.02321172
-1.432999,-0.0235244
-1.433999,-0.02383094
-1.434999,-0.02414975
-1.435999,-0.0244563
-1.436999,-0.02477205
-1.437999,-0.02509699
-1.438999,-0.02541273
-1.439999,-0.02573767
-1.440999,-0.02606262
-1.441999,-0.02638449
-1.442999,-0.02671863
-1.443999,-0.02704357
-1.444999,-0.02736851
-1.445999,-0.02770878
-1.446999,-0.02803372
-1.447999,-0.02836479
-1.448999,-0.02870506
-1.449999,-0.02903307
-1.450999,-0.02936414
-1.451999,-0.02970747
-1.452999,-0.03004468
-1.453999,-0.03038801
-1.454999,-0.03083759
-1.455999,-0.03117479
-1.456999,-0.03151199
-1.457999,-0.03187985
-1.458999,-0.03221706
-1.459999,-0.03258491
-1.460999,-0.03295277
-1.461999,-0.03328998
-1.462999,-0.03365783
-1.463999,-0.03399504
-1.464999,-0.03436289
-1.465999,-0.03473075
-1.466999,-0.03506796
-1.467999,-0.03543581
-1.468999,-0.03580367
-1.469999,-0.03614087
-1.470999,-0.03653939
-1.471999,-0.03687659
-1.472999,-0.0372751
-1.473999,-0.03764296
-1.474999,-0.03801082
-1.475999,-0.03837867
-1.476999,-0.03874653
-1.477999,-0.03911439
-1.478999,-0.03948225
-1.479999,-0.03985011
-1.480999,-0.04021796
-1.481999,-0.04061648
-1.482999,-0.04098434
-1.483999,-0.04135219
-1.484999,-0.04175071
-1.485999,-0.04211856
-1.486999,-0.04248642
-1.487999,-0.04288493
-1.488999,-0.04325279
-1.489999,-0.04365131
-1.490999,-0.04404982
-1.491999,-0.04438702
-1.492999,-0.04478553
-1.493999,-0.04515339
-1.494999,-0.04555191
-1.495999,-0.04595042
-1.496999,-0.04631827
-1.497999,-0.04671679
-1.498999,-0.0471153
-1.499999,-0.04723792
-1.499001,-0.04693137
-1.498001,-0.04659417
-1.497001,-0.04628762
-1.496001,-0.04595042
-1.495001,-0.04561321
-1.494001,-0.04527601
-1.493001,-0.04493881
-1.492001,-0.04457095
-1.491001,-0.04423375
-1.490001,-0.04389654
-1.489001,-0.04355934
-1.488001,-0.04322214
-1.487001,-0.04285428
-1.486001,-0.04251708
-1.485001,-0.04217988
-1.484001,-0.04181201
-1.483001,-0.04144416
-1.482001,-0.04113761
-1.481001,-0.04076975
-1.480001,-0.04040189
-1.479001,-0.04006469
-1.478001,-0.03969683
-1.477001,-0.03935963
-1.476001,-0.03902243
-1.475001,-0.03865457
-1.474001,-0.03831736
-1.473001,-0.03798017
-1.472001,-0.0376123
-1.471001,-0.0372751
-1.470001,-0.03696856
-1.469001,-0.03660069
-1.468001,-0.03626349
-1.467001,-0.03592629
-1.466001,-0.03555843
-1.465001,-0.03525188
-1.464001,-0.03488402
-1.463001,-0.03454682
-1.462001,-0.03424027
-1.461001,-0.03387242
-1.460001,-0.03353521
-1.459001,-0.03322866
-1.458001,-0.03286081
-1.457001,-0.03255426
-1.456001,-0.03221706
-1.455001,-0.03187985
-1.454001,-0.03157331
-1.453001,-0.03120545
-1.452001,-0.0308989
-1.451001,-0.03056169
-1.450001,-0.03022449
-1.449001,-0.02991794
-1.448001,-0.02958074
-1.447001,-0.02927419
-1.446001,-0.02896764
-1.445001,-0.02863044
-1.444001,-0.02832389
-1.443001,-0.02798669
-1.442001,-0.02768014
-1.441001,-0.02737359
-1.440001,-0.02706704
-1.439001,-0.02672984
-1.438001,-0.02645395
-1.437001,-0.0261474
-1.436001,-0.02584085
-1.435001,-0.0255343
-1.434001,-0.02522776
-1.433001,-0.02492121
-1.432001,-0.02461466
-1.431001,-0.02430811
-1.430001,-0.02400156
-1.429001,-0.02369501
-1.428001,-0.02341912
-1.427001,-0.02311257
-1.426001,-0.02283668
-1.425001,-0.02253013
-1.424001,-0.02225424
-1.423001,-0.02197834
-1.422001,-0.02170245
-1.421001,-0.02142656
-1.420001,-0.02115066
-1.419001,-0.02087477
-1.418001,-0.02059888
-1.417001,-0.02029233
-1.416001,-0.02004709
-1.415001,-0.0197712
-1.414001,-0.0194953
-1.413001,-0.01925006
-1.412001,-0.01897417
-1.411001,-0.01869828
-1.410001,-0.01845304
-1.409001,-0.0182078
-1.408001,-0.01793191
-1.407001,-0.01768667
-1.406001,-0.01744143
-1.405001,-0.01719619
-1.404001,-0.0169203
-1.403001,-0.01667506
-1.402001,-0.01642982
-1.401001,-0.01621523
-1.400001,-0.01607834
-1.399001,-0.01585149
-1.398001,-0.01562465
-1.397001,-0.0153978
-1.396001,-0.01517096
-1.395001,-0.01495024
-1.394001,-0.01472646
-1.393001,-0.01450881
-1.392001,-0.01430036
-1.391001,-0.01407658
-1.390001,-0.01387426
-1.389001,-0.0136658
-1.388001,-0.01345429
-1.387001,-0.01325503
-1.386001,-0.01305271
-1.385001,-0.01285345
-1.384001,-0.01266339
-1.383001,-0.01246414
-1.382001,-0.01227714
-1.381001,-0.01209015
-1.380001,-0.01190009
-1.379001,-0.01172229
-1.378001,-0.01154143
-1.377001,-0.01136056
-1.376001,-0.0111889
-1.375001,-0.0110111
-1.374001,-0.01084556
-1.373001,-0.01068309
-1.372001,-0.01051142
-1.371001,-0.01035815
-1.370001,-0.01019874
-1.369001,-0.01003321
-1.368001,-0.009882999
-1.367001,-0.009729725
-1.366001,-0.009579516
-1.365001,-0.009435439
-1.364001,-0.009291361
-1.363001,-0.009150349
-1.362001,-0.009009337
-1.361001,-0.00887139
-1.360001,-0.008739574
-1.359001,-0.008607758
-1.358001,-0.008475943
-1.357001,-0.008353323
-1.356001,-0.008227638
-1.355001,-0.008101954
-1.354001,-0.0079824
-1.353001,-0.007868977
-1.352001,-0.007749423
-1.351001,-0.007639066
-1.350001,-0.007525643
-1.349001,-0.007421417
-1.348001,-0.007311059
-1.347001,-0.007206833
-1.346001,-0.007105672
-1.345001,-0.007001445
-1.344001,-0.006906416
-1.343001,-0.00680832
-1.342001,-0.00671329
-1.341001,-0.006624391
-1.340001,-0.006529361
-1.339001,-0.006440463
-1.338001,-0.006357694
-1.337001,-0.006271861
-1.336001,-0.006189092
-1.335001,-0.006112455
-1.334001,-0.006026622
-1.333001,-0.00595305
-1.332001,-0.005876414
-1.331001,-0.00579671
-1.330001,-0.00572927
-1.329001,-0.005655698
-1.328001,-0.005582127
-1.327001,-0.005514686
-1.326001,-0.005450311
-1.325001,-0.00538287
-1.324001,-0.00531543
-1.323001,-0.005257186
-1.322001,-0.005192811
-1.321001,-0.005134566
-1.320001,-0.005076322
-1.319001,-0.005015012
-1.318001,-0.004959834
-1.317001,-0.004904655
-1.316001,-0.004849477
-1.315001,-0.004797364
-1.314001,-0.004742185
-1.313001,-0.004690072
-1.312001,-0.004644089
-1.311001,-0.004591976
-1.310001,-0.004545994
-1.309001,-0.004500012
-1.308001,-0.004450964
-1.307001,-0.004408047
-1.306001,-0.00436513
-1.305001,-0.004322214
-1.304001,-0.004279297
-1.303001,-0.00423638
-1.302001,-0.004199594
-1.301001,-0.004159743
-1.300001,-0.004116826
-1.299001,-0.004083106
-1.298001,-0.004043255
-1.297001,-0.004006469
-1.296001,-0.003972749
-1.295001,-0.003935963
-1.294001,-0.003902242
-1.293001,-0.003871588
-1.292001,-0.003831736
-1.291001,-0.003801082
-1.290001,-0.003770427
-1.289001,-0.003736707
-1.288001,-0.003706052
-1.287001,-0.003675397
-1.286001,-0.003644742
-1.285001,-0.003617153
-1.284001,-0.003586498
-1.283001,-0.003558908
-1.282001,-0.003531319
-1.281001,-0.00350373
-1.280001,-0.003479206
-1.279001,-0.003451617
-1.278001,-0.003424027
-1.277001,-0.003399503
-1.276001,-0.003378045
-1.275001,-0.003350456
-1.274001,-0.003325932
-1.273001,-0.003304473
-1.272001,-0.00327995
-1.271001,-0.003258491
-1.270001,-0.003233967
-1.269001,-0.003212509
-1.268001,-0.003187985
-1.267001,-0.003166527
-1.266001,-0.003145068
-1.265001,-0.003126675
-1.264001,-0.003102152
-1.263001,-0.003086824
-1.262001,-0.003065366
-1.261001,-0.003043907
-1.260001,-0.00302858
-1.259001,-0.003007122
-1.258001,-0.002985663
-1.257001,-0.002970336
-1.256001,-0.002955008
-1.255001,-0.00293355
-1.254001,-0.002918222
-1.253001,-0.00289983
-1.252001,-0.002881437
-1.251001,-0.002863044
-1.250001,-0.002847716
-1.249001,-0.002832389
-1.248001,-0.002813996
-1.247001,-0.002798669
-1.246001,-0.002783341
-1.245001,-0.002768014
-1.244001,-0.002749621
-1.243001,-0.002737359
-1.242001,-0.002718966
-1.241001,-0.002706704
-1.240001,-0.002691377
-1.239001,-0.002672984
-1.238001,-0.002660722
-1.237001,-0.00264846
-1.236001,-0.002633133
-1.235001,-0.002620871
-1.234001,-0.002608609
-1.233001,-0.002590216
-1.232001,-0.00258102
-1.231001,-0.002565692
-1.230001,-0.002550365
-1.229001,-0.002541168
-1.228001,-0.002525841
-1.227001,-0.002513579
-1.226001,-0.002504382
-1.225001,-0.002489055
-1.224001,-0.002479859
-1.223001,-0.002467597
-1.222001,-0.002452269
-1.221001,-0.002443073
-1.220001,-0.002430811
-1.219001,-0.002415484
-1.218001,-0.002409352
-1.217001,-0.002394025
-1.216001,-0.002381763
-1.215001,-0.002372567
-1.214001,-0.002357239
-1.213001,-0.002348043
-1.212001,-0.002338846
-1.211001,-0.002326585
-1.210001,-0.002317388
-1.209001,-0.002305126
-1.208001,-0.00229593
-1.207001,-0.002286733
-1.206001,-0.002277537
-1.205001,-0.002265275
-1.204001,-0.002259144
-1.203001,-0.002243817
-1.202001,-0.002240751
-1.201001,-0.002228489
-1.200001,-0.002216227
-1.199001,-0.002210096
-1.198001,-0.002197834
-1.197001,-0.002188638
-1.196001,-0.002182507
-1.195001,-0.002170245
-1.194001,-0.002161048
-1.193001,-0.002154917
-1.192001,-0.002145721
-1.191001,-0.002136525
-1.190001,-0.002127328
-1.189001,-0.002118132
-1.188001,-0.002108935
-1.187001,-0.002102804
-1.186001,-0.002090542
-1.185001,-0.002084411
-1.184001,-0.002075215
-1.183001,-0.002066019
-1.182001,-0.002059887
-1.181001,-0.002053756
-1.180001,-0.002041495
-1.179001,-0.002035364
-1.178001,-0.002029233
-1.177001,-0.002020036
-1.176001,-0.002013905
-1.175001,-0.002004709
-1.174001,-0.001995512
-1.173001,-0.001992447
-1.172001,-0.00198325
-1.171001,-0.001974054
-1.170001,-0.001967923
-1.169001,-0.001958727
-1.168001,-0.001952596
-1.167001,-0.001946465
-1.166001,-0.001940334
-1.165001,-0.001931137
-1.164001,-0.001928072
-1.163001,-0.001918875
-1.162001,-0.001909679
-1.161001,-0.001906613
-1.160001,-0.001894351
-1.159001,-0.001894351
-1.158001,-0.001885155
-1.157001,-0.001879024
-1.156001,-0.001872893
-1.155001,-0.001863697
-1.154001,-0.001860631
-1.153001,-0.0018545
-1.152001,-0.001845304
-1.151001,-0.001842238
-1.150001,-0.001836107
-1.149001,-0.001826911
-1.148001,-0.001823845
-1.147001,-0.001817714
-1.146001,-0.001811583
-1.145001,-0.001805453
-1.144001,-0.001799321
-1.143001,-0.00179319
-1.142001,-0.001790125
-1.141001,-0.001783994
-1.140001,-0.001777863
-1.139001,-0.001771732
-1.138001,-0.001765601
-1.137001,-0.00175947
-1.136001,-0.001753339
-1.135001,-0.001747208
-1.134001,-0.001744143
-1.133001,-0.001738012
-1.132001,-0.001731881
-1.131001,-0.001728815
-1.130001,-0.001722684
-1.129001,-0.001716554
-1.128001,-0.001710422
-1.127001,-0.001704292
-1.126001,-0.001701226
-1.125001,-0.001695095
-1.124001,-0.001688964
-1.123001,-0.001685899
-1.122001,-0.001676702
-1.121001,-0.001673637
-1.120001,-0.001667506
-1.119001,-0.001661375
-1.118001,-0.001658309
-1.117001,-0.001655244
-1.116001,-0.001646047
-1.115001,-0.001642982
-1.114001,-0.001639916
-1.113001,-0.00163072
-1.112001,-0.001627655
-1.111001,-0.001624589
-1.110001,-0.00165259
-1.109001,-0.001651364
-1.108001,-0.001645846
-1.107001,-0.001640022
-1.106001,-0.001636036
-1.105001,-0.001629599
-1.104001,-0.001625307
-1.103001,-0.001620403
-1.102001,-0.001615191
-1.101001,-0.001611819
-1.100001,-0.001605688
-1.099001,-0.001600477
-1.098001,-0.001598025
-1.097001,-0.001591587
-1.096001,-0.001587908
-1.095001,-0.001583923
-1.094001,-0.001576873
-1.093001,-0.001573501
-1.092001,-0.001570742
-1.091001,-0.001563078
-1.090001,-0.001561545
-1.089001,-0.00155848
-1.088001,-0.001551123
-1.087001,-0.001550509
-1.086001,-0.001544379
-1.085001,-0.001538248
-1.084001,-0.001536102
-1.083001,-0.001530584
-1.082001,-0.001527518
-1.081001,-0.001522307
-1.080001,-0.001517402
-1.079001,-0.001515256
-1.078001,-0.001510658
-1.077001,-0.00150514
-1.076001,-0.001503608
-1.075001,-0.001498396
-1.074001,-0.001493185
-1.073001,-0.001491346
-1.072001,-0.001487667
-1.071001,-0.001483069
-1.070001,-0.001480617
-1.069001,-0.001475712
-1.068001,-0.00147142
-1.067001,-0.001470194
-1.066001,-0.001464063
-1.065001,-0.001461611
-1.064001,-0.001459158
-1.063001,-0.00145364
-1.062001,-0.001450268
-1.061001,-0.001449349
-1.060001,-0.001441685
-1.059001,-0.001441378
-1.058001,-0.0014377
-1.057001,-0.001432182
-1.056001,-0.001430956
-1.055001,-0.001426357
-1.054001,-0.001421453
-1.053001,-0.00141992
-1.052001,-0.001415015
-1.051001,-0.001411337
-1.050001,-0.001409804
-1.049001,-0.001403673
-1.048001,-0.001401221
-1.047001,-0.001396622
-1.046001,-0.001392944
-1.045001,-0.001391411
-1.044001,-0.001387426
-1.043001,-0.001382521
-1.042001,-0.001382215
-1.041001,-0.001375777
-1.040001,-0.001374244
-1.039001,-0.001371792
-1.038001,-0.001367194
-1.037001,-0.001365048
-1.036001,-0.001361369
-1.035001,-0.001356158
-1.034001,-0.001354319
-1.033001,-0.001349414
-1.032001,-0.001346962
-1.031001,-0.001344509
-1.030001,-0.001338991
-1.029001,-0.001336845
-1.028001,-0.001334087
-1.027001,-0.001328262
-1.026001,-0.001327342
-1.025001,-0.001324277
-1.024001,-0.001318453
-1.023001,-0.001317533
-1.022001,-0.001312935
-1.021001,-0.001309563
-1.020001,-0.001306497
-1.019001,-0.001301899
-1.018001,-0.001299447
-1.017001,-0.001295461
-1.016001,-0.001291476
-1.015001,-0.00128933
-1.014001,-0.001284732
-1.013001,-0.00128044
-1.012001,-0.001278295
-1.011001,-0.001274003
-1.010001,-0.001269711
-1.009001,-0.001267872
-1.008001,-0.00126358
-1.007001,-0.001258676
-1.006001,-0.001256836
-1.005001,-0.001251625
-1.004001,-0.00124856
-1.003001,-0.001246414
-1.002001,-0.001240283
-1.001001,-0.001238137
-1.000001,-0.001233845
-0.9990008,-0.001230473
-0.9980009,-0.001227408
-0.9970009,-0.001223116
-0.9960009,-0.001220357
-0.9950009,-0.001216678
-0.9940009,-0.001211467
-0.9930009,-0.001209015
-0.9920009,-0.001205336
-0.9910009,-0.001201045
-0.9900008,-0.001197979
-0.9890009,-0.001194607
-0.9880009,-0.001188783
-0.9870009,-0.00118725
-0.9860009,-0.001183571
-0.9850008,-0.001177747
-0.9840009,-0.001176214
-0.9830009,-0.001172842
-0.9820009,-0.001167937
-0.9810008,-0.001165485
-0.9800009,-0.001160887
-0.9790009,-0.001157208
-0.9780009,-0.001154756
-0.9770009,-0.001149851
-0.9760008,-0.001146172
-0.9750009,-0.001143107
-0.9740009,-0.001137589
-0.9730009,-0.001135443
-0.9720009,-0.001131765
-0.9710009,-0.001127166
-0.9700009,-0.001125327
-0.9690009,-0.001119809
-0.9680009,-0.001116131
-0.9670008,-0.001113678
-0.9660009,-0.001108467
-0.9650009,-0.001105095
-0.9640009,-0.001102029
-0.9630009,-0.001097125
-0.9620008,-0.001094059
-0.9610009,-0.001090994
-0.9600009,-0.001086702
-0.9590009,-0.001083943
-0.9580009,-0.001079038
-0.9570009,-0.00107536
-0.9560009,-0.001071988
-0.9550009,-0.001067389
-0.9540009,-0.001063711
-0.9530008,-0.001060952
-0.9520009,-0.001056047
-0.9510009,-0.001052675
-0.9500009,-0.001049303
-0.9490009,-0.001044398
-0.9480008,-0.001041026
-0.9470009,-0.001038267
-0.9460009,-0.001033056
-0.9450009,-0.001029377
-0.9440009,-0.001026312
-0.9430009,-0.001021714
-0.9420009,-0.001018648
-0.9410009,-0.001015276
-0.9400009,-0.001010065
-0.9390008,-0.001007306
-0.9380009,-0.001003321
-0.9370009,-0.0009984161
-0.9360009,-0.0009956572
-0.9350009,-0.0009919786
-0.9340008,-0.0009867672
-0.9330009,-0.0009843148
-0.9320009,-0.0009800232
-0.9310009,-0.0009738922
-0.9300008,-0.0009723594
-0.9290009,-0.0009680677
-0.9280009,-0.000963163
-0.9270009,-0.0009616303
-0.9260009,-0.0009561123
-0.9250008,-0.0009521273
-0.9240009,-0.0009493683
-0.9230009,-0.0009444635
-0.9220009,-0.0009404784
-0.9210009,-0.0009371064
-0.9200009,-0.0009328147
-0.9190009,-0.0009291361
-0.9180009,-0.0009263772
-0.9170009,-0.0009208593
-0.9160008,-0.0009187135
-0.9150009,-0.0009147284
-0.9140009,-0.0009095171
-0.9130009,-0.0009076777
-0.9120009,-0.0009030796
-0.9110008,-0.0008990944
-0.9100009,-0.0008963355
-0.9090009,-0.0008917373
-0.9080009,-0.0008886718
-0.9070009,-0.0008852997
-0.9060009,-0.000880395
-0.9050009,-0.0008779426
-0.9040009,-0.0008733444
-0.9030009,-0.000870892
-0.9020008,-0.0008678265
-0.9010009,-0.0008623086
-0.9000009,-0.0008601628
-0.8990009,-0.0008567907
-0.8980009,-0.0008521925
-0.8970008,-0.0008497401
-0.8960009,-0.0008460616
-0.8950009,-0.0008417699
-0.8940009,-0.000839624
-0.8930008,-0.0008350258
-0.8920009,-0.0008316538
-0.8910009,-0.0008288948
-0.8900009,-0.0008242966
-0.8890009,-0.0008209246
-0.8880008,-0.0008196984
-0.8870009,-0.0008154067
-0.8860009,-0.0008114216
-0.8850009,-0.0008086627
-0.8840009,-0.000804371
-0.8830009,-0.0008009989
-0.8820009,-0.0007973204
-0.8810009,-0.0007951746
-0.8800009,-0.0007911894
-0.8790008,-0.0007878174
-0.8780009,-0.0007847519
-0.8770009,-0.0007816864
-0.8760009,-0.0007767816
-0.8750009,-0.0007746358
-0.8740008,-0.0007715704
-0.8730009,-0.0007669721
-0.8720009,-0.0007648263
-0.8710009,-0.0007617608
-0.8700009,-0.0007574691
-0.8690009,-0.0007556298
-0.8680009,-0.0007516447
-0.8670009,-0.0007482726
-0.8660009,-0.0007458202
-0.8650008,-0.0007418352
-0.8640009,-0.0007384631
-0.8630009,-0.0007357041
-0.8620009,-0.0007320256
-0.8610009,-0.000728347
-0.8600008,-0.0007262012
-0.8590009,-0.000722216
-0.8580009,-0.0007191506
-0.8570009,-0.0007163917
-0.8560008,-0.0007117934
-0.8550009,-0.0007096475
-0.8540009,-0.0007056625
-0.8530009,-0.0007022904
-0.8520009,-0.000699838
-0.8510008,-0.0006958529
-0.8500009,-0.000693094
-0.8490009,-0.0006900285
-0.8480009,-0.0006857368
-0.8470009,-0.0006832844
-0.8460009,-0.0006805255
-0.8450009,-0.0006756207
-0.8440009,-0.0006731683
-0.8430009,-0.0006694898
-0.8420008,-0.0006658112
-0.8410009,-0.0006630523
-0.8400009,-0.0006593736
-0.8390009,-0.0006556951
-0.8380009,-0.0006529361
-0.8370008,-0.0006480314
-0.8360009,-0.0006446594
-0.8350009,-0.0006419004
-0.8340009,-0.0006382219
-0.8330009,-0.0006354629
-0.8320009,-0.0006311712
-0.8310009,-0.0006274926
-0.8300009,-0.0006247337
-0.8290009,-0.0006207486
-0.8280008,-0.00061707
-0.8270009,-0.0006143111
-0.8260009,-0.0006100194
-0.8250009,-0.0006069539
-0.8240009,-0.000604195
-0.8230008,-0.0005995968
-0.8220009,-0.0005959182
-0.8210009,-0.0005937723
-0.8200009,-0.0005891741
-0.8190009,-0.0005858021
-0.8180009,-0.0005830431
-0.8170009,-0.0005778318
-0.8160009,-0.000575686
-0.8150009,-0.0005717009
-0.8140008,-0.0005674092
-0.8130009,-0.0005649568
-0.8120009,-0.000560052
-0.8110009,-0.0005572931
-0.8100009,-0.0005542276
-0.8090008,-0.0005493228
-0.8080009,-0.0005465639
-0.8070009,-0.0005431919
-0.8060009,-0.0005379805
-0.8050008,-0.0005358347
-0.8040009,-0.0005324627
-0.8030009,-0.0005278645
-0.8020009,-0.0005260251
-0.8010009,-0.000521427
-0.8000008,-0.0005339954
-0.8009992,-0.0005536145
-0.8019992,-0.0005680223
-0.8029991,-0.0005802842
-0.8039991,-0.0005916265
-0.8049992,-0.0006014361
-0.8059992,-0.0006121653
-0.8069991,-0.0006216682
-0.8079991,-0.0006302515
-0.8089992,-0.000639448
-0.8099992,-0.0006471117
-0.8109992,-0.0006553886
-0.8119991,-0.0006633588
-0.8129991,-0.0006697963
-0.8139992,-0.0006783796
-0.8149992,-0.0006854302
-0.8159992,-0.0006912547
-0.8169991,-0.0006989184
-0.8179991,-0.0007056625
-0.8189992,-0.0007111803
-0.8199992,-0.000718844
-0.8209991,-0.000724975
-0.8219991,-0.0007301863
-0.8229992,-0.00073785
-0.8239992,-0.0007427548
-0.8249992,-0.0007482726
-0.8259991,-0.0007553233
-0.8269991,-0.0007596149
-0.8279992,-0.0007657459
-0.8289992,-0.0007718769
-0.8299991,-0.0007764751
-0.8309991,-0.000781993
-0.8319992,-0.0007881239
-0.8329992,-0.0007927222
-0.8339992,-0.0007985466
-0.8349991,-0.0008040644
-0.8359991,-0.0008080496
-0.8369992,-0.0008141805
-0.8379992,-0.0008187788
-0.8389992,-0.0008236835
-0.8399991,-0.0008292014
-0.8409991,-0.0008334931
-0.8419992,-0.0008383978
-0.8429992,-0.0008439157
-0.8439991,-0.000848514
-0.8449991,-0.0008537253
-0.8459992,-0.0008589366
-0.8469992,-0.0008620021
-0.8479992,-0.0008684396
-0.8489991,-0.0008727313
-0.8499991,-0.0008767164
-0.8509992,-0.0008825408
-0.8519992,-0.0008868325
-0.8529992,-0.0008908176
-0.8539991,-0.0008972551
-0.8549991,-0.0009006272
-0.8559992,-0.0009039992
-0.8569992,-0.0009110498
-0.8579991,-0.0009141153
-0.8589991,-0.0009187135
-0.8599992,-0.000925151
-0.8609992,-0.0009285231
-0.8619992,-0.0009337344
-0.8629991,-0.0009386392
-0.8639991,-0.0009417046
-0.8649992,-0.0009472225
-0.8659992,-0.0009515142
-0.8669991,-0.0009558058
-0.8679991,-0.0009604041
-0.8689992,-0.0009643892
-0.8699992,-0.0009699071
-0.8709992,-0.0009735856
-0.8719991,-0.0009781838
-0.8729991,-0.0009827821
-0.8739992,-0.0009861541
-0.8749992,-0.0009916719
-0.8759992,-0.0009962702
-0.8769991,-0.0009993357
-0.8779991,-0.001004854
-0.8789992,-0.001008839
-0.8799992,-0.001011598
-0.8809991,-0.001017422
-0.8819991,-0.001021101
-0.8829992,-0.001025392
-0.8839992,-0.001029991
-0.8849992,-0.001034589
-0.8859991,-0.001037654
-0.8869991,-0.001042253
-0.8879992,-0.001046238
-0.8889992,-0.001050529
-0.8899992,-0.001056047
-0.8909991,-0.0010585
-0.8919991,-0.001063404
-0.8929992,-0.001067389
-0.8939992,-0.001069842
-0.8949991,-0.00107536
-0.8959991,-0.001078425
-0.8969992,-0.001083637
-0.8979992,-0.001087928
-0.8989992,-0.0010913
-0.8999991,-0.001095285
-0.9009991,-0.001099577
-0.9019992,-0.001103256
-0.9029992,-0.001108467
-0.9039991,-0.001112759
-0.9049991,-0.001115518
-0.9059991,-0.001120116
-0.9069992,-0.001124408
-0.9079992,-0.001127473
-0.9089991,-0.001132378
-0.9099991,-0.001136056
-0.9109992,-0.001140041
-0.9119992,-0.001144946
-0.9129992,-0.001147398
-0.9139991,-0.001151077
-0.9149991,-0.001155982
-0.9159992,-0.001159661
-0.9169992,-0.001163646
-0.9179991,-0.001167631
-0.9189991,-0.001170696
-0.9199992,-0.001174988
-0.9209992,-0.001178973
-0.9219992,-0.001182345
-0.9229991,-0.00118817
-0.9239991,-0.001190622
-0.9249992,-0.001195527
-0.9259992,-0.001199205
-0.9269992,-0.001202577
-0.9279991,-0.001207175
-0.9289991,-0.001211467
-0.9299992,-0.001215146
-0.9309992,-0.001219437
-0.9319991,-0.001223116
-0.9329991,-0.001226488
-0.9339992,-0.00123078
-0.9349992,-0.001233845
-0.9359992,-0.00123875
-0.9369991,-0.001242122
-0.9379991,-0.001245494
-0.9389992,-0.001249173
-0.9399992,-0.001253464
-0.9409992,-0.001256223
-0.9419991,-0.001261128
-0.9429991,-0.001263887
-0.9439992,-0.001267259
-0.9449992,-0.00127339
-0.9459991,-0.001275536
-0.9469991,-0.001278908
-0.9479992,-0.001284426
-0.9489992,-0.001286571
-0.9499992,-0.001290557
-0.9509991,-0.001295461
-0.9519991,-0.00129822
-0.9529992,-0.001303125
-0.9539992,-0.001305884
-0.9549991,-0.001309869
-0.9559991,-0.001313241
-0.9569992,-0.001316613
-0.9579992,-0.001321518
-0.9589992,-0.001325503
-0.9599991,-0.001327036
-0.9609991,-0.001332554
-0.9619992,-0.001335926
-0.9629992,-0.001338378
-0.9639992,-0.00134359
-0.9649991,-0.001347268
-0.9659991,-0.001350027
-0.9669992,-0.001355545
-0.9679992,-0.001356158
-0.9689991,-0.001362902
-0.9699991,-0.001365354
-0.9709992,-0.001369033
-0.9719992,-0.001373631
-0.9729992,-0.00137547
-0.9739991,-0.001379456
-0.9749991,-0.00138436
-0.9759992,-0.0013862
-0.9769992,-0.001391411
-0.9779992,-0.00139417
-0.9789991,-0.001396929
-0.9799991,-0.00140214
-0.9809992,-0.001404593
-0.9819992,-0.001408578
-0.9829991,-0.001412563
-0.9839991,-0.001415322
-0.9849992,-0.00141992
-0.9859992,-0.001423599
-0.9869992,-0.001425744
-0.9879991,-0.001430343
-0.9889991,-0.001434634
-0.9899992,-0.001436474
-0.9909992,-0.001442298
-0.9919991,-0.00144567
-0.9929991,-0.001447816
-0.9939992,-0.001453027
-0.9949992,-0.001455786
-0.9959992,-0.001459158
-0.9969991,-0.001464369
-0.9979991,-0.001466515
-0.9989992,-0.001469887
-0.9999992,-0.001474486
-1.000999,-0.001477245
-1.001999,-0.00148031
-1.002999,-0.001484908
-1.003999,-0.001487054
-1.004999,-0.001490733
-1.005999,-0.001496251
-1.006999,-0.001497477
-1.007999,-0.001501462
-1.008999,-0.001506367
-1.009999,-0.001507593
-1.010999,-0.001512498
-1.011999,-0.001516176
-1.012999,-0.001518629
-1.013999,-0.00152292
-1.014999,-0.001525986
-1.015999,-0.001529664
-1.016999,-0.001533649
-1.017999,-0.001537635
-1.018999,-0.001541006
-1.019999,-0.001544072
-1.020999,-0.001548057
-1.021999,-0.001551123
-1.022999,-0.001553575
-1.023999,-0.001559706
-1.024999,-0.001563385
-1.025999,-0.001564304
-1.026999,-0.001570129
-1.027999,-0.001573501
-1.028999,-0.001575033
-1.029999,-0.001580245
-1.030999,-0.00158423
-1.031999,-0.001587295
-1.032999,-0.001593426
-1.033999,-0.001594346
-1.034999,-0.001598025
-1.035999,-0.001602316
-1.036999,-0.001605382
-1.037999,-0.001608754
-1.038999,-0.001613352
-1.039999,-0.001614885
-1.040999,-0.001620096
-1.041999,-0.001624081
-1.042999,-0.001625614
-1.043999,-0.001631132
-1.044999,-0.001633584
-1.045999,-0.00163665
-1.046999,-0.001641248
-1.047999,-0.001642781
-1.048999,-0.001646459
-1.049999,-0.001651057
-1.050999,-0.001653203
-1.051999,-0.001659028
-1.052999,-0.001660867
-1.053999,-0.001664546
-1.054999,-0.001668837
-1.055999,-0.001670983
-1.056999,-0.001676194
-1.057999,-0.001680793
-1.058999,-0.001682325
-1.059999,-0.001687537
-1.060999,-0.001692441
-1.061999,-0.001693055
-1.062999,-0.001697653
-1.063999,-0.001701944
-1.064999,-0.001704397
-1.065999,-0.001710528
-1.066999,-0.001714206
-1.067999,-0.001716659
-1.068999,-0.001720644
-1.069999,-0.00172279
-1.070999,-0.001727081
-1.071999,-0.001731066
-1.072999,-0.001733519
-1.073999,-0.001740263
-1.074999,-0.001741796
-1.075999,-0.001744861
-1.076999,-0.001750379
-1.077999,-0.001752525
-1.078999,-0.00175559
-1.079999,-0.001760495
-1.080999,-0.00176448
-1.081999,-0.001767546
-1.082999,-0.00177337
-1.083999,-0.001775209
-1.084999,-0.001778275
-1.085999,-0.001783486
-1.086999,-0.001785019
-1.087999,-0.001791457
-1.088999,-0.001794828
-1.089999,-0.001797894
-1.090999,-0.001802492
-1.091999,-0.001804332
-1.092999,-0.001809236
-1.093999,-0.001812915
-1.094999,-0.001815367
-1.095999,-0.001820579
-1.096999,-0.001825483
-1.097999,-0.001826097
-1.098999,-0.001832227
-1.099999,-0.00183468
-1.100999,-0.001838972
-1.101999,-0.001845102
-1.102999,-0.001846942
-1.103999,-0.001852153
-1.104999,-0.001857977
-1.105999,-0.001859204
-1.106999,-0.001864415
-1.107999,-0.001868707
-1.108999,-0.001870546
-1.109999,-0.001876064
-1.110999,-0.001880662
-1.111999,-0.001882501
-1.112999,-0.001889245
-1.113999,-0.001892004
-1.114999,-0.00189507
-1.115999,-0.001900281
-1.116999,-0.001904879
-1.117999,-0.001909171
-1.118999,-0.00191193
-1.119999,-0.001917448
-1.120999,-0.001921127
-1.121999,-0.001924805
-1.122999,-0.001929097
-1.123999,-0.001933388
-1.124999,-0.001937374
-1.125999,-0.001941665
-1.126999,-0.001946877
-1.127999,-0.001949022
-1.128999,-0.00195362
-1.129999,-0.001959751
-1.130999,-0.001960978
-1.131999,-0.001965882
-1.132999,-0.001972013
-1.133999,-0.001974159
-1.134999,-0.001979677
-1.135999,-0.001983969
-1.136999,-0.001986421
-1.137999,-0.001992246
-1.138999,-0.001996537
-1.139999,-0.001999909
-1.140999,-0.00200604
-1.141999,-0.002010025
-1.142999,-0.002011252
-1.143999,-0.002019835
-1.144999,-0.002021368
-1.145999,-0.002025966
-1.146999,-0.00203271
-1.147999,-0.002035162
-1.148999,-0.002039148
-1.149999,-0.002044359
-1.150999,-0.002047731
-1.151999,-0.002050796
-1.152999,-0.002058154
-1.153999,-0.002060299
-1.154999,-0.002065204
-1.155999,-0.002071335
-1.156999,-0.002071948
-1.157999,-0.002078999
-1.158999,-0.002082677
-1.159999,-0.002086049
-1.160999,-0.002093407
-1.161999,-0.002094019
-1.162999,-0.002098618
-1.163999,-0.002104442
-1.164999,-0.002105975
-1.165999,-0.002111186
-1.166999,-0.002115478
-1.167999,-0.00211793
-1.168999,-0.002123755
-1.169999,-0.002125901
-1.170999,-0.002127433
-1.171999,-0.002136017
-1.172999,-0.002137243
-1.173999,-0.002140615
-1.174999,-0.002147052
-1.175999,-0.002147052
-1.176999,-0.002151957
-1.177999,-0.002156862
-1.178999,-0.002158701
-1.179999,-0.002163913
-1.180999,-0.002169124
-1.181999,-0.00217035
-1.182999,-0.002176787
-1.183999,-0.002180466
-1.184999,-0.002184451
-1.185999,-0.002191808
-1.186999,-0.002194874
-1.187999,-0.002199779
-1.188999,-0.002207442
-1.189999,-0.002210814
-1.190999,-0.002216639
-1.191999,-0.002223996
-1.192999,-0.002228594
-1.193999,-0.002234419
-1.194999,-0.002243615
-1.195999,-0.002247907
-1.196999,-0.002254651
-1.197999,-0.002263541
-1.198999,-0.002268139
-1.199999,-0.002276416
-1.200999,-0.002284999
-1.201999,-0.002290517
-1.202999,-0.002299713
-1.203999,-0.002308603
-1.204999,-0.002313815
-1.205999,-0.002322398
-1.206999,-0.002331901
-1.207999,-0.002338338
-1.208999,-0.002349987
-1.209999,-0.002357651
-1.210999,-0.002365008
-1.211999,-0.002376351
-1.212999,-0.002382788
-1.213999,-0.002392597
-1.214999,-0.00240486
-1.215999,-0.002411297
-1.216999,-0.002423559
-1.217999,-0.002432449
-1.218999,-0.002441952
-1.219999,-0.00245452
-1.220999,-0.002462797
-1.221999,-0.002475059
-1.222999,-0.002487934
-1.223999,-0.002495291
-1.224999,-0.002509086
-1.225999,-0.002520735
-1.226999,-0.002530851
-1.227999,-0.002545565
-1.228999,-0.002557827
-1.229999,-0.002569476
-1.230999,-0.002582964
-1.231999,-0.002594306
-1.232999,-0.002607488
-1.233999,-0.00262067
-1.234999,-0.002633238
-1.235999,-0.002650711
-1.236999,-0.002661441
-1.237999,-0.002676155
-1.238999,-0.002693015
-1.239999,-0.002704357
-1.240999,-0.002719685
-1.241999,-0.002738077
-1.242999,-0.002750339
-1.243999,-0.002766586
-1.244999,-0.002784366
-1.245999,-0.002800307
-1.246999,-0.002817167
-1.247999,-0.002831575
-1.248999,-0.002849048
-1.249999,-0.002866521
-1.250999,-0.002883994
-1.251999,-0.002901468
-1.252999,-0.002921087
-1.253999,-0.002938254
-1.254999,-0.002956646
-1.255999,-0.002976266
-1.256999,-0.002996191
-1.257999,-0.003015197
-1.258999,-0.003000991
-1.259999,-0.003019383
-1.260999,-0.003037777
-1.261999,-0.003059235
-1.262999,-0.003080693
-1.263999,-0.003102152
-1.264999,-0.003126675
-1.265999,-0.003145068
-1.266999,-0.003169592
-1.267999,-0.003194116
-1.268999,-0.003212509
-1.269999,-0.003240098
-1.270999,-0.003264622
-1.271999,-0.003286081
-1.272999,-0.00331367
-1.273999,-0.003338194
-1.274999,-0.003359652
-1.275999,-0.003390307
-1.276999,-0.003417896
-1.277999,-0.003439354
-1.278999,-0.003466944
-1.279999,-0.003494533
-1.280999,-0.003522123
-1.281999,-0.003549712
-1.282999,-0.003577302
-1.283999,-0.003604891
-1.284999,-0.003635545
-1.285999,-0.0036662
-1.286999,-0.00369379
-1.287999,-0.00372751
-1.288999,-0.003755099
-1.289999,-0.00378882
-1.290999,-0.003819474
-1.291999,-0.003850129
-1.292999,-0.00388385
-1.293999,-0.003914505
-1.294999,-0.003948225
-1.295999,-0.003985011
-1.296999,-0.004015665
-1.297999,-0.004055517
-1.298999,-0.004086172
-1.299999,-0.004126023
-1.300999,-0.004162808
-1.301999,-0.004199594
-1.302999,-0.00423638
-1.303999,-0.004273166
-1.304999,-0.004313017
-1.305999,-0.004352869
-1.306999,-0.004395785
-1.307999,-0.004432571
-1.308999,-0.004475488
-1.309999,-0.00452147
-1.310999,-0.004558256
-1.311999,-0.004610369
-1.312999,-0.004653286
-1.313999,-0.004699268
-1.314999,-0.004748316
-1.315999,-0.004794298
-1.316999,-0.004843346
-1.317999,-0.004895459
-1.318999,-0.004944507
-1.319999,-0.004999685
-1.320999,-0.005051799
-1.321999,-0.005103912
-1.322999,-0.005162156
-1.323999,-0.005217335
-1.324999,-0.005275579
-1.325999,-0.005333823
-1.326999,-0.005395133
-1.327999,-0.005453377
-1.328999,-0.005520817
-1.329999,-0.005582127
-1.330999,-0.005652633
-1.331999,-0.005720073
-1.332999,-0.005787514
-1.333999,-0.005858021
-1.334999,-0.005928526
-1.335999,-0.006002098
-1.336999,-0.006078735
-1.337999,-0.006155372
-1.338999,-0.006235075
-1.339999,-0.006314777
-1.340999,-0.006397545
-1.341999,-0.006483379
-1.342999,-0.006569212
-1.343999,-0.006655046
-1.344999,-0.006750076
-1.345999,-0.006838975
-1.346999,-0.006934005
-1.347999,-0.007035166
-1.348999,-0.007130195
-1.349999,-0.007231356
-1.350999,-0.007338648
-1.351999,-0.007439809
-1.352999,-0.007547101
-1.353999,-0.007660524
-1.354999,-0.007767816
-1.355999,-0.00788737
-1.356999,-0.008003858
-1.357999,-0.008123412
-1.358999,-0.008246032
-1.359999,-0.008371716
-1.360999,-0.008500466
-1.361999,-0.008632282
-1.362999,-0.008761032
-1.363999,-0.008902045
-1.364999,-0.009039992
-1.365999,-0.009177938
-1.366999,-0.009325081
-1.367999,-0.009472225
-1.368999,-0.009619367
-1.369999,-0.009772642
-1.370999,-0.009932047
-1.371999,-0.01008839
-1.372999,-0.01025086
-1.373999,-0.01041946
-1.374999,-0.01058193
-1.375999,-0.01075053
-1.376999,-0.01092526
-1.377999,-0.01109693
-1.378999,-0.01127779
-1.379999,-0.01146172
-1.380999,-0.01164259
-1.381999,-0.01183571
-1.382999,-0.01202577
-1.383999,-0.01221277
-1.384999,-0.01241815
-1.385999,-0.01261128
-1.386999,-0.01281667
-1.387999,-0.01302512
-1.388999,-0.01323051
-1.389999,-0.01344202
-1.390999,-0.01365967
-1.391999,-0.01387119
-1.392999,-0.01409804
-1.393999,-0.01431875
-1.394999,-0.01454866
-1.395999,-0.01477858
-1.396999,-0.01500542
-1.397999,-0.01524146
-1.398999,-0.01548364
-1.399999,-0.01571661
-1.400999,-0.01596185
-1.401999,-0.01620402
-1.402999,-0.01644926
-1.403999,-0.0167037
-1.404999,-0.016952
-1.405999,-0.01720644
-1.406999,-0.01747007
-1.407999,-0.01772144
-1.408999,-0.0179912
-1.409999,-0.01825483
-1.410999,-0.0185154
-1.411999,-0.01878823
-1.412999,-0.01905799
-1.413999,-0.01933388
-1.414999,-0.01961284
-1.415999,-0.01988567
-1.416999,-0.02017076
-1.417999,-0.02045585
-1.418999,-0.02073787
-1.419999,-0.02102909
-1.420999,-0.02131725
-1.421999,-0.0216054
-1.422999,-0.02190276
-1.423999,-0.02220011
-1.424999,-0.02248826
-1.425999,-0.02279788
-1.426999,-0.02309829
-1.427999,-0.02340178
-1.428999,-0.02371139
-1.429999,-0.02401794
-1.430999,-0.02432755
-1.431999,-0.0246433
-1.432999,-0.02495904
-1.433999,-0.02527172
-1.434999,-0.0255936
-1.435999,-0.02590934
-1.436999,-0.02622202
-1.437999,-0.02654696
-1.438999,-0.02686271
-1.439999,-0.02718152
-1.440999,-0.02751565
-1.441999,-0.02783753
-1.442999,-0.02816554
-1.443999,-0.02849354
-1.444999,-0.02881848
-1.445999,-0.02916182
-1.446999,-0.02949596
-1.447999,-0.02982703
-1.448999,-0.03017649
-1.449999,-0.03059235
-1.450999,-0.03092955
-1.451999,-0.03126676
-1.452999,-0.03163461
-1.453999,-0.03197182
-1.454999,-0.03233967
-1.455999,-0.03267688
-1.456999,-0.03304474
-1.457999,-0.03338194
-1.458999,-0.03371914
-1.459999,-0.034087
-1.460999,-0.0344242
-1.461999,-0.03479206
-1.462999,-0.03515992
-1.463999,-0.03552778
-1.464999,-0.03589563
-1.465999,-0.03626349
-1.466999,-0.03663135
-1.467999,-0.03699921
-1.468999,-0.03736707
-1.469999,-0.03770427
-1.470999,-0.03810278
-1.471999,-0.03847064
-1.472999,-0.0388385
-1.473999,-0.03920636
-1.474999,-0.03957421
-1.475999,-0.03994207
-1.476999,-0.04030993
-1.477999,-0.04070844
-1.478999,-0.0410763
-1.479999,-0.04144416
-1.480999,-0.04181201
-1.481999,-0.04221053
-1.482999,-0.04260904
-1.483999,-0.0429769
-1.484999,-0.04334476
-1.485999,-0.04374327
-1.486999,-0.04411113
-1.487999,-0.04447899
-1.488999,-0.0448775
-1.489999,-0.04524536
-1.490999,-0.04564387
-1.491999,-0.04604238
-1.492999,-0.04641024
-1.493999,-0.04680875
-1.494999,-0.04720726
-1.495999,-0.04757512
-1.496999,-0.04797364
-1.497999,-0.04837215
-1.498999,-0.04877066
-1.499999,-0.04889328
-1.499001,-0.04858673
-1.498001,-0.04824953
-1.497001,-0.04791233
-1.496001,-0.04757512
-1.495001,-0.04723792
-1.494001,-0.04690072
-1.493001,-0.04656351
-1.492001,-0.04622631
-1.491001,-0.04585845
-1.490001,-0.04552125
-1.489001,-0.04518405
-1.488001,-0.04481619
-1.487001,-0.04447899
-1.486001,-0.04414178
-1.485001,-0.04377393
-1.484001,-0.04343672
-1.483001,-0.04306886
-1.482001,-0.04273166
-1.481001,-0.0423638
-1.480001,-0.0420266
-1.479001,-0.04165874
-1.478001,-0.04132154
-1.477001,-0.04095368
-1.476001,-0.04061648
-1.475001,-0.04024862
-1.474001,-0.03991142
-1.473001,-0.03954356
-1.472001,-0.03920636
-1.471001,-0.0388385
-1.470001,-0.03850129
-1.469001,-0.03816409
-1.468001,-0.03782689
-1.467001,-0.03748969
-1.466001,-0.03712183
-1.465001,-0.03678463
-1.464001,-0.03644742
-1.463001,-0.03611022
-1.462001,-0.03574236
-1.461001,-0.03540516
-1.460001,-0.03506796
-1.459001,-0.03473075
-1.458001,-0.03439355
-1.457001,-0.03405635
-1.456001,-0.03371914
-1.455001,-0.03338194
-1.454001,-0.03304474
-1.453001,-0.03270753
-1.452001,-0.03237033
-1.451001,-0.03206378
-1.450001,-0.03172658
-1.449001,-0.03138937
-1.448001,-0.03105217
-1.447001,-0.03074562
-1.446001,-0.03040842
-1.445001,-0.03010187
-1.444001,-0.02976467
-1.443001,-0.02945812
-1.442001,-0.02912092
-1.441001,-0.02881437
-1.440001,-0.02850782
-1.439001,-0.02820127
-1.438001,-0.02786407
-1.437001,-0.02755752
-1.436001,-0.02725097
-1.435001,-0.02694443
-1.434001,-0.02663788
-1.433001,-0.02633133
-1.432001,-0.02602478
-1.431001,-0.02571823
-1.430001,-0.02541168
-1.429001,-0.02513579
-1.428001,-0.02479859
-1.427001,-0.02449204
-1.426001,-0.02421615
-1.425001,-0.0239096
-1.424001,-0.0236337
-1.423001,-0.02332716
-1.422001,-0.02305126
-1.421001,-0.02274471
-1.420001,-0.02246882
-1.419001,-0.02219293
-1.418001,-0.02188638
-1.417001,-0.02161049
-1.416001,-0.02136525
-1.415001,-0.0210587
-1.414001,-0.0207828
-1.413001,-0.02053757
-1.412001,-0.02026167
-1.411001,-0.01998578
-1.410001,-0.01970989
-1.409001,-0.01946465
-1.408001,-0.01918875
-1.407001,-0.01894352
-1.406001,-0.01866762
-1.405001,-0.01842238
-1.404001,-0.01817714
-1.403001,-0.01793191
-1.402001,-0.01765601
-1.401001,-0.01741077
-1.400001,-0.01719619
-1.399001,-0.0169203
-1.398001,-0.01670571
-1.397001,-0.01646047
-1.396001,-0.01621523
-1.395001,-0.01597
-1.394001,-0.01586989
-1.393001,-0.01564304
-1.392001,-0.01542233
-1.391001,-0.01520468
-1.390001,-0.0149809
-1.389001,-0.01477244
-1.388001,-0.01455479
-1.387001,-0.01434634
-1.386001,-0.01413789
-1.385001,-0.01392944
-1.384001,-0.01372712
-1.383001,-0.01352786
-1.382001,-0.01332554
-1.381001,-0.01313241
-1.380001,-0.01293622
-1.379001,-0.01274616
-1.378001,-0.0125561
-1.377001,-0.01237217
-1.376001,-0.01218824
-1.375001,-0.01200738
-1.374001,-0.01182652
-1.373001,-0.01165485
-1.372001,-0.01148012
-1.371001,-0.01130232
-1.370001,-0.01113985
-1.369001,-0.01097431
-1.368001,-0.01080571
-1.367001,-0.01064937
-1.366001,-0.01048997
-1.365001,-0.01033669
-1.364001,-0.01018035
-1.363001,-0.01003014
-1.362001,-0.009886065
-1.361001,-0.009738921
-1.360001,-0.009594844
-1.359001,-0.009456896
-1.358001,-0.009315885
-1.357001,-0.009181003
-1.356001,-0.009049187
-1.355001,-0.008914307
-1.354001,-0.008788622
-1.353001,-0.008659871
-1.352001,-0.008534187
-1.351001,-0.008414633
-1.350001,-0.008292013
-1.349001,-0.008172459
-1.348001,-0.008059037
-1.347001,-0.007945614
-1.346001,-0.007835257
-1.345001,-0.007727965
-1.344001,-0.007617608
-1.343001,-0.007513381
-1.342001,-0.00741222
-1.341001,-0.007311059
-1.340001,-0.007209898
-1.339001,-0.007114868
-1.338001,-0.007016772
-1.337001,-0.006924808
-1.336001,-0.00683591
-1.335001,-0.006743945
-1.334001,-0.006655046
-1.333001,-0.006572278
-1.332001,-0.006483379
-1.331001,-0.006400611
-1.330001,-0.006317842
-1.329001,-0.006235075
-1.328001,-0.006158438
-1.327001,-0.0060818
-1.326001,-0.006005164
-1.325001,-0.005937723
-1.324001,-0.005861086
-1.323001,-0.00579058
-1.322001,-0.005726204
-1.321001,-0.005652633
-1.320001,-0.005588258
-1.319001,-0.005523883
-1.318001,-0.005456442
-1.317001,-0.005398198
-1.316001,-0.005336888
-1.315001,-0.005272513
-1.314001,-0.005217335
-1.313001,-0.005159091
-1.312001,-0.005100846
-1.311001,-0.005045668
-1.310001,-0.004990489
-1.309001,-0.00493531
-1.308001,-0.004883197
-1.307001,-0.004834149
-1.306001,-0.004782036
-1.305001,-0.004732988
-1.304001,-0.004683941
-1.303001,-0.004637958
-1.302001,-0.004591976
-1.301001,-0.004545994
-1.300001,-0.004500012
-1.299001,-0.00446016
-1.298001,-0.004414178
-1.297001,-0.004371261
-1.296001,-0.004334475
-1.295001,-0.004288493
-1.294001,-0.004251707
-1.293001,-0.004214922
-1.292001,-0.004172005
-1.291001,-0.004138284
-1.290001,-0.004098434
-1.289001,-0.004061648
-1.288001,-0.004027927
-1.287001,-0.003991141
-1.286001,-0.003954356
-1.285001,-0.003923701
-1.284001,-0.00388998
-1.283001,-0.00385626
-1.282001,-0.003825605
-1.281001,-0.003794951
-1.280001,-0.00376123
-1.279001,-0.003733641
-1.278001,-0.003702986
-1.277001,-0.003672331
-1.276001,-0.003644742
-1.275001,-0.003614087
-1.274001,-0.003586498
-1.273001,-0.003561974
-1.272001,-0.003531319
-1.271001,-0.00350373
-1.270001,-0.003479206
-1.269001,-0.003454682
-1.268001,-0.003427093
-1.267001,-0.003405634
-1.266001,-0.003378045
-1.265001,-0.003350456
-1.264001,-0.003328997
-1.263001,-0.003304473
-1.262001,-0.00327995
-1.261001,-0.003261557
-1.260001,-0.003233967
-1.259001,-0.003212509
-1.258001,-0.003191051
-1.257001,-0.003169592
-1.256001,-0.003148134
-1.255001,-0.003126675
-1.254001,-0.003105217
-1.253001,-0.003086824
-1.252001,-0.003065366
-1.251001,-0.003046973
-1.250001,-0.003025514
-1.249001,-0.003007122
-1.248001,-0.002988729
-1.247001,-0.00296727
-1.246001,-0.002951943
-1.245001,-0.00293355
-1.244001,-0.002912092
-1.243001,-0.002896764
-1.242001,-0.002878371
-1.241001,-0.002859978
-1.240001,-0.002847716
-1.239001,-0.002826258
-1.238001,-0.002810931
-1.237001,-0.002795603
-1.236001,-0.00277721
-1.235001,-0.002761883
-1.234001,-0.002746556
-1.233001,-0.002728163
-1.232001,-0.002715901
-1.231001,-0.002700574
-1.230001,-0.002679115
-1.229001,-0.002669919
-1.228001,-0.002651526
-1.227001,-0.002639264
-1.226001,-0.002627002
-1.225001,-0.002611674
-1.224001,-0.002599412
-1.223001,-0.002584085
-1.222001,-0.002568757
-1.221001,-0.002556496
-1.220001,-0.002541168
-1.219001,-0.002528906
-1.218001,-0.002516645
-1.217001,-0.002501317
-1.216001,-0.00248599
-1.215001,-0.002476793
-1.214001,-0.002461466
-1.213001,-0.002449204
-1.212001,-0.002440007
-1.211001,-0.00242468
-1.210001,-0.002412418
-1.209001,-0.002403222
-1.208001,-0.002387894
-1.207001,-0.002375632
-1.206001,-0.00236337
-1.205001,-0.002354174
-1.204001,-0.002344977
-1.203001,-0.00232965
-1.202001,-0.002320454
-1.201001,-0.002311257
-1.200001,-0.002298995
-1.199001,-0.002289799
-1.198001,-0.002277537
-1.197001,-0.00226834
-1.196001,-0.002259144
-1.195001,-0.002249948
-1.194001,-0.00223462
-1.193001,-0.002228489
-1.192001,-0.002219293
-1.191001,-0.002207031
-1.190001,-0.0022009
-1.189001,-0.002188638
-1.188001,-0.002179441
-1.187001,-0.002170245
-1.186001,-0.002157983
-1.185001,-0.002151852
-1.184001,-0.002142655
-1.183001,-0.002133459
-1.182001,-0.002124263
-1.181001,-0.002115066
-1.180001,-0.00210587
-1.179001,-0.002099739
-1.178001,-0.002087477
-1.177001,-0.00207828
-1.176001,-0.002072149
-1.175001,-0.002062953
-1.174001,-0.002053756
-1.173001,-0.002047626
-1.172001,-0.002038429
-1.171001,-0.002029233
-1.170001,-0.002023102
-1.169001,-0.00201084
-1.168001,-0.002001643
-1.167001,-0.001998578
-1.166001,-0.001989381
-1.165001,-0.001980185
-1.164001,-0.00197712
-1.163001,-0.001967923
-1.162001,-0.001958727
-1.161001,-0.00194953
-1.160001,-0.001943399
-1.159001,-0.001934203
-1.158001,-0.001928072
-1.157001,-0.001921941
-1.156001,-0.001912744
-1.155001,-0.001906613
-1.154001,-0.001900482
-1.153001,-0.001891286
-1.152001,-0.001885155
-1.151001,-0.001879024
-1.150001,-0.001869828
-1.149001,-0.001863697
-1.148001,-0.001857566
-1.147001,-0.001848369
-1.146001,-0.001845304
-1.145001,-0.001836107
-1.144001,-0.001829976
-1.143001,-0.001826911
-1.142001,-0.001817714
-1.141001,-0.001811583
-1.140001,-0.001805453
-1.139001,-0.001796256
-1.138001,-0.00179319
-1.137001,-0.00178706
-1.136001,-0.001777863
-1.135001,-0.001771732
-1.134001,-0.001765601
-1.133001,-0.00175947
-1.132001,-0.001756405
-1.131001,-0.001750274
-1.130001,-0.001741077
-1.129001,-0.001738012
-1.128001,-0.001728815
-1.127001,-0.001722684
-1.126001,-0.001719619
-1.125001,-0.001713488
-1.124001,-0.001704292
-1.123001,-0.001701226
-1.122001,-0.001695095
-1.121001,-0.001688964
-1.120001,-0.001685899
-1.119001,-0.001679768
-1.118001,-0.001673637
-1.117001,-0.001667506
-1.116001,-0.001661375
-1.115001,-0.001655244
-1.114001,-0.001652178
-1.113001,-0.001646047
-1.112001,-0.001636851
-1.111001,-0.001636851
-1.110001,-0.00163072
-1.109001,-0.001624589
-1.108001,-0.001618458
-1.107001,-0.001650751
-1.106001,-0.001645233
-1.105001,-0.001639715
-1.104001,-0.00163573
-1.103001,-0.001631438
-1.102001,-0.001625001
-1.101001,-0.001621322
-1.100001,-0.001613659
-1.099001,-0.001609673
-1.098001,-0.001606914
-1.097001,-0.00160017
-1.096001,-0.001596185
-1.095001,-0.001593733
-1.094001,-0.001585149
-1.093001,-0.001582697
-1.092001,-0.001579019
-1.091001,-0.001573501
-1.090001,-0.001570435
-1.089001,-0.001564917
-1.088001,-0.001559093
-1.087001,-0.001556027
-1.086001,-0.001550509
-1.085001,-0.001547138
-1.084001,-0.001542539
-1.083001,-0.001537941
-1.082001,-0.001533036
-1.081001,-0.001529971
-1.080001,-0.001525679
-1.079001,-0.001521387
-1.078001,-0.001518322
-1.077001,-0.001512804
-1.076001,-0.001509126
-1.075001,-0.001507286
-1.074001,-0.001502075
-1.073001,-0.00149809
-1.072001,-0.001495024
-1.071001,-0.001490426
-1.070001,-0.001487361
-1.069001,-0.001484295
-1.068001,-0.00147939
-1.067001,-0.001476631
-1.066001,-0.001472646
-1.065001,-0.001468355
-1.064001,-0.001466822
-1.063001,-0.00146253
-1.062001,-0.001456706
-1.061001,-0.001455786
-1.060001,-0.001450268
-1.059001,-0.001447203
-1.058001,-0.001445364
-1.057001,-0.001439846
-1.056001,-0.001436167
-1.055001,-0.001432489
-1.054001,-0.00142881
-1.053001,-0.001426051
-1.052001,-0.001421453
-1.051001,-0.001419
-1.050001,-0.001415935
-1.049001,-0.001409804
-1.048001,-0.001407658
-1.047001,-0.001405512
-1.046001,-0.001399688
-1.045001,-0.001396929
-1.044001,-0.001392944
-1.043001,-0.001389572
-1.042001,-0.001388345
-1.041001,-0.001381295
-1.040001,-0.001381601
-1.039001,-0.001376697
-1.038001,-0.001371792
-1.037001,-0.001369953
-1.036001,-0.001365967
-1.035001,-0.001361369
-1.034001,-0.00136045
-1.033001,-0.001354932
-1.032001,-0.001351253
-1.031001,-0.001348188
-1.030001,-0.00134359
-1.029001,-0.00134267
-1.028001,-0.001337459
-1.027001,-0.001333167
-1.026001,-0.001331634
-1.025001,-0.001327036
-1.024001,-0.001321518
-1.023001,-0.001320905
-1.022001,-0.001314467
-1.021001,-0.001312628
-1.020001,-0.001311095
-1.019001,-0.001304045
-1.018001,-0.001303738
-1.017001,-0.00130006
-1.016001,-0.001294542
-1.015001,-0.001293009
-1.014001,-0.001288717
-1.013001,-0.001283506
-1.012001,-0.00128228
-1.011001,-0.001276762
-1.010001,-0.001273083
-1.009001,-0.001270631
-1.008001,-0.001266339
-1.007001,-0.001261435
-1.006001,-0.001259902
-1.005001,-0.001254997
-1.004001,-0.001250399
-1.003001,-0.001248866
-1.002001,-0.001243348
-1.001001,-0.001240283
-1.000001,-0.00123783
-0.9990011,-0.001232313
-0.9980011,-0.001229247
-0.9970011,-0.001225875
-0.9960011,-0.001220664
-0.9950011,-0.001218518
-0.9940011,-0.001213613
-0.9930011,-0.001211161
-0.9920011,-0.001209015
-0.9910011,-0.001202577
-0.9900011,-0.001200125
-0.9890011,-0.001197366
-0.9880011,-0.001192768
-0.9870011,-0.001189089
-0.9860011,-0.00118633
-0.9850011,-0.001181732
-0.9840011,-0.001178666
-0.9830011,-0.001174681
-0.9820011,-0.001171309
-0.9810011,-0.001168244
-0.9800011,-0.001163033
-0.9790011,-0.001159661
-0.9780011,-0.001156902
-0.9770011,-0.001152303
-0.9760011,-0.001149238
-0.9750011,-0.001145866
-0.9740011,-0.001140961
-0.9730011,-0.001138509
-0.9720011,-0.001134217
-0.9710011,-0.001130232
-0.9700011,-0.001128699
-0.9690011,-0.001123181
-0.9680011,-0.001121035
-0.9670011,-0.001117357
-0.9660011,-0.001112452
-0.9650011,-0.001109693
-0.9640011,-0.001106015
-0.9630011,-0.00110111
-0.9620011,-0.001099271
-0.9610011,-0.001094059
-0.9600011,-0.001090074
-0.9590011,-0.001087622
-0.9580011,-0.00108333
-0.9570011,-0.001079038
-0.9560011,-0.001075666
-0.9550011,-0.001071988
-0.9540011,-0.001067083
-0.9530011,-0.001064324
-0.9520011,-0.001060339
-0.9510011,-0.001055741
-0.9500011,-0.001052982
-0.9490011,-0.001048077
-0.9480011,-0.001043785
-0.9470011,-0.001041026
-0.9460011,-0.001036735
-0.9450011,-0.001032443
-0.9440011,-0.001029377
-0.9430011,-0.001024166
-0.9420011,-0.001020794
-0.9410011,-0.001017422
-0.9400011,-0.001012211
-0.9390011,-0.001008839
-0.9380011,-0.001005467
-0.9370011,-0.001000255
-0.9360011,-0.0009965767
-0.9350011,-0.0009938178
-0.9340011,-0.0009876869
-0.9330011,-0.0009852345
-0.9320011,-0.0009824756
-0.9310011,-0.0009769576
-0.9300011,-0.0009720529
-0.9290011,-0.0009696006
-0.9280011,-0.0009650023
-0.9270011,-0.0009607106
-0.9260011,-0.000957032
-0.9250011,-0.0009533535
-0.9240011,-0.0009484487
-0.9230011,-0.0009450766
-0.9220011,-0.000940785
-0.9210011,-0.0009358802
-0.9200011,-0.0009337344
-0.9190011,-0.0009291361
-0.9180011,-0.0009242314
-0.9170011,-0.000921779
-0.9160011,-0.0009177938
-0.9150011,-0.0009128891
-0.9140011,-0.0009098236
-0.9130011,-0.0009055319
-0.9120011,-0.0009018534
-0.9110011,-0.0008987879
-0.9100011,-0.0008941896
-0.9090011,-0.0008895915
-0.9080011,-0.000887139
-0.9070011,-0.0008825408
-0.9060011,-0.0008776361
-0.9050011,-0.0008751836
-0.9040011,-0.0008702789
-0.9030011,-0.0008678265
-0.9020011,-0.0008641479
-0.9010011,-0.0008601628
-0.9000011,-0.0008574039
-0.8990011,-0.0008534187
-0.8980011,-0.0008503532
-0.8970011,-0.0008472878
-0.8960011,-0.0008429961
-0.8950011,-0.0008405437
-0.8940011,-0.0008371716
-0.8930011,-0.00083288
-0.8920011,-0.0008307341
-0.8910011,-0.0008270555
-0.8900011,-0.000823377
-0.8890011,-0.0008212312
-0.8880011,-0.0008169395
-0.8870011,-0.000813874
-0.8860011,-0.0008117282
-0.8850011,-0.0008077431
-0.8840011,-0.0008037579
-0.8830011,-0.0008013055
-0.8820011,-0.000797627
-0.8810011,-0.0007936418
-0.8800011,-0.000791496
-0.8790011,-0.0007865912
-0.8780011,-0.0007838323
-0.8770011,-0.000781993
-0.8760011,-0.0007767816
-0.8750011,-0.0007752489
-0.8740011,-0.0007712637
-0.8730011,-0.0007669721
-0.8720011,-0.0007651328
-0.8710011,-0.0007608412
-0.8700011,-0.0007577756
-0.8690011,-0.0007550167
-0.8680011,-0.000750112
-0.8670011,-0.0007476595
-0.8660011,-0.0007458202
-0.8650011,-0.000740609
-0.8640011,-0.0007381566
-0.8630011,-0.0007347845
-0.8620011,-0.000731106
-0.8610011,-0.0007292667
-0.8600011,-0.0007243619
-0.8590011,-0.0007231357
-0.8580011,-0.0007194571
-0.8570011,-0.000715472
-0.8560011,-0.0007130196
-0.8550011,-0.0007096475
-0.8540011,-0.0007056625
-0.8530011,-0.0007038232
-0.8520011,-0.0006992249
-0.8510011,-0.0006958529
-0.8500011,-0.0006934005
-0.8490011,-0.0006891088
-0.8480011,-0.0006860433
-0.8470011,-0.0006829779
-0.8460011,-0.0006783796
-0.8450011,-0.0006759273
-0.8440011,-0.0006734749
-0.8430011,-0.0006697963
-0.8420011,-0.0006658112
-0.8410011,-0.0006633588
-0.8400011,-0.0006590671
-0.8390011,-0.0006553886
-0.8380011,-0.00065171
-0.8370011,-0.000648951
-0.8360011,-0.0006452725
-0.8350011,-0.0006419004
-0.8340011,-0.0006382219
-0.8330011,-0.0006342367
-0.8320011,-0.0006305581
-0.8310011,-0.0006271861
-0.8300011,-0.0006238141
-0.8290011,-0.0006195224
-0.8280011,-0.0006161503
-0.8270011,-0.0006127784
-0.8260011,-0.0006081801
-0.8250011,-0.0006054211
-0.8240011,-0.0006023557
-0.8230011,-0.0005977575
-0.8220011,-0.0005940789
-0.8210011,-0.0005913199
-0.8200011,-0.0005864152
-0.8190011,-0.0005815104
-0.8180011,-0.000579058
-0.8170011,-0.0005744598
-0.8160011,-0.0005707812
-0.8150011,-0.0005671026
-0.8140011,-0.0005634241
-0.8130011,-0.0005585193
-0.8120011,-0.0005554538
-0.8110011,-0.0005511622
-0.8100011,-0.0005474835
-0.8090011,-0.0005447246
-0.8080011,-0.0005401264
-0.8070011,-0.0005361412
-0.8060011,-0.0005321561
-0.8050011,-0.000528171
-0.8040011,-0.0005244924
-0.8030011,-0.000521427
-0.8020011,-0.0005171353
-0.8010011,-0.0005134566
