EXPID. 1037
[电化学]: CV : 0 >> 0.7 >> 0 >> 0(V) @ 0.01(V/s) X 10(Seg)
起始电位 (V),0
上限电位 (V),0.7
下限电位 (V),0
终止电位 (V),0
扫速 (V/s),0.01
电解液 信息:
KOH,1
0.001,4.999919E-06
0.002,5.557837E-06
0.003,5.934891E-06
0.004,6.321141E-06
0.005,6.551053E-06
0.006,6.842274E-06
0.007,7.093643E-06
0.008,7.323555E-06
0.009,7.538139E-06
0.01,7.786442E-06
0.011,7.924389E-06
0.012,8.148169E-06
0.013,8.316771E-06
0.014,8.50683E-06
0.015,8.706087E-06
0.016,8.985045E-06
0.017,9.239481E-06
0.018,9.533767E-06
0.019,9.791268E-06
0.02,9.969066E-06
0.021,1.012234E-05
0.022,1.033079E-05
0.023,1.055151E-05
0.024,1.071398E-05
0.025,1.084273E-05
0.026,1.105731E-05
0.027,1.11738E-05
0.028,1.147422E-05
0.029,1.165202E-05
0.03,1.190338E-05
0.031,1.217315E-05
0.032,1.234788E-05
0.033,1.25502E-05
0.034,1.274333E-05
0.035,1.285368E-05
0.036,1.305907E-05
0.037,1.324913E-05
0.038,1.337175E-05
0.039,1.350357E-05
0.04,1.370589E-05
0.041,1.387756E-05
0.042,1.408907E-05
0.043,1.42914E-05
0.044,1.450904E-05
0.045,1.473589E-05
0.046,1.489836E-05
0.047,1.511294E-05
0.048,1.524783E-05
0.049,1.536125E-05
0.05,1.559116E-05
0.051,1.570765E-05
0.052,1.590997E-05
0.053,1.601113E-05
0.054,1.610003E-05
0.055,1.630848E-05
0.056,1.643723E-05
0.057,1.656598E-05
0.058,1.680203E-05
0.059,1.693691E-05
0.06,1.719747E-05
0.061,1.739979E-05
0.062,1.754387E-05
0.063,1.776459E-05
0.064,1.789027E-05
0.065,1.805581E-05
0.066,1.817843E-05
0.067,1.827959E-05
0.068,1.849724E-05
0.069,1.858307E-05
0.07,1.872408E-05
0.071,1.889882E-05
0.072,1.907355E-05
0.073,1.929733E-05
0.074,1.949045E-05
0.075,1.971117E-05
0.076,1.998093E-05
0.077,2.004224E-05
0.078,2.02323E-05
0.079,2.045915E-05
0.08,2.056951E-05
0.081,2.070132E-05
0.082,2.090364E-05
0.083,2.100174E-05
0.084,2.120099E-05
0.085,2.140945E-05
0.086,2.159031E-05
0.087,2.18049E-05
0.088,2.199189E-05
0.089,2.22126E-05
0.09,2.243025E-05
0.091,2.261725E-05
0.092,2.287168E-05
0.093,2.310772E-05
0.094,2.332537E-05
0.095,2.356448E-05
0.096,2.418782E-05
0.097,2.43411E-05
0.098,2.455568E-05
0.099,2.470896E-05
0.1,2.498485E-05
0.101,2.519943E-05
0.102,2.547533E-05
0.103,2.568991E-05
0.104,2.587384E-05
0.105,2.608842E-05
0.106,2.639497E-05
0.107,2.654824E-05
0.108,2.679348E-05
0.109,2.710003E-05
0.11,2.734527E-05
0.111,2.765182E-05
0.112,2.78664E-05
0.113,2.811164E-05
0.114,2.838754E-05
0.115,2.869408E-05
0.116,2.896998E-05
0.117,2.927653E-05
0.118,2.955242E-05
0.119,2.982831E-05
0.12,3.010421E-05
0.121,3.047206E-05
0.122,3.077861E-05
0.123,3.114647E-05
0.124,3.163695E-05
0.125,3.188219E-05
0.126,3.221939E-05
0.127,3.252594E-05
0.128,3.277118E-05
0.129,3.313903E-05
0.13,3.359886E-05
0.131,3.39054E-05
0.132,3.448785E-05
0.133,3.48557E-05
0.134,3.522356E-05
0.135,3.571404E-05
0.136,3.605124E-05
0.137,3.635779E-05
0.138,3.687892E-05
0.139,3.733874E-05
0.14,3.789053E-05
0.141,3.835035E-05
0.142,3.877952E-05
0.143,3.930065E-05
0.144,3.972982E-05
0.145,4.015899E-05
0.146,4.068012E-05
0.147,4.123191E-05
0.148,4.190631E-05
0.149,4.24581E-05
0.15,4.294858E-05
0.151,4.350036E-05
0.152,4.402149E-05
0.153,4.460394E-05
0.154,4.524769E-05
0.155,4.570751E-05
0.156,4.647388E-05
0.157,4.714829E-05
0.158,4.773073E-05
0.159,4.846645E-05
0.16,4.907954E-05
0.161,4.972329E-05
0.162,5.03977E-05
0.163,5.10108E-05
0.164,5.174651E-05
0.165,5.248223E-05
0.166,5.330991E-05
0.167,5.413758E-05
0.168,5.490396E-05
0.169,5.563968E-05
0.17,5.64367E-05
0.171,5.720307E-05
0.172,5.806141E-05
0.173,5.885843E-05
0.174,5.971677E-05
0.175,6.072838E-05
0.176,6.167868E-05
0.177,6.262898E-05
0.178,6.354862E-05
0.179,6.443761E-05
0.18,6.551053E-05
0.181,6.643018E-05
0.182,6.734982E-05
0.183,6.848405E-05
0.184,6.961828E-05
0.185,7.072185E-05
0.186,7.204001E-05
0.187,7.308227E-05
0.188,7.430847E-05
0.189,7.547335E-05
0.19,7.666889E-05
0.191,7.798705E-05
0.192,7.924389E-05
0.193,8.05927E-05
0.194,8.209479E-05
0.195,8.350491E-05
0.196,8.503765E-05
0.197,8.638646E-05
0.198,8.794986E-05
0.199,8.94826E-05
0.2,9.101534E-05
0.201,9.264005E-05
0.202,9.438737E-05
0.203,9.61347E-05
0.204,9.806595E-05
0.205,9.981328E-05
0.206,0.0001015912
0.207,0.0001036145
0.208,0.0001053924
0.209,0.0001073544
0.21,0.0001094082
0.211,0.0001114315
0.212,0.0001136999
0.213,0.0001159071
0.214,0.0001182062
0.215,0.000120444
0.216,0.0001227737
0.217,0.0001251035
0.218,0.0001275865
0.219,0.0001299776
0.22,0.000132522
0.221,0.0001350663
0.222,0.000137672
0.223,0.0001404616
0.224,0.0001432205
0.225,0.0001461021
0.226,0.000148953
0.227,0.0001517119
0.228,0.0001547774
0.229,0.0001576283
0.23,0.0001606018
0.231,0.0001637286
0.232,0.0001667634
0.233,0.0001698595
0.234,0.0001731703
0.235,0.0001762971
0.236,0.0001797611
0.237,0.0001831944
0.238,0.0001865051
0.239,0.0001899691
0.24,0.0001934331
0.241,0.0001967745
0.242,0.0002002691
0.243,0.0002038251
0.244,0.000207473
0.245,0.000211029
0.246,0.0002146769
0.247,0.0002183862
0.248,0.0002220034
0.249,0.0002258353
0.25,0.0002296978
0.251,0.0002333764
0.252,0.0002374841
0.253,0.0002414079
0.254,0.0002452398
0.255,0.0002495008
0.256,0.0002535166
0.257,0.000257747
0.258,0.0002620693
0.259,0.0002662383
0.26,0.0002707752
0.261,0.0002751589
0.262,0.0002795119
0.263,0.0002842327
0.264,0.0002887083
0.265,0.0002970569
0.266,0.0003016552
0.267,0.0003065599
0.268,0.0003117713
0.269,0.000316676
0.27,0.0003218873
0.271,0.0003274052
0.272,0.0003329231
0.273,0.000338441
0.274,0.0003439588
0.275,0.0003497833
0.276,0.0003562208
0.277,0.0003623517
0.278,0.0003687892
0.279,0.0003758399
0.28,0.0003822774
0.281,0.000389328
0.282,0.0003969917
0.283,0.0004040423
0.284,0.0004120126
0.285,0.0004199828
0.286,0.0004282596
0.287,0.000436843
0.288,0.0004460394
0.289,0.0004549293
0.29,0.0004647389
0.291,0.0004745484
0.292,0.0004852776
0.293,0.0004957002
0.294,0.0005067359
0.295,0.0005186913
0.296,0.0005306468
0.297,0.0005435218
0.298,0.0005567034
0.299,0.0005698849
0.3,0.0005849058
0.301,0.0005993135
0.302,0.000614641
0.303,0.0006311946
0.304,0.0006477482
0.305,0.0006652214
0.306,0.0006839209
0.307,0.0007032334
0.308,0.0007237722
0.309,0.000744924
0.31,0.0007663824
0.311,0.0007899866
0.312,0.0008135908
0.313,0.0008387277
0.314,0.000865704
0.315,0.0008926803
0.316,0.0009221089
0.317,0.0009524572
0.318,0.0009837251
0.319,0.001017445
0.32,0.001052392
0.321,0.001089178
0.322,0.001127803
0.323,0.001167961
0.324,0.00121149
0.325,0.001255327
0.326,0.001302535
0.327,0.00135189
0.328,0.00140247
0.329,0.001457649
0.33,0.001514667
0.331,0.00157383
0.332,0.001638512
0.333,0.001703194
0.334,0.001772167
0.335,0.001846658
0.336,0.001922069
0.337,0.002003611
0.338,0.002089445
0.339,0.002177118
0.34,0.002271841
0.341,0.00236963
0.342,0.002472017
0.343,0.002581148
0.344,0.002693345
0.345,0.002812285
0.346,0.002938277
0.347,0.003067334
0.348,0.003237266
0.349,0.003375213
0.35,0.003525421
0.351,0.003681761
0.352,0.003841166
0.353,0.004012833
0.354,0.004190631
0.355,0.004371495
0.356,0.00456462
0.357,0.004760811
0.358,0.004969264
0.359,0.005180782
0.36,0.005398431
0.361,0.005628342
0.362,0.005861319
0.363,0.006100427
0.364,0.006348731
0.365,0.006600101
0.366,0.006857601
0.367,0.007124298
0.368,0.007390995
0.369,0.007666889
0.37,0.007945848
0.371,0.008224807
0.372,0.008516028
0.373,0.008804183
0.374,0.009095403
0.375,0.009392755
0.376,0.009687042
0.377,0.009987459
0.378,0.01029094
0.379,0.01059136
0.38,0.01089484
0.381,0.01119526
0.382,0.01149568
0.383,0.01179609
0.384,0.01209344
0.385,0.01239386
0.386,0.01269121
0.387,0.01298243
0.388,0.01327672
0.389,0.01356488
0.39,0.01384997
0.391,0.01413506
0.392,0.01441095
0.393,0.01468991
0.394,0.01496274
0.395,0.01522943
0.396,0.01549613
0.397,0.0157567
0.398,0.01601113
0.399,0.01626557
0.4,0.01651081
0.401,0.01675604
0.402,0.01699515
0.403,0.01723119
0.404,0.0174611
0.405,0.01768488
0.406,0.0179056
0.407,0.01812325
0.408,0.01832864
0.409,0.01854016
0.41,0.01874554
0.411,0.0189356
0.412,0.01912566
0.413,0.01930039
0.414,0.019469
0.415,0.0196376
0.416,0.01979087
0.417,0.01993801
0.418,0.02007903
0.419,0.02021084
0.42,0.02033346
0.421,0.02044689
0.422,0.02055111
0.423,0.02064308
0.424,0.02072891
0.425,0.02080555
0.426,0.02086992
0.427,0.0209251
0.428,0.02097415
0.429,0.02100787
0.43,0.02103546
0.431,0.02105079
0.432,0.02105385
0.433,0.02105385
0.434,0.02104159
0.435,0.021014
0.436,0.02098641
0.437,0.02094043
0.438,0.02088525
0.439,0.02082701
0.44,0.02075343
0.441,0.02067373
0.442,0.02059096
0.443,0.0204898
0.444,0.02037944
0.445,0.02026296
0.446,0.02013421
0.447,0.01999319
0.448,0.01985525
0.449,0.01969891
0.45,0.01953031
0.451,0.01935864
0.452,0.01917778
0.453,0.01897852
0.454,0.01878233
0.455,0.01857694
0.456,0.01835009
0.457,0.01813245
0.458,0.01790253
0.459,0.01765423
0.46,0.01741512
0.461,0.01716375
0.462,0.01690625
0.463,0.01664875
0.464,0.01637899
0.465,0.01611229
0.466,0.01583946
0.467,0.01556357
0.468,0.01528768
0.469,0.01501178
0.47,0.01473589
0.471,0.01445693
0.472,0.0141841
0.473,0.01392047
0.474,0.01365377
0.475,0.01339934
0.476,0.0131541
0.477,0.0129058
0.478,0.01267895
0.479,0.01246437
0.48,0.01225285
0.481,0.01206279
0.482,0.01188806
0.483,0.01172252
0.484,0.01158151
0.485,0.01145582
0.486,0.01134853
0.487,0.01126883
0.488,0.01120446
0.489,0.01116154
0.49,0.01114008
0.491,0.01113701
0.492,0.01115541
0.493,0.01119526
0.494,0.01125963
0.495,0.01133321
0.496,0.01142824
0.497,0.01155085
0.498,0.0116796
0.499,0.01182675
0.5,0.01200148
0.501,0.01217621
0.502,0.01236934
0.503,0.01258086
0.504,0.01279237
0.505,0.01302535
0.506,0.01327059
0.507,0.0135189
0.508,0.01378559
0.509,0.01405842
0.51,0.01433431
0.511,0.01462247
0.512,0.01492595
0.513,0.01522637
0.514,0.01553292
0.515,0.01585173
0.516,0.0161736
0.517,0.01649548
0.518,0.01682962
0.519,0.01716682
0.52,0.01750402
0.521,0.01785655
0.522,0.01820295
0.523,0.01855548
0.524,0.01892027
0.525,0.01927894
0.526,0.01964066
0.527,0.02001772
0.528,0.02037944
0.529,0.02075343
0.53,0.02113662
0.531,0.02151367
0.532,0.02189686
0.533,0.02228311
0.534,0.02266936
0.535,0.02305561
0.536,0.02345106
0.537,0.02384344
0.538,0.02423582
0.539,0.02463434
0.54,0.02503898
0.541,0.02543136
0.542,0.025836
0.543,0.02624065
0.544,0.02664529
0.545,0.027053
0.546,0.02746378
0.547,0.02787148
0.548,0.02828532
0.549,0.02869303
0.55,0.02910687
0.551,0.02952991
0.552,0.02994375
0.553,0.03114647
0.554,0.03154498
0.555,0.03197415
0.556,0.03240332
0.557,0.03283248
0.558,0.03326165
0.559,0.03366017
0.56,0.03411999
0.561,0.03454916
0.562,0.03497833
0.563,0.03540749
0.564,0.03583666
0.565,0.03626583
0.566,0.036695
0.567,0.03715482
0.568,0.03758398
0.569,0.03801315
0.57,0.03847298
0.571,0.03890214
0.572,0.03936196
0.573,0.03979113
0.574,0.0402203
0.575,0.04068012
0.576,0.04110929
0.577,0.04156911
0.578,0.04199828
0.579,0.0424581
0.58,0.04288727
0.581,0.04334709
0.582,0.04380691
0.583,0.04423608
0.584,0.04469591
0.585,0.04512507
0.586,0.04558489
0.587,0.04604472
0.588,0.04650454
0.589,0.04696436
0.59,0.04739353
0.591,0.04785335
0.592,0.04831317
0.593,0.048773
0.594,0.04923282
0.595,0.04966199
0.596,0.05012181
0.597,0.05058163
0.598,0.0510108
0.599,0.05147062
0.6,0.05193045
0.601,0.05239027
0.602,0.05285009
0.603,0.05330991
0.604,0.05380039
0.605,0.05422956
0.606,0.05468938
0.607,0.0551492
0.608,0.05560903
0.609,0.0560995
0.61,0.05652867
0.611,0.05698849
0.612,0.05747896
0.613,0.05793879
0.614,0.05839861
0.615,0.05885844
0.616,0.05931826
0.617,0.05977808
0.618,0.06026856
0.619,0.06072838
0.62,0.0611882
0.621,0.06164802
0.622,0.0621385
0.623,0.06259833
0.624,0.06305815
0.625,0.06351797
0.626,0.06397779
0.627,0.06443761
0.628,0.06492809
0.629,0.06535726
0.63,0.06584774
0.631,0.06630756
0.632,0.06676738
0.633,0.06725786
0.634,0.06771768
0.635,0.06817751
0.636,0.06863733
0.637,0.06909715
0.638,0.06958763
0.639,0.07004745
0.64,0.07053792
0.641,0.0710284
0.642,0.07145756
0.643,0.07191739
0.644,0.07240786
0.645,0.07286769
0.646,0.07335817
0.647,0.07381799
0.648,0.07430847
0.649,0.07473763
0.65,0.07522812
0.651,0.07571859
0.652,0.07617841
0.653,0.07666889
0.654,0.07712871
0.655,0.07755788
0.656,0.07804836
0.657,0.07853883
0.658,0.07899866
0.659,0.07948913
0.66,0.07994895
0.661,0.08040877
0.662,0.08089925
0.663,0.08135908
0.664,0.0818189
0.665,0.08227872
0.666,0.0827692
0.667,0.08325968
0.668,0.0837195
0.669,0.08420997
0.67,0.0846698
0.671,0.08516028
0.672,0.08565076
0.673,0.08614123
0.674,0.08660105
0.675,0.08706088
0.676,0.08755135
0.677,0.08801118
0.678,0.08850165
0.679,0.08899213
0.68,0.08945195
0.681,0.08991177
0.682,0.09040225
0.683,0.09089272
0.684,0.09135254
0.685,0.09184303
0.686,0.0923335
0.687,0.09279333
0.688,0.0932838
0.689,0.09377428
0.69,0.09426476
0.691,0.09475523
0.692,0.09524571
0.693,0.09573619
0.694,0.09619602
0.695,0.09668649
0.696,0.09714631
0.697,0.09763679
0.698,0.09809661
0.699,0.09861775
0.7,0.09874036
0.6990001,0.09824988
0.6980001,0.09779006
0.6970001,0.09733024
0.6960001,0.09683976
0.6950001,0.09637994
0.6940001,0.09588946
0.6930001,0.09539898
0.6920001,0.09493916
0.6910001,0.09447934
0.6900001,0.09395821
0.6890001,0.09352904
0.6880001,0.09303857
0.6870001,0.09251743
0.6860001,0.09208827
0.6850001,0.09159779
0.6840001,0.09110731
0.6830001,0.09067815
0.6820001,0.09015701
0.6810001,0.08969719
0.6800001,0.08920672
0.6790001,0.08871623
0.6780001,0.08825641
0.6770001,0.08779659
0.6760001,0.08727546
0.6750001,0.08681564
0.6740001,0.08635581
0.6730001,0.08586534
0.6720001,0.08537485
0.6710001,0.08491503
0.6700001,0.08445521
0.6690001,0.08396474
0.6680001,0.08347426
0.6670001,0.08301444
0.6660001,0.08255462
0.6650001,0.08206414
0.6640001,0.08160432
0.6630001,0.0811445
0.6620001,0.08068467
0.6610001,0.0801942
0.6600001,0.07973437
0.6590001,0.07927455
0.6580001,0.07881473
0.6570001,0.0783549
0.6560001,0.07789508
0.6550001,0.07743526
0.6540001,0.07694478
0.6530001,0.07648496
0.6520001,0.07602514
0.6510001,0.07556532
0.6500001,0.07510549
0.6490001,0.07464567
0.6480001,0.07421651
0.6470001,0.07375668
0.6460001,0.07329686
0.6450001,0.07283704
0.6440001,0.07237721
0.6430001,0.07191739
0.6420001,0.07148822
0.6410001,0.0710284
0.6400001,0.07056858
0.6390001,0.07010876
0.6380001,0.06967959
0.6370001,0.06918911
0.6360001,0.06872929
0.6350001,0.06830012
0.6340001,0.0678403
0.6330001,0.06738048
0.6320001,0.06692065
0.6310001,0.06646083
0.6300001,0.06603166
0.6290001,0.06557184
0.6280001,0.06511202
0.6270001,0.0646522
0.6260001,0.06419238
0.6250001,0.06376321
0.6240001,0.06330338
0.6230001,0.06284356
0.6220001,0.0624144
0.6210001,0.06195457
0.6200001,0.06149475
0.6190001,0.06106558
0.6180001,0.06060576
0.6170001,0.06017659
0.6160001,0.05971677
0.6150001,0.05925695
0.6140001,0.05882778
0.6130001,0.05836796
0.6120001,0.05790814
0.6110001,0.05747896
0.6100001,0.05701914
0.6090001,0.05655932
0.6080001,0.05613015
0.6070001,0.05567033
0.6060001,0.05521051
0.6050001,0.05478134
0.6040001,0.05435218
0.6030001,0.05389235
0.6020001,0.05343253
0.6010001,0.0529727
0.6000001,0.05251288
0.5990001,0.05208372
0.5980001,0.05165455
0.5970001,0.05119473
0.5960001,0.05073491
0.5950001,0.05030574
0.5940001,0.04987657
0.5930001,0.04941675
0.5920001,0.04898758
0.5910001,0.04852776
0.5900001,0.04809859
0.5890001,0.04763877
0.5880001,0.0472096
0.5870001,0.04678043
0.5860001,0.04632061
0.5850001,0.04589145
0.5840001,0.04543162
0.5830001,0.04500245
0.5820001,0.04457328
0.5810001,0.04411346
0.5800001,0.0436843
0.5790001,0.04325513
0.5780001,0.0427953
0.5770001,0.04236614
0.5760001,0.04193697
0.5750001,0.04147715
0.5740001,0.04104798
0.5730001,0.04061881
0.5720001,0.04018965
0.5710001,0.03976048
0.5700001,0.03933131
0.5690001,0.03890214
0.5680001,0.03847298
0.5670001,0.03801315
0.5660001,0.03758398
0.5650001,0.03718547
0.5640001,0.03672565
0.5630001,0.03629648
0.5620001,0.03586731
0.5610001,0.03543815
0.5600001,0.03503963
0.5590001,0.03461047
0.5580001,0.0341813
0.5570001,0.03375213
0.5560001,0.03335362
0.5550001,0.03292445
0.5540001,0.03249529
0.5530001,0.03209677
0.5520001,0.0316676
0.5510001,0.03123844
0.5500001,0.03083992
0.5490001,0.03041076
0.5480001,0.02998159
0.5470001,0.02958308
0.5460001,0.02915391
0.5450001,0.02875539
0.5440001,0.02835688
0.5430001,0.02792772
0.5420001,0.0275292
0.5410001,0.02710003
0.5400001,0.02670152
0.5390001,0.02630301
0.5380001,0.0259045
0.5370001,0.02550598
0.5360001,0.02510747
0.5350001,0.02470896
0.5340001,0.02431045
0.5330001,0.02391193
0.5320001,0.02351342
0.5310001,0.02311491
0.5300001,0.02271639
0.5290001,0.02231788
0.5280001,0.02191937
0.5270001,0.02152086
0.5260001,0.021153
0.5250001,0.02075448
0.5240001,0.02038663
0.5230001,0.01998811
0.5220001,0.01962026
0.5210001,0.01922174
0.5200001,0.01885389
0.5190001,0.01848603
0.5180001,0.01811817
0.5170001,0.01775031
0.5160001,0.01738245
0.5150001,0.0170146
0.5140001,0.01664674
0.5130001,0.01627888
0.5120001,0.01591102
0.5110001,0.01554316
0.5100001,0.01520596
0.5090001,0.0148381
0.5080001,0.01447024
0.5070001,0.01413304
0.5060001,0.01376519
0.5050001,0.01342798
0.5040001,0.01309078
0.5030001,0.01224059
0.5020001,0.01190952
0.5010001,0.01157844
0.5000001,0.01125044
0.4990001,0.01092243
0.4980001,0.01060055
0.4970001,0.01028175
0.4960001,0.009966001
0.4950001,0.009650256
0.4940001,0.009340642
0.4930001,0.009031028
0.4920001,0.008727546
0.4910001,0.008430193
0.4900001,0.008129776
0.4890001,0.007838556
0.4880001,0.0075504
0.4870001,0.007259179
0.4860001,0.006983286
0.4850001,0.006704327
0.4840001,0.006428434
0.4830001,0.006158671
0.4820001,0.005891975
0.4810001,0.005631408
0.4800001,0.005373908
0.4790001,0.005116407
0.4780001,0.004871169
0.4770001,0.00462593
0.4760001,0.004383757
0.4750001,0.00415078
0.4740001,0.003917804
0.4730001,0.003687892
0.4720001,0.003470243
0.4710001,0.003252594
0.4700001,0.003041075
0.4690001,0.002835688
0.4680001,0.002630301
0.4670001,0.002437175
0.4660001,0.002240984
0.4650001,0.002057055
0.4640001,0.001876192
0.4630001,0.001698394
0.4620001,0.001526727
0.4610001,0.001358125
0.4600001,0.001195655
0.4590001,0.001009475
0.4580001,0.0008571207
0.4570001,0.000710284
0.4560001,0.0005701915
0.4550001,0.0004300989
0.4540001,0.0002985897
0.4530001,0.0001710656
0.4520001,4.630047E-05
0.4510001,-7.357041E-05
0.4500001,-0.0001893843
0.4490001,-0.0002986075
0.4480001,-0.000404019
0.4470001,-0.0005085519
0.4460001,-0.0006026622
0.4450001,-0.000696466
0.4440001,-0.0007896567
0.4430001,-0.0008724247
0.4420001,-0.0009585648
0.4410001,-0.001040413
0.4400001,-0.001113678
0.4390001,-0.001190622
0.4380001,-0.001260515
0.4370001,-0.001328875
0.4360001,-0.001396316
0.4350001,-0.001456706
0.4340001,-0.001518629
0.4330001,-0.001576566
0.4320001,-0.001632051
0.4310001,-0.001689069
0.4300001,-0.00173873
0.4290001,-0.001791763
0.4280001,-0.00184265
0.4270001,-0.001886793
0.4260001,-0.001935534
0.4250001,-0.001979984
0.4240001,-0.002020448
0.4230001,-0.002067043
0.4220001,-0.002107201
0.4210001,-0.002146439
0.4200001,-0.002188743
0.4190001,-0.002222463
0.4180001,-0.002262008
0.4170001,-0.002299407
0.4160001,-0.00233374
0.4150001,-0.002372365
0.4140001,-0.002405779
0.4130001,-0.0024395
0.4120001,-0.002475672
0.4110001,-0.002508166
0.4100001,-0.002547711
0.4090001,-0.002585416
0.4080001,-0.002614539
0.4070001,-0.002647952
0.4060001,-0.002677381
0.4050001,-0.002710488
0.4040001,-0.002742676
0.4030001,-0.002772717
0.4020001,-0.002807357
0.4010001,-0.002838012
0.4000001,-0.002867134
0.3990001,-0.002903307
0.3980001,-0.002932735
0.3970001,-0.00296523
0.3960001,-0.003000789
0.3950001,-0.002991794
0.3940001,-0.003022449
0.3930001,-0.003056169
0.3920001,-0.003086824
0.3910001,-0.003120545
0.3900001,-0.003154265
0.3890001,-0.003184919
0.3880001,-0.00321864
0.3870001,-0.00325236
0.3860001,-0.003286081
0.3850001,-0.003319801
0.3840001,-0.003353521
0.3830001,-0.003390307
0.3820001,-0.003420962
0.3810001,-0.003457748
0.3800001,-0.003494533
0.3790001,-0.003525188
0.3780001,-0.003565039
0.3770001,-0.003601825
0.3760001,-0.00363248
0.3750001,-0.003672331
0.3740001,-0.003706052
0.3730001,-0.003742838
0.3720001,-0.003785754
0.3710001,-0.003819474
0.3700001,-0.003859326
0.3690001,-0.003899177
0.3680001,-0.003932897
0.3670001,-0.003975814
0.3660001,-0.0040126
0.3650001,-0.004052451
0.3640001,-0.004095368
0.3630001,-0.004132153
0.3620001,-0.00417507
0.3610001,-0.004214922
0.3600001,-0.004254773
0.3590001,-0.00429769
0.3580001,-0.004340607
0.3570001,-0.004383523
0.3560001,-0.004423374
0.3550001,-0.004463226
0.3540001,-0.004506143
0.3530001,-0.00454906
0.3520001,-0.00458891
0.3510001,-0.004637958
0.3500001,-0.00467781
0.3490001,-0.004720726
0.3480001,-0.004766709
0.3470001,-0.004809625
0.3460001,-0.004858673
0.3450001,-0.004904655
0.3440001,-0.004947572
0.3430001,-0.004993554
0.3420001,-0.005039536
0.3410001,-0.005082454
0.3400001,-0.005128435
0.3390001,-0.005174418
0.3380001,-0.005223466
0.3370001,-0.005269447
0.3360001,-0.00531543
0.3350001,-0.005364478
0.3340001,-0.005407395
0.3330001,-0.005456442
0.3320001,-0.005502424
0.3310001,-0.005545341
0.3300001,-0.005597454
0.3290001,-0.005643437
0.3280001,-0.005686353
0.3270001,-0.005738466
0.3260001,-0.005784449
0.3250001,-0.005830431
0.3240001,-0.005882544
0.3230001,-0.005925461
0.3220001,-0.005971443
0.3210001,-0.006017426
0.3200001,-0.006066473
0.3190001,-0.006112455
0.3180001,-0.006158438
0.3170001,-0.00620442
0.3160001,-0.006250402
0.3150001,-0.006296384
0.3140001,-0.006342367
0.3130001,-0.006385284
0.3120001,-0.006431265
0.3110001,-0.006477248
0.3100001,-0.006517099
0.3090001,-0.006563081
0.3080001,-0.006605998
0.3070001,-0.00665198
0.3060001,-0.006694897
0.3050001,-0.006734748
0.3040001,-0.006771534
0.3030001,-0.006817516
0.3020001,-0.006854302
0.3010001,-0.006891088
0.3000001,-0.006934005
0.2990001,-0.006967725
0.2980001,-0.007004511
0.2970001,-0.007038231
0.2960001,-0.007071951
0.2950001,-0.007108737
0.2940001,-0.007139392
0.2930001,-0.007170047
0.2920001,-0.007203767
0.2910001,-0.007231356
0.2900001,-0.007258946
0.2890001,-0.007286535
0.2880001,-0.007311059
0.2870001,-0.007338648
0.2860001,-0.007357041
0.2850001,-0.0073785
0.2840001,-0.007396893
0.2830001,-0.007415285
0.2820001,-0.007430613
0.2810001,-0.007439809
0.2800001,-0.00744594
0.2790001,-0.007458202
0.2780001,-0.007461268
0.2770001,-0.007461268
0.2760001,-0.007458202
0.2750001,-0.007452071
0.2740001,-0.007439809
0.2730001,-0.007424482
0.2720001,-0.007403024
0.2710001,-0.007375435
0.2700001,-0.007338648
0.2690001,-0.007295732
0.2680001,-0.007243618
0.2670001,-0.007173113
0.2660001,-0.007090344
0.2650001,-0.006989183
0.2640001,-0.006863499
0.2630001,-0.006719421
0.2620001,-0.006538557
0.2610001,-0.00632704
0.2600001,-0.006087931
0.2590001,-0.005808973
0.2580001,-0.005502424
0.2570001,-0.005177483
0.2560001,-0.004837214
0.2550001,-0.004500012
0.2540001,-0.004172005
0.2530001,-0.003865457
0.2520001,-0.003589563
0.2510001,-0.00334739
0.2500001,-0.003135872
0.2490001,-0.002955008
0.2480001,-0.002798669
0.2470001,-0.002660722
0.2460001,-0.002541168
0.2450001,-0.002433876
0.2440001,-0.002338846
0.2430001,-0.002249948
0.2420001,-0.00217331
0.2410001,-0.002099739
0.2400001,-0.002032298
0.2390001,-0.001970988
0.2380001,-0.00191581
0.2370001,-0.001860631
0.2360001,-0.001814649
0.2350001,-0.001765601
0.2340001,-0.001722684
0.2330001,-0.001679768
0.2320001,-0.001639916
0.2310001,-0.001603131
0.2300001,-0.001605995
0.2290001,-0.001572274
0.2280001,-0.001540393
0.2270001,-0.001510045
0.2260001,-0.001480617
0.2250001,-0.001452721
0.2240001,-0.001426051
0.2230001,-0.001400607
0.2220001,-0.001376084
0.2210001,-0.001352479
0.2200001,-0.001330101
0.2190001,-0.001307723
0.2180001,-0.001286878
0.2170001,-0.001266646
0.2160001,-0.00124672
0.2150001,-0.001228021
0.2140001,-0.001209628
0.2130001,-0.001191848
0.2120001,-0.001174681
0.2110001,-0.001158128
0.2100001,-0.001141881
0.2090001,-0.001126247
0.2080001,-0.001111226
0.2070001,-0.001096205
0.2060001,-0.001082104
0.2050001,-0.001068309
0.2040001,-0.001055128
0.2030001,-0.001041946
0.2020001,-0.001029071
0.2010001,-0.001016502
0.2000001,-0.00100424
0.1990001,-0.0009925916
0.1980001,-0.0009809429
0.1970001,-0.0009699071
0.1960001,-0.0009588713
0.1950001,-0.0009478356
0.1940001,-0.000937413
0.1930001,-0.0009276034
0.1920001,-0.0009174873
0.1910001,-0.0009079843
0.1900001,-0.0008984813
0.1890001,-0.0008889784
0.1880001,-0.0008800884
0.1870001,-0.000870892
0.1860001,-0.0008620021
0.1850001,-0.0008537253
0.1840001,-0.0008454485
0.1830001,-0.0008371716
0.1820001,-0.0008292014
0.1810001,-0.0008212312
0.1800001,-0.000813874
0.1790001,-0.0008062103
0.1780001,-0.0007985466
0.1770001,-0.000791496
0.1760001,-0.0007841389
0.1750001,-0.0007773947
0.1740001,-0.0007706507
0.1730001,-0.0007639066
0.1720001,-0.0007571626
0.1710001,-0.0007510316
0.1700001,-0.0007445941
0.1690001,-0.0007384631
0.1680001,-0.0007323321
0.1670001,-0.0007262012
0.1660001,-0.0007200702
0.1650001,-0.0007145524
0.1640001,-0.0007087279
0.1630001,-0.0007032101
0.1620001,-0.0006976922
0.1610001,-0.0006921744
0.1600001,-0.0006866565
0.1590001,-0.0006817517
0.1580001,-0.0006765404
0.1570001,-0.000671329
0.1560001,-0.0006661177
0.1550001,-0.000661213
0.1540001,-0.0006566148
0.1530001,-0.00065171
0.1520001,-0.0006468052
0.1510001,-0.0006425135
0.1500001,-0.0006379153
0.1490001,-0.0006330105
0.1480001,-0.0006287188
0.1470001,-0.0006244272
0.1460001,-0.0006201355
0.1450001,-0.0006158438
0.1440001,-0.0006115522
0.1430001,-0.000607567
0.1420001,-0.0006035819
0.1410001,-0.0005992902
0.1400001,-0.0005953051
0.1390001,-0.0005916265
0.1380001,-0.0005876414
0.1370001,-0.0005839628
0.1360001,-0.0005799776
0.1350001,-0.0005762991
0.1340001,-0.000572927
0.1330001,-0.0005692485
0.1320001,-0.0005655699
0.1310001,-0.0005618913
0.1300001,-0.0005585193
0.1290001,-0.0005551472
0.1280001,-0.0005514687
0.1270001,-0.0005484032
0.1260001,-0.0005453377
0.1250001,-0.0005419657
0.1240001,-0.0005385936
0.1230001,-0.0005355282
0.1220001,-0.0005324627
0.1210001,-0.0005293972
0.1200001,-0.0005260251
0.1190001,-0.0005229597
0.1180001,-0.0005202008
0.1170001,-0.0005171353
0.1160001,-0.0005143763
0.1150001,-0.0005116174
0.1140001,-0.0005085519
0.1130001,-0.000505793
0.1120001,-0.000503034
0.1110001,-0.0005002751
0.1100001,-0.0004975162
0.1090001,-0.0004947572
0.1080001,-0.0004923049
0.1070001,-0.0004895459
0.1060001,-0.000486787
0.1050001,-0.0004843346
0.1040001,-0.0004818822
0.1030001,-0.0004794298
0.1020001,-0.0004769774
0.1010001,-0.0004742185
0.1000001,-0.0004720727
0.0990001,-0.0004696203
0.09800009,-0.0004671679
0.09700009,-0.0004650221
0.0960001,-0.0004625697
0.0950001,-0.0004601173
0.09400009,-0.0004579714
0.0930001,-0.0004558256
0.0920001,-0.0004536798
0.0910001,-0.0004512274
0.09000009,-0.0004490816
0.0890001,-0.0004469357
0.0880001,-0.0004447899
0.08700009,-0.0004429506
0.08600009,-0.0004408048
0.0850001,-0.0004386589
0.0840001,-0.000436513
0.08300009,-0.0004346738
0.08200009,-0.0004325279
0.0810001,-0.0004306886
0.0800001,-0.0004285428
0.07900009,-0.0004267035
0.0780001,-0.0004248642
0.0770001,-0.0004227184
0.07600009,-0.0004208791
0.07500009,-0.0004190398
0.0740001,-0.0004172005
0.0730001,-0.0004153613
0.07200009,-0.0004135219
0.07100009,-0.0004116826
0.0700001,-0.0004101499
0.0690001,-0.0004083106
0.06800009,-0.0004064713
0.0670001,-0.000404632
0.0660001,-0.0004027928
0.06500009,-0.00040126
0.06400009,-0.0003997273
0.0630001,-0.000397888
0.0620001,-0.0003960487
0.06100009,-0.000394516
0.0600001,-0.0003929832
0.0590001,-0.0003914505
0.0580001,-0.0003899177
0.0570001,-0.0003880784
0.05600009,-0.0003865457
0.0550001,-0.0003850129
0.05400009,-0.0003834802
0.0530001,-0.0003819475
0.05200009,-0.0003804147
0.0510001,-0.000378882
0.05000009,-0.0003773492
0.0490001,-0.0003761231
0.04800009,-0.0003745903
0.0470001,-0.0003730576
0.0460001,-0.0003718314
0.04500009,-0.0003702986
0.0440001,-0.0003690725
0.04300009,-0.0003675397
0.0420001,-0.0003660069
0.04100009,-0.0003647808
0.0400001,-0.0003632481
0.03900009,-0.0003620218
0.0380001,-0.0003607956
0.03700009,-0.0003592629
0.0360001,-0.0003580367
0.0350001,-0.000356504
0.03400009,-0.0003552778
0.0330001,-0.0003540516
0.03200009,-0.0003528254
0.03100009,-0.0003515992
0.0300001,-0.0003500664
0.0290001,-0.0003488403
0.0280001,-0.0003479206
0.0270001,-0.0003466944
0.0260001,-0.0003454682
0.0250001,-0.000344242
0.0240001,-0.0003430158
0.0230001,-0.0003417897
0.02200009,-0.0003405634
0.02100009,-0.0003393373
0.02000009,-0.0003384176
0.0190001,-0.0003371914
0.0180001,-0.0003359652
0.0170001,-0.000334739
0.0160001,-0.0003335129
0.0150001,-0.0003325932
0.0140001,-0.0003316735
0.0130001,-0.0003304474
0.0120001,-0.0003295277
0.01100009,-0.0003283015
0.0100001,-0.0003270753
0.009000096,-0.0003261557
0.008000095,-0.0003249295
0.007000095,-0.0003240099
0.006000096,-0.0003230902
0.005000095,-0.000321864
0.004000095,-0.0003209444
0.003000095,-0.0003197182
0.002000095,-0.0003187985
0.001000095,-0.0003178789
9.536743E-08,-0.0003135872
0.0009999046,-0.0003086824
0.001999905,-0.0003050039
0.002999905,-0.0003013253
0.003999905,-0.0002982598
0.004999904,-0.0002951943
0.005999905,-0.0002924354
0.006999905,-0.0002896764
0.007999904,-0.0002869175
0.008999905,-0.0002841586
0.009999905,-0.0002820127
0.0109999,-0.0002795603
0.0119999,-0.000277108
0.0129999,-0.0002749621
0.0139999,-0.0002728163
0.0149999,-0.0002703639
0.0159999,-0.000268218
0.0169999,-0.0002663788
0.0179999,-0.0002642329
0.0189999,-0.0002623936
0.0199999,-0.0002602478
0.0209999,-0.0002584085
0.0219999,-0.0002565692
0.02299991,-0.0002544234
0.02399991,-0.0002528907
0.02499991,-0.0002510514
0.02599991,-0.0002495186
0.0269999,-0.0002476793
0.0279999,-0.0002461466
0.0289999,-0.0002443073
0.0299999,-0.000242468
0.0309999,-0.0002409353
0.0319999,-0.0002394025
0.0329999,-0.0002378698
0.0339999,-0.000236337
0.0349999,-0.0002348043
0.03599991,-0.0002332716
0.0369999,-0.0002317388
0.03799991,-0.0002305126
0.0389999,-0.0002289799
0.03999991,-0.0002274471
0.0409999,-0.0002262209
0.04199991,-0.0002246882
0.0429999,-0.000223462
0.0439999,-0.0002219293
0.0449999,-0.0002203965
0.0459999,-0.0002191703
0.04699991,-0.0002179441
0.0479999,-0.0002167179
0.04899991,-0.0002154918
0.0499999,-0.0002142656
0.05099991,-0.0002130394
0.0519999,-0.0002115066
0.05299991,-0.0002102804
0.0539999,-0.0002090542
0.0549999,-0.0002078281
0.0559999,-0.0002066019
0.0569999,-0.0002056822
0.05799991,-0.000204456
0.0589999,-0.0002032298
0.05999991,-0.0002020036
0.0609999,-0.0002007774
0.06199991,-0.0001998578
0.0629999,-0.0001986316
0.06399991,-0.0001974054
0.06499991,-0.0001964858
0.0659999,-0.0001952596
0.0669999,-0.0001943399
0.06799991,-0.0001931137
0.0689999,-0.0001918875
0.0699999,-0.0001909679
0.07099991,-0.0001897417
0.07199991,-0.0001888221
0.0729999,-0.0001879024
0.0739999,-0.0001869828
0.07499991,-0.0001860631
0.07599991,-0.0001848369
0.0769999,-0.0001839173
0.0779999,-0.0001826911
0.07899991,-0.0001817715
0.0799999,-0.0001808518
0.0809999,-0.0001799322
0.08199991,-0.0001790125
0.08299991,-0.0001780929
0.0839999,-0.0001768667
0.0849999,-0.000175947
0.08599991,-0.0001750274
0.08699991,-0.0001741077
0.0879999,-0.0001731881
0.0889999,-0.0001722685
0.08999991,-0.0001713488
0.0909999,-0.0001704292
0.0919999,-0.0001695095
0.09299991,-0.0001685899
0.09399991,-0.0001676702
0.0949999,-0.0001667506
0.0959999,-0.0001658309
0.09699991,-0.0001649113
0.09799991,-0.0001642982
0.0989999,-0.0001633786
0.0999999,-0.0001621524
0.1009999,-0.0001615393
0.1019999,-0.0001606196
0.1029999,-0.0001597
0.1039999,-0.0001624081
0.1049999,-0.0001617031
0.1059999,-0.0001608447
0.1069999,-0.0001599557
0.1079999,-0.0001590054
0.1089999,-0.0001583004
0.1099999,-0.0001575033
0.1109999,-0.0001566756
0.1119999,-0.0001560012
0.1129999,-0.0001551736
0.1139999,-0.0001543459
0.1149999,-0.0001534569
0.1159999,-0.0001526292
0.1169999,-0.0001518935
0.1179999,-0.0001511578
0.1189999,-0.0001503608
0.1199999,-0.0001496557
0.1209999,-0.00014892
0.1219999,-0.0001480616
0.1229999,-0.0001472953
0.1239999,-0.0001464982
0.1249999,-0.0001457932
0.1259999,-0.0001451188
0.1269999,-0.0001443831
0.1279999,-0.0001436473
0.1289999,-0.0001428197
0.1299999,-0.0001420533
0.1309999,-0.0001413789
0.1319999,-0.0001405819
0.1329999,-0.0001400607
0.1339999,-0.0001392944
0.1349999,-0.000138436
0.1359999,-0.0001377616
0.1369999,-0.0001370566
0.1379999,-0.0001363822
0.1389999,-0.0001357997
0.1399999,-0.0001350027
0.1409999,-0.000134175
0.1419999,-0.0001335926
0.1429999,-0.0001327955
0.1439999,-0.0001321824
0.1449999,-0.0001316
0.1459999,-0.0001308336
0.1469999,-0.0001300979
0.1479999,-0.0001293622
0.1489999,-0.0001287797
0.1499999,-0.0001281667
0.1509999,-0.0001274923
0.1519999,-0.0001268485
0.1529999,-0.0001260208
0.1539999,-0.0001254077
0.1549999,-0.0001248253
0.1559999,-0.0001240896
0.1569999,-0.0001235684
0.1579999,-0.000122894
0.1589999,-0.000122189
0.1599999,-0.0001214533
0.1609999,-0.0001208708
0.1619999,-0.0001202271
0.1629999,-0.0001196753
0.1639999,-0.0001190009
0.1649999,-0.0001183265
0.1659999,-0.0001176214
0.1669999,-0.000116947
0.1679999,-0.0001163646
0.1689999,-0.0001157208
0.1699999,-0.0001151384
0.1709999,-0.0001146172
0.1719999,-0.0001138815
0.1729999,-0.0001131765
0.1739999,-0.0001125327
0.1749999,-0.000111889
0.1759999,-0.0001112758
0.1769999,-0.0001106934
0.1779999,-0.000110019
0.1789999,-0.0001094979
0.1799999,-0.0001088848
0.1809999,-0.0001082717
0.1819999,-0.0001075666
0.1829999,-0.0001068309
0.1839999,-0.0001062178
0.1849999,-0.0001056047
0.1859999,-0.000104961
0.1869999,-0.0001044092
0.1879999,-0.0001037654
0.1889999,-0.000103183
0.1899999,-0.0001025392
0.1909999,-0.0001017729
0.1919999,-0.0001010678
0.1929999,-0.000100516
0.1939999,-9.990291E-05
0.1949999,-9.925916E-05
0.1959999,-9.864606E-05
0.1969999,-9.806362E-05
0.1979999,-9.738921E-05
0.1989999,-9.665349E-05
0.1999999,-9.585647E-05
0.2009999,-9.524338E-05
0.2019999,-9.463028E-05
0.2029999,-9.398653E-05
0.2039999,-9.328147E-05
0.2049999,-9.266837E-05
0.2059999,-9.205527E-05
0.2069999,-9.131956E-05
0.2079999,-9.067581E-05
0.2089999,-8.997074E-05
0.2099999,-8.914307E-05
0.2109999,-8.846866E-05
0.2119999,-8.767164E-05
0.2129999,-8.696657E-05
0.2139999,-8.635347E-05
0.2149999,-8.561776E-05
0.2159999,-8.485139E-05
0.2169999,-8.420764E-05
0.2179999,-8.341061E-05
0.2189999,-8.267489E-05
0.2199999,-8.184722E-05
0.2209999,-8.101953E-05
0.2219999,-8.022251E-05
0.2229999,-7.942548E-05
0.2239999,-7.862846E-05
0.2249999,-7.783144E-05
0.2259999,-7.700375E-05
0.2269999,-7.620673E-05
0.2279999,-7.534839E-05
0.2289999,-7.455137E-05
0.2299999,-7.372369E-05
0.2309999,-7.274273E-05
0.2319999,-7.179243E-05
0.2329999,-7.078082E-05
0.2339999,-6.976922E-05
0.2349999,-6.897219E-05
0.2359999,-6.789927E-05
0.2369999,-6.694897E-05
0.2379999,-6.605998E-05
0.2389999,-6.498706E-05
0.2399999,-6.40061E-05
0.2409999,-6.293318E-05
0.2419999,-6.167634E-05
0.2429999,-6.054211E-05
0.2439999,-5.937723E-05
0.2449999,-5.8243E-05
0.2459999,-5.720073E-05
0.2469999,-5.597454E-05
0.2479999,-5.471769E-05
0.2489999,-5.330757E-05
0.2499999,-5.192811E-05
0.2509999,-5.073257E-05
0.2519999,-4.938375E-05
0.2529999,-4.797363E-05
0.2539999,-4.656351E-05
0.2549999,-4.490815E-05
0.2559999,-4.346737E-05
0.2569999,-4.193463E-05
0.2579999,-4.037124E-05
0.2589999,-3.877719E-05
0.2599999,-3.684593E-05
0.2609999,-3.512926E-05
0.2619999,-3.350456E-05
0.2629999,-3.154265E-05
0.2639999,-2.973401E-05
0.2649999,-2.780276E-05
0.2659999,-2.562626E-05
0.2669999,-2.366436E-05
0.2679999,-2.13959E-05
0.2689999,-1.925006E-05
0.2699999,-1.710422E-05
0.2709999,-1.459053E-05
0.2719999,-1.210749E-05
0.2729999,-9.593793E-06
0.2739999,-6.759272E-06
0.2749999,-4.358999E-06
0.2759999,-1.477446E-06
0.2769999,1.284554E-06
0.2779999,4.239679E-06
0.2789999,7.532008E-06
0.2799999,1.064347E-05
0.2809999,1.390208E-05
0.2819999,1.743045E-05
0.2829999,2.08771E-05
0.2839999,2.458634E-05
0.2849999,2.823426E-05
0.2859999,3.203546E-05
0.2869999,3.635779E-05
0.2879999,4.058816E-05
0.2889999,4.503311E-05
0.2899999,4.987657E-05
0.2909999,5.435217E-05
0.2919999,5.956349E-05
0.2929999,6.471351E-05
0.2939999,6.998613E-05
0.2949999,7.571858E-05
0.2959999,8.138973E-05
0.2969999,8.749004E-05
0.2979999,9.405017E-05
0.2989999,0.0001005183
0.2999999,0.0001077222
0.3009999,0.0001149568
0.3019999,0.0001223139
0.3029999,0.0001304374
0.3039999,0.000138377
0.3049999,0.0001470217
0.3059999,0.0001560955
0.3069999,0.0001657825
0.3079999,0.0001757759
0.3089999,0.000185892
0.3099999,0.0001965906
0.3109999,0.000208454
0.3119999,0.0002199802
0.3129999,0.0002327326
0.3139999,0.0002461288
0.3149999,0.0002594329
0.3159999,0.0002744232
0.3169999,0.000289536
0.3179999,0.0003090123
0.3189999,0.0003258725
0.3199999,0.0003436523
0.3209999,0.0003623517
0.3219999,0.0003825839
0.3229999,0.0004034292
0.3239999,0.0004261138
0.3249999,0.0004494115
0.3259999,0.0004742419
0.3269999,0.0005009116
0.3279999,0.0005281944
0.3289999,0.0005579296
0.3299999,0.0005898106
0.3309999,0.0006226112
0.3319999,0.000659397
0.3329999,0.0006961828
0.3339999,0.0007363406
0.3349999,0.0007804836
0.3359999,0.0008255462
0.3369999,0.0008749004
0.3379999,0.0009279333
0.3389999,0.0009837251
0.3399999,0.001045648
0.3409999,0.001110023
0.3419999,0.001179303
0.3429999,0.001255327
0.3439999,0.001335029
0.3449999,0.001423009
0.3459999,0.001517426
0.3469999,0.001618586
0.3479999,0.001728944
0.3489999,0.001846658
0.3499999,0.001974795
0.3509999,0.002113049
0.3519999,0.002260805
0.3529999,0.002421743
0.3539999,0.002591877
0.3549999,0.002772128
0.3559999,0.002967399
0.3569999,0.003197415
0.3579999,0.003405868
0.3589999,0.003620452
0.3599999,0.003841166
0.3609999,0.004061881
0.3619999,0.004285661
0.3629999,0.004503311
0.3639999,0.00472096
0.3649999,0.004932478
0.3659999,0.005137865
0.3669999,0.005337122
0.3679999,0.005527182
0.3689999,0.005711111
0.3699999,0.005888909
0.3709999,0.00605751
0.3719999,0.006223046
0.3729999,0.006373255
0.3739999,0.006523463
0.3749999,0.006664475
0.3759999,0.006796291
0.3769999,0.006931173
0.3779999,0.007056858
0.3789999,0.007176412
0.3799999,0.007295965
0.3809999,0.007403257
0.3819999,0.007510548
0.3829999,0.007614775
0.3839999,0.007709805
0.3849999,0.007807901
0.3859999,0.007899866
0.3869999,0.007985699
0.3879999,0.008071532
0.3889999,0.0081543
0.3899999,0.008234003
0.3909999,0.008310639
0.3919999,0.008384212
0.3929999,0.008460849
0.3939999,0.008528289
0.3949999,0.008598795
0.3959999,0.008666236
0.3969999,0.008730611
0.3979999,0.008794987
0.3989999,0.008856296
0.3999999,0.008911475
0.4009999,0.008969719
0.4019999,0.009021832
0.4029999,0.009073945
0.4039999,0.009129124
0.4049999,0.009172041
0.4059999,0.009214957
0.4069999,0.009257874
0.4079999,0.00929466
0.4089999,0.009334511
0.4099999,0.009377428
0.4109999,0.009405017
0.4119999,0.009432606
0.4129999,0.009454065
0.4139999,0.009475523
0.4149999,0.009490851
0.4159999,0.009500047
0.4169999,0.009512309
0.4179999,0.00951844
0.4189999,0.00951844
0.4199999,0.00951844
0.4209999,0.009509244
0.4219999,0.009500047
0.4229999,0.009490851
0.4239999,0.009469392
0.4249999,0.009450999
0.4259999,0.009423411
0.4269999,0.009392755
0.4279999,0.0093621
0.4289999,0.009325314
0.4299999,0.009282398
0.4309999,0.009239481
0.4319999,0.009190434
0.4329999,0.00913832
0.4339999,0.009086207
0.4349999,0.009024898
0.4359999,0.008966654
0.4369999,0.008899212
0.4379999,0.008834838
0.4389999,0.008764331
0.4399999,0.008687695
0.4409999,0.008620254
0.4419999,0.008543616
0.4429999,0.008460849
0.4439999,0.008387277
0.4449999,0.008301443
0.4459999,0.008218676
0.4469999,0.008138973
0.4479999,0.008056205
0.4489999,0.007970371
0.4499999,0.007887604
0.4509999,0.007804835
0.4519999,0.007722067
0.4529999,0.007636234
0.4539999,0.007556531
0.4549999,0.007479894
0.4559999,0.007400192
0.4569999,0.00732662
0.4579999,0.007249983
0.4589999,0.007179477
0.4599999,0.007118167
0.4609999,0.007053792
0.4619999,0.006995548
0.4629999,0.006940369
0.4639999,0.00688519
0.4649999,0.006845339
0.4659999,0.006805488
0.4669999,0.006771768
0.4679999,0.006747244
0.4689999,0.006725786
0.4699999,0.006710458
0.4709999,0.006707393
0.4719999,0.006707393
0.4729999,0.006719654
0.4739999,0.006741113
0.4749999,0.006768702
0.4759999,0.006805488
0.4769999,0.00685147
0.4779999,0.006909714
0.4789999,0.006977155
0.4799999,0.007056858
0.4809999,0.007148822
0.4819999,0.007243852
0.4829999,0.007354209
0.4839999,0.007479894
0.4849999,0.007605579
0.4859999,0.007749657
0.4869999,0.007905996
0.4879999,0.008068467
0.4889999,0.008243199
0.4899999,0.008430193
0.4909999,0.008623319
0.4919999,0.008828706
0.4929999,0.009046356
0.4939999,0.00926707
0.4949999,0.009503113
0.4959999,0.009742221
0.4969999,0.009993589
0.4979999,0.01025109
0.4989999,0.01051779
0.4999999,0.01079368
0.5009999,0.01107264
0.5019999,0.01136079
0.5029999,0.01165202
0.5039999,0.01194937
0.5049999,0.01226205
0.5059999,0.01257166
0.5069999,0.01288741
0.5079999,0.01321235
0.5089999,0.01353729
0.5099999,0.01386836
0.5109999,0.01420863
0.5119999,0.01455196
0.5129999,0.01489836
0.5139999,0.01524783
0.5149999,0.01559729
0.5159999,0.01595595
0.5169999,0.01631461
0.5179999,0.01667634
0.5189999,0.0170442
0.5199999,0.01741206
0.5209999,0.01778298
0.5219999,0.01815697
0.5229999,0.01853709
0.5239999,0.01891721
0.5249999,0.01929733
0.5259999,0.01968664
0.5269999,0.02006983
0.5279999,0.02045608
0.5289999,0.02085153
0.5299999,0.02124085
0.5309999,0.02163323
0.5319999,0.02203787
0.5329999,0.02243025
0.5339999,0.02282877
0.5349999,0.02323647
0.5359999,0.02363499
0.5369999,0.02403657
0.5379999,0.02444427
0.5389999,0.02484892
0.5399999,0.02525663
0.5409999,0.02567047
0.5419999,0.02608124
0.5429999,0.02649508
0.5439999,0.02690892
0.5449999,0.02732583
0.5459999,0.02773354
0.5469999,0.02815657
0.5479999,0.02857961
0.5489999,0.02899345
0.5499999,0.02941955
0.5509999,0.02984259
0.5519999,0.03102385
0.5529999,0.03142237
0.5539999,0.03185153
0.5549999,0.0322807
0.5559999,0.03270987
0.5569999,0.03316969
0.5579999,0.0335682
0.5589999,0.03402802
0.5599999,0.03445719
0.5609999,0.03488636
0.5619999,0.03531553
0.5629999,0.03577535
0.5639999,0.03620452
0.5649999,0.03663369
0.5659999,0.03709351
0.5669999,0.03752267
0.5679999,0.03795184
0.5689999,0.03841167
0.5699999,0.03884083
0.5709999,0.03930065
0.5719999,0.03972982
0.5729999,0.04018965
0.5739999,0.04061881
0.5749999,0.04107863
0.5759999,0.0415078
0.5769999,0.04196763
0.5779999,0.0423968
0.5789999,0.04285662
0.5799999,0.04331644
0.5809999,0.0437456
0.5819999,0.04420543
0.5829999,0.04466525
0.5839999,0.04509442
0.5849999,0.04555424
0.5859999,0.04601406
0.5869999,0.04647389
0.5879999,0.04693371
0.5889999,0.04736288
0.5899999,0.0478227
0.5909999,0.04828252
0.5919999,0.04874234
0.5929999,0.04920216
0.5939999,0.04963133
0.5949999,0.05009115
0.5959999,0.05055097
0.5969999,0.0510108
0.5979999,0.05143997
0.5989999,0.05189979
0.5999999,0.05235961
0.6009999,0.05281943
0.6019999,0.05327926
0.6029999,0.05373908
0.6039999,0.0541989
0.6049999,0.05465872
0.6059999,0.05511854
0.6069999,0.05557837
0.6079999,0.05600753
0.6089999,0.05649801
0.6099999,0.05692718
0.6109999,0.057387
0.6119999,0.05787748
0.6129999,0.05830665
0.6139999,0.05879712
0.6149999,0.05925695
0.6159999,0.05971677
0.6169999,0.06017659
0.6179999,0.06063641
0.6189999,0.06109623
0.6199999,0.06155606
0.6209999,0.06204654
0.6219999,0.06247571
0.6229999,0.06296618
0.6239999,0.063426
0.6249999,0.06385517
0.6259999,0.06434565
0.6269999,0.06480547
0.6279999,0.06526529
0.6289999,0.06572511
0.6299999,0.06618494
0.6309999,0.06664476
0.6319999,0.06713524
0.6329999,0.06759506
0.6339999,0.06805488
0.6349999,0.0685147
0.6359999,0.06900518
0.6369999,0.069465
0.6379999,0.06992482
0.6389999,0.0704153
0.6399999,0.07087513
0.6409999,0.07133495
0.6419999,0.07179477
0.6429999,0.07225459
0.6439999,0.07274507
0.6449999,0.0732049
0.6459999,0.07366472
0.6469999,0.0741552
0.6479999,0.07461502
0.6489999,0.07507484
0.6499999,0.07556532
0.6509999,0.07602514
0.6519999,0.07648496
0.6529999,0.07697544
0.6539999,0.07746591
0.6549999,0.07792573
0.6559999,0.07838555
0.6569999,0.07887604
0.6579999,0.07933586
0.6589999,0.07982634
0.6599999,0.08028616
0.6609999,0.08074598
0.6619999,0.08120581
0.6629999,0.08169628
0.6639999,0.08215611
0.6649999,0.08261593
0.6659999,0.0831064
0.6669999,0.08359688
0.6679999,0.0840567
0.6689999,0.08454718
0.6699999,0.085007
0.6709999,0.08549748
0.6719999,0.0859573
0.6729999,0.08644778
0.6739999,0.0869076
0.6749999,0.08739807
0.6759999,0.08785789
0.6769999,0.08834838
0.6779999,0.0888082
0.6789999,0.08929868
0.6799999,0.0897585
0.6809999,0.09024898
0.6819999,0.0907088
0.6829999,0.09119927
0.6839999,0.09168976
0.6849999,0.09214958
0.6859999,0.09264006
0.6869999,0.09313053
0.6879999,0.09359035
0.6889999,0.09405018
0.6899999,0.09454065
0.6909999,0.09503113
0.6919999,0.09549095
0.6929999,0.09598143
0.6939999,0.09647191
0.6949999,0.09693173
0.6959999,0.0974222
0.6969999,0.09788202
0.6979999,0.09837251
0.6989999,0.09886298
0.6999999,0.0989856
0.6990002,0.09849513
0.6980002,0.0980353
0.6970002,0.09757548
0.6960002,0.09711566
0.6950002,0.09665584
0.6940002,0.09616536
0.6930002,0.09570553
0.6920002,0.09524571
0.6910002,0.09478589
0.6900002,0.09429541
0.6890002,0.09383559
0.6880002,0.09337576
0.6870002,0.09288529
0.6860002,0.09242547
0.6850002,0.09196565
0.6840002,0.09147517
0.6830002,0.091046
0.6820002,0.09055553
0.6810002,0.09006505
0.6800002,0.08963588
0.6790002,0.08914541
0.6780002,0.08868558
0.6770002,0.08822576
0.6760002,0.08776593
0.6750002,0.08730611
0.6740002,0.08684629
0.6730002,0.08638646
0.6720002,0.08589599
0.6710002,0.08543617
0.6700002,0.08497635
0.6690002,0.08448587
0.6680002,0.08402605
0.6670002,0.08356623
0.6660002,0.0831064
0.6650002,0.08264658
0.6640002,0.08218676
0.6630002,0.08172693
0.6620002,0.08126711
0.6610002,0.08080729
0.6600002,0.08031681
0.6590002,0.07985699
0.6580002,0.07942782
0.6570002,0.07893734
0.6560002,0.07847752
0.6550002,0.0780177
0.6540002,0.07755788
0.6530002,0.07709806
0.6520002,0.07663824
0.6510002,0.07614776
0.6500002,0.07571859
0.6490002,0.07525877
0.6480002,0.07479894
0.6470002,0.07433912
0.6460002,0.07387929
0.6450002,0.07338882
0.6440002,0.072929
0.6430002,0.07246917
0.6420002,0.07204001
0.6410002,0.07154953
0.6400002,0.07108971
0.6390002,0.07062989
0.6380002,0.07017007
0.6370002,0.06971025
0.6360002,0.06925042
0.6350002,0.0687906
0.6340002,0.06833078
0.6330002,0.06787095
0.6320002,0.06744178
0.6310002,0.06698196
0.6300002,0.06652214
0.6290002,0.06606232
0.6280002,0.0656025
0.6270002,0.06514268
0.6260002,0.06468286
0.6250002,0.06425368
0.6240002,0.06379386
0.6230002,0.06333404
0.6220002,0.06290487
0.6210002,0.06244505
0.6200002,0.06195457
0.6190002,0.0615254
0.6180002,0.06106558
0.6170002,0.06060576
0.6160002,0.06014594
0.6150002,0.05971677
0.6140002,0.05922629
0.6130002,0.05879712
0.6120002,0.0583373
0.6110002,0.05787748
0.6100002,0.05744831
0.6090002,0.05698849
0.6080002,0.05655932
0.6070002,0.0560995
0.6060002,0.05563968
0.6050002,0.05517985
0.6040002,0.05475069
0.6030002,0.05429087
0.6020002,0.05383104
0.6010002,0.05340188
0.6000002,0.05294205
0.5990002,0.05248223
0.5980002,0.05205306
0.5970002,0.05159324
0.5960002,0.05113342
0.5950002,0.05070425
0.5940002,0.05024443
0.5930002,0.04981526
0.5920002,0.0493861
0.5910002,0.04892627
0.5900002,0.0484971
0.5890002,0.04803728
0.5880002,0.04760811
0.5870002,0.04717895
0.5860002,0.04671912
0.5850002,0.04628995
0.5840002,0.04583013
0.5830002,0.04540097
0.5820002,0.0449718
0.5810002,0.04451197
0.5800002,0.04408281
0.5790002,0.04365364
0.5780002,0.04322447
0.5770002,0.04276465
0.5760002,0.04233548
0.5750002,0.04190632
0.5740002,0.04147715
0.5730002,0.04104798
0.5720002,0.04058816
0.5710002,0.04015899
0.5700002,0.03972982
0.5690002,0.03930065
0.5680002,0.03887149
0.5670002,0.03844232
0.5660002,0.03801315
0.5650002,0.03758398
0.5640002,0.03715482
0.5630002,0.03672565
0.5620002,0.03629648
0.5610002,0.03586731
0.5600002,0.03543815
0.5590002,0.03500898
0.5580002,0.03461047
0.5570002,0.0341813
0.5560002,0.03375213
0.5550002,0.03332296
0.5540002,0.03292445
0.5530002,0.03249529
0.5520002,0.03209677
0.5510002,0.0316676
0.5500002,0.03123844
0.5490002,0.03083992
0.5480002,0.03041076
0.5470002,0.02998159
0.5460002,0.02958308
0.5450002,0.02915391
0.5440002,0.02875539
0.5430002,0.02832623
0.5420002,0.02792772
0.5410002,0.0275292
0.5400002,0.02713069
0.5390002,0.02670152
0.5380002,0.02630301
0.5370002,0.0259045
0.5360002,0.02550598
0.5350002,0.02510747
0.5340002,0.02470896
0.5330002,0.02431045
0.5320002,0.02391193
0.5310002,0.02351342
0.5300002,0.02311491
0.5290002,0.02271639
0.5280002,0.02231788
0.5270002,0.02191937
0.5260002,0.02155151
0.5250002,0.021153
0.5240002,0.02075448
0.5230002,0.02038663
0.5220002,0.01998811
0.5210002,0.01962026
0.5200002,0.0192524
0.5190002,0.01885389
0.5180002,0.01848603
0.5170002,0.01811817
0.5160002,0.01775031
0.5150002,0.01738245
0.5140002,0.0170146
0.5130002,0.01664674
0.5120002,0.01627888
0.5110002,0.01591102
0.5100002,0.01554316
0.5090002,0.01520596
0.5080002,0.0148381
0.5070002,0.01447024
0.5060002,0.01410239
0.5050002,0.01376519
0.5040002,0.01342798
0.5030002,0.01306012
0.5020002,0.01224672
0.5010002,0.01191565
0.5000002,0.01157844
0.4990002,0.01125044
0.4980002,0.0109255
0.4970002,0.01060055
0.4960002,0.01028175
0.4950002,0.009962935
0.4940002,0.009650256
0.4930002,0.009337576
0.4920002,0.009027964
0.4910002,0.00872448
0.4900002,0.008420997
0.4890002,0.008123646
0.4880002,0.007832425
0.4870002,0.007538138
0.4860002,0.007256114
0.4850002,0.006971024
0.4840002,0.006688999
0.4830002,0.006419237
0.4820002,0.006143344
0.4810002,0.005873581
0.4800002,0.005613015
0.4790002,0.005349384
0.4780002,0.005098014
0.4770002,0.00484971
0.4760002,0.004601406
0.4750002,0.004362299
0.4740002,0.004123191
0.4730002,0.003890214
0.4720002,0.003666434
0.4710002,0.003439588
0.4700002,0.003225004
0.4690002,0.003010421
0.4680002,0.002801968
0.4670002,0.002599646
0.4660002,0.00240039
0.4650002,0.00221033
0.4640002,0.00202027
0.4630002,0.001839406
0.4620002,0.001664674
0.4610002,0.001489941
0.4600002,0.001318274
0.4590002,0.001161935
0.4580002,0.0009690108
0.4570002,0.0008178825
0.4560002,0.0006734983
0.4550002,0.0005269682
0.4540002,0.0003908607
0.4530002,0.000259045
0.4520002,0.0001284554
0.4510002,7.67538E-06
0.4500002,-0.0001166098
0.4490002,-0.0002308297
0.4480002,-0.0003398076
0.4470002,-0.0004472423
0.4460002,-0.0005462574
0.4450002,-0.00064282
0.4440002,-0.0007387697
0.4430002,-0.0008261359
0.4420002,-0.0009144219
0.4410002,-0.0009974964
0.4400002,-0.001075666
0.4390002,-0.001154143
0.4380002,-0.001225262
0.4370002,-0.001296688
0.4360002,-0.001365661
0.4350002,-0.001425744
0.4340002,-0.001491039
0.4330002,-0.001549896
0.4320002,-0.001605382
0.4310002,-0.001664852
0.4300002,-0.001715126
0.4290002,-0.001767239
0.4280002,-0.001819659
0.4270002,-0.001863495
0.4260002,-0.001911317
0.4250002,-0.001957299
0.4240002,-0.001997457
0.4230002,-0.002042519
0.4220002,-0.00208421
0.4210002,-0.002121609
0.4200002,-0.002162073
0.4190002,-0.002197939
0.4180002,-0.002235645
0.4170002,-0.002271511
0.4160002,-0.002306764
0.4150002,-0.002343243
0.4140002,-0.002373898
0.4130002,-0.002409151
0.4120002,-0.002443485
0.4110002,-0.002472606
0.4100002,-0.002513377
0.4090002,-0.00255047
0.4080002,-0.002575913
0.4070002,-0.002609634
0.4060002,-0.002637223
0.4050002,-0.002666345
0.4040002,-0.002699759
0.4030002,-0.002728268
0.4020002,-0.002759229
0.4010002,-0.002790191
0.4000002,-0.002817474
0.3990002,-0.002850274
0.3980002,-0.002879703
0.3970002,-0.002911584
0.3960002,-0.002943158
0.3950002,-0.002971361
0.3940002,-0.003003242
0.3930002,-0.002997925
0.3920002,-0.003025514
0.3910002,-0.003059235
0.3900002,-0.003089889
0.3890002,-0.003120545
0.3880002,-0.003154265
0.3870002,-0.003181854
0.3860002,-0.003215575
0.3850002,-0.003249295
0.3840002,-0.003276884
0.3830002,-0.00331367
0.3820002,-0.003344325
0.3810002,-0.003378045
0.3800002,-0.003414831
0.3790002,-0.00344242
0.3780002,-0.003479206
0.3770002,-0.003515992
0.3760002,-0.003546647
0.3750002,-0.003586498
0.3740002,-0.003617153
0.3730002,-0.003653938
0.3720002,-0.003690724
0.3710002,-0.00372751
0.3700002,-0.003764296
0.3690002,-0.003798016
0.3680002,-0.003834802
0.3670002,-0.003871588
0.3660002,-0.003908373
0.3650002,-0.003948225
0.3640002,-0.003988076
0.3630002,-0.004021796
0.3620002,-0.004064713
0.3610002,-0.004101499
0.3600002,-0.004138284
0.3590002,-0.004184267
0.3580002,-0.004221053
0.3570002,-0.004260904
0.3560002,-0.00430382
0.3550002,-0.004340607
0.3540002,-0.004380458
0.3530002,-0.004423374
0.3520002,-0.00446016
0.3510002,-0.004506143
0.3500002,-0.004545994
0.3490002,-0.004585845
0.3480002,-0.004631828
0.3470002,-0.004671679
0.3460002,-0.004714595
0.3450002,-0.004757512
0.3440002,-0.004800429
0.3430002,-0.004843346
0.3420002,-0.004886262
0.3410002,-0.004929179
0.3400002,-0.004975162
0.3390002,-0.005018078
0.3380002,-0.00506406
0.3370002,-0.005106977
0.3360002,-0.005146828
0.3350002,-0.005195876
0.3340002,-0.005235727
0.3330002,-0.00528171
0.3320002,-0.005327692
0.3310002,-0.005367543
0.3300002,-0.005413526
0.3290002,-0.005459507
0.3280002,-0.005499359
0.3270002,-0.005545341
0.3260002,-0.005591323
0.3250002,-0.00563424
0.3240002,-0.005680223
0.3230002,-0.005723139
0.3220002,-0.005769121
0.3210002,-0.005808973
0.3200002,-0.005854954
0.3190002,-0.005900937
0.3180002,-0.005940788
0.3170002,-0.00598064
0.3160002,-0.006026622
0.3150002,-0.006063408
0.3140002,-0.00610939
0.3130002,-0.006149241
0.3120002,-0.006189092
0.3110002,-0.006232009
0.3100002,-0.006268795
0.3090002,-0.006311711
0.3080002,-0.006348498
0.3070002,-0.00639448
0.3060002,-0.006431265
0.3050002,-0.006468052
0.3040002,-0.006501772
0.3030002,-0.006541623
0.3020002,-0.006572278
0.3010002,-0.006609064
0.3000002,-0.006642784
0.2990002,-0.006673439
0.2980002,-0.006707159
0.2970002,-0.006737814
0.2960002,-0.006762337
0.2950002,-0.006792993
0.2940002,-0.006820582
0.2930002,-0.006845106
0.2920002,-0.006872695
0.2910002,-0.006894153
0.2900002,-0.006915612
0.2890002,-0.00693707
0.2880002,-0.006955463
0.2870002,-0.006973856
0.2860002,-0.006986118
0.2850002,-0.007001445
0.2840002,-0.007013707
0.2830002,-0.007019838
0.2820002,-0.00702597
0.2810002,-0.007029035
0.2800002,-0.00702597
0.2790002,-0.00702597
0.2780002,-0.007016772
0.2770002,-0.007004511
0.2760002,-0.006992249
0.2750002,-0.006970791
0.2740002,-0.006943201
0.2730002,-0.006912547
0.2720002,-0.006869629
0.2710002,-0.006823647
0.2700002,-0.006765403
0.2690002,-0.006697963
0.2680002,-0.006615194
0.2670002,-0.006510968
0.2660002,-0.006388349
0.2650002,-0.006244271
0.2640002,-0.006072604
0.2630002,-0.005873348
0.2620002,-0.005646502
0.2610002,-0.005398198
0.2600002,-0.005128435
0.2590002,-0.004849477
0.2580002,-0.004570518
0.2570002,-0.004294624
0.2560002,-0.004030993
0.2550002,-0.003785754
0.2540002,-0.003555843
0.2530002,-0.003350456
0.2520002,-0.003163461
0.2510002,-0.002991794
0.2500002,-0.002841586
0.2490002,-0.002703639
0.2480002,-0.002584085
0.2470002,-0.002473728
0.2460002,-0.002375632
0.2450002,-0.002289799
0.2440002,-0.002210096
0.2430002,-0.002136525
0.2420002,-0.002069084
0.2410002,-0.002007774
0.2400002,-0.001952596
0.2390002,-0.001897417
0.2380002,-0.001848369
0.2370002,-0.001802387
0.2360002,-0.001756405
0.2350002,-0.001713488
0.2340002,-0.001676702
0.2330002,-0.001636851
0.2320002,-0.001600065
0.2310002,-0.001604462
0.2300002,-0.001571968
0.2290002,-0.001541006
0.2280002,-0.001511885
0.2270002,-0.001483376
0.2260002,-0.001456399
0.2250002,-0.001430649
0.2240002,-0.001405512
0.2230002,-0.001381908
0.2220002,-0.001358917
0.2210002,-0.001336539
0.2200002,-0.001315387
0.2190002,-0.001294542
0.2180002,-0.001274616
0.2170002,-0.001255304
0.2160002,-0.001236604
0.2150002,-0.001218824
0.2140002,-0.001201658
0.2130002,-0.001184797
0.2120002,-0.001168244
0.2110002,-0.001152303
0.2100002,-0.001136976
0.2090002,-0.001121955
0.2080002,-0.001107241
0.2070002,-0.00109314
0.2060002,-0.001079651
0.2050002,-0.00106647
0.2040002,-0.001053288
0.2030002,-0.00104072
0.2020002,-0.001028458
0.2010002,-0.001016502
0.2000002,-0.001004547
0.1990002,-0.0009932048
0.1980002,-0.0009821691
0.1970002,-0.0009711333
0.1960002,-0.0009607106
0.1950002,-0.000950288
0.1940002,-0.0009401719
0.1930002,-0.0009303623
0.1920002,-0.0009205528
0.1910002,-0.0009113564
0.1900002,-0.0009021599
0.1890002,-0.0008929634
0.1880002,-0.0008843801
0.1870002,-0.0008754902
0.1860002,-0.0008672134
0.1850002,-0.0008589366
0.1840002,-0.0008506598
0.1830002,-0.0008426895
0.1820002,-0.0008350258
0.1810002,-0.0008273621
0.1800002,-0.000820005
0.1790002,-0.0008126478
0.1780002,-0.0008052906
0.1770002,-0.0007985466
0.1760002,-0.000791496
0.1750002,-0.0007847519
0.1740002,-0.0007780078
0.1730002,-0.0007712637
0.1720002,-0.0007651328
0.1710002,-0.0007586953
0.1700002,-0.0007525643
0.1690002,-0.0007467399
0.1680002,-0.000740609
0.1670002,-0.0007347845
0.1660002,-0.0007289601
0.1650002,-0.0007234422
0.1640002,-0.0007179244
0.1630002,-0.0007121
0.1620002,-0.0007068887
0.1610002,-0.0007013708
0.1600002,-0.000696466
0.1590002,-0.0006912547
0.1580002,-0.0006860433
0.1570002,-0.0006811386
0.1560002,-0.0006762338
0.1550002,-0.000671329
0.1540002,-0.0006667308
0.1530002,-0.0006621326
0.1520002,-0.0006572278
0.1510002,-0.0006529361
0.1500002,-0.0006483379
0.1490002,-0.0006437397
0.1480002,-0.0006397546
0.1470002,-0.0006354629
0.1460002,-0.0006311712
0.1450002,-0.0006271861
0.1440002,-0.0006228944
0.1430002,-0.0006189093
0.1420002,-0.0006149242
0.1410002,-0.0006109391
0.1400002,-0.0006072604
0.1390002,-0.0006032753
0.1380002,-0.0005995968
0.1370002,-0.0005959182
0.1360002,-0.000591933
0.1350002,-0.000588561
0.1340002,-0.0005848824
0.1330002,-0.0005815104
0.1320002,-0.0005781384
0.1310002,-0.0005744598
0.1300002,-0.0005710878
0.1290002,-0.0005677157
0.1280002,-0.0005646503
0.1270002,-0.0005609716
0.1260002,-0.0005579062
0.1250002,-0.0005545341
0.1240002,-0.0005517752
0.1230002,-0.0005484032
0.1220002,-0.0005453377
0.1210002,-0.0005422722
0.1200002,-0.0005395133
0.1190002,-0.0005364478
0.1180002,-0.0005336889
0.1170002,-0.0005306234
0.1160002,-0.0005278645
0.1150002,-0.0005251055
0.1140002,-0.0005223466
0.1130002,-0.0005195877
0.1120002,-0.0005165222
0.1110002,-0.0005140697
0.1100002,-0.0005113108
0.1090002,-0.0005088585
0.1080002,-0.0005060995
0.1070002,-0.0005036471
0.1060002,-0.0005008882
0.1050002,-0.0004984358
0.1040002,-0.0004959835
0.1030002,-0.0004938376
0.1020002,-0.0004910787
0.1010002,-0.0004886262
0.1000002,-0.0004864805
0.09900019,-0.0004840281
0.09800019,-0.0004815757
0.09700019,-0.0004794298
0.09600019,-0.000477284
0.09500019,-0.0004748316
0.09400019,-0.0004723792
0.09300019,-0.0004702334
0.09200019,-0.0004680876
0.09100019,-0.0004659417
0.09000019,-0.0004641024
0.08900019,-0.0004619566
0.08800019,-0.0004595042
0.08700019,-0.0004576649
0.08600019,-0.0004555191
0.08500019,-0.0004536798
0.08400019,-0.0004515339
0.08300019,-0.0004496947
0.08200019,-0.0004475488
0.08100019,-0.0004457095
0.08000019,-0.0004435637
0.07900019,-0.0004420309
0.07800019,-0.0004401917
0.07700019,-0.0004383524
0.07600019,-0.000436513
0.07500019,-0.0004343672
0.07400019,-0.0004325279
0.07300019,-0.0004309952
0.07200019,-0.0004291559
0.07100019,-0.0004273166
0.07000019,-0.0004257839
0.06900019,-0.0004239446
0.06800019,-0.0004221053
0.06700019,-0.0004205726
0.06600019,-0.0004187333
0.06500019,-0.0004172005
0.06400019,-0.0004153613
0.06300019,-0.0004138285
0.06200019,-0.0004122957
0.06100019,-0.0004104565
0.06000019,-0.0004089237
0.05900019,-0.000407391
0.05800019,-0.0004058582
0.05700019,-0.0004043255
0.05600019,-0.0004024862
0.05500019,-0.0004009535
0.05400019,-0.0003994207
0.05300019,-0.0003981945
0.05200019,-0.0003966618
0.05100019,-0.0003954356
0.05000019,-0.0003935963
0.04900019,-0.0003920636
0.04800019,-0.0003908373
0.04700019,-0.0003896112
0.04600019,-0.0003880784
0.04500019,-0.0003865457
0.04400019,-0.0003853195
0.04300019,-0.0003837868
0.04200019,-0.0003825606
0.04100019,-0.0003813344
0.04000019,-0.0003798016
0.03900019,-0.0003782689
0.03800019,-0.0003773492
0.03700019,-0.0003758165
0.03600019,-0.0003745903
0.03500019,-0.0003733641
0.03400019,-0.0003718314
0.03300019,-0.0003706052
0.03200019,-0.000369379
0.03100019,-0.0003681528
0.03000019,-0.0003669266
0.02900019,-0.0003657004
0.02800019,-0.0003644742
0.02700019,-0.0003632481
0.02600019,-0.0003623284
0.02500019,-0.0003611022
0.02400019,-0.0003595694
0.02300019,-0.0003586498
0.02200019,-0.0003574236
0.02100019,-0.0003561974
0.02000019,-0.0003549712
0.01900019,-0.0003540516
0.01800019,-0.0003528254
0.01700019,-0.0003519058
0.01600019,-0.0003506796
0.01500019,-0.0003494534
0.01400019,-0.0003485337
0.01300019,-0.0003473075
0.01200019,-0.0003463879
0.01100019,-0.0003454682
0.01000019,-0.000344242
0.009000191,-0.0003430158
0.00800019,-0.0003420962
0.007000191,-0.0003411766
0.006000191,-0.0003402569
0.005000191,-0.0003390307
0.004000191,-0.0003381111
0.003000191,-0.0003371914
0.002000191,-0.0003359652
0.001000191,-0.0003350456
1.907349E-07,-0.0003307539
0.0009998092,-0.0003258491
0.001999809,-0.000321864
0.002999809,-0.0003181854
0.003999809,-0.0003148134
0.004999809,-0.0003117479
0.005999809,-0.0003086824
0.006999809,-0.000305617
0.007999809,-0.0003031646
0.00899981,-0.0003004056
0.009999809,-0.0002976467
0.01099981,-0.0002951943
0.01199981,-0.0002927419
0.01299981,-0.0002902895
0.01399981,-0.0002878372
0.01499981,-0.0002856913
0.01599981,-0.0002835455
0.01699981,-0.0002810931
0.01799981,-0.0002789472
0.01899981,-0.000277108
0.01999981,-0.0002749621
0.02099981,-0.0002731228
0.02199981,-0.000270977
0.02299981,-0.0002688312
0.02399981,-0.0002669919
0.02499981,-0.0002654591
0.02599981,-0.0002633133
0.02699981,-0.000261474
0.02799981,-0.0002596347
0.02899981,-0.0002577954
0.02999981,-0.0002562627
0.03099981,-0.0002544234
0.03199981,-0.0002528907
0.03299981,-0.0002510514
0.03399981,-0.0002495186
0.03499981,-0.0002479859
0.03599981,-0.0002461466
0.03699981,-0.0002446139
0.03799981,-0.0002430811
0.03899981,-0.0002415484
0.03999981,-0.0002400156
0.04099981,-0.0002384829
0.04199981,-0.0002369501
0.04299981,-0.0002354174
0.04399981,-0.0002341912
0.04499981,-0.0002326585
0.04599981,-0.0002311257
0.04699981,-0.000229593
0.04799981,-0.0002283668
0.04899981,-0.0002268341
0.04999981,-0.0002256079
0.05099981,-0.0002243817
0.05199981,-0.0002228489
0.05299981,-0.0002216227
0.05399981,-0.00022009
0.05499981,-0.0002188638
0.05599981,-0.0002176376
0.05699981,-0.0002164114
0.05799981,-0.0002151852
0.05899981,-0.0002136525
0.05999981,-0.0002124263
0.06099981,-0.0002112001
0.06199981,-0.0002099739
0.06299981,-0.0002087477
0.06399981,-0.0002075215
0.06499981,-0.0002062953
0.06599981,-0.0002053757
0.06699981,-0.0002041495
0.06799981,-0.0002029233
0.06899981,-0.0002016971
0.06999981,-0.0002007774
0.07099981,-0.0001995512
0.07199981,-0.0001983251
0.07299981,-0.0001970989
0.07399981,-0.0001961792
0.07499981,-0.000194953
0.07599981,-0.0001937268
0.07699981,-0.0001928072
0.07799981,-0.000191581
0.07899981,-0.0001906613
0.07999981,-0.0001897417
0.08099981,-0.0001885155
0.08199981,-0.0001872893
0.08299981,-0.0001863697
0.08399981,-0.0001851435
0.08499981,-0.0001842238
0.08599981,-0.0001833042
0.08699981,-0.0001823845
0.08799981,-0.0001811584
0.08899981,-0.0001802387
0.08999981,-0.0001793191
0.09099981,-0.0001783994
0.09199981,-0.0001771732
0.09299981,-0.0001762536
0.09399981,-0.0001753339
0.09499981,-0.0001744143
0.09599981,-0.0001731881
0.09699981,-0.0001722685
0.09799981,-0.0001713488
0.09899981,-0.0001704292
0.09999981,-0.0001695095
0.1009998,-0.0001685899
0.1019998,-0.0001676702
0.1029998,-0.0001667506
0.1039998,-0.0001658309
0.1049998,-0.0001646047
0.1059998,-0.0001636851
0.1069998,-0.000163072
0.1079998,-0.0001621524
0.1089998,-0.0001612327
0.1099998,-0.0001603131
0.1109998,-0.0001628986
0.1119998,-0.0001619789
0.1129998,-0.0001610899
0.1139998,-0.0001601703
0.1149998,-0.0001593426
0.1159998,-0.0001584843
0.1169998,-0.0001576873
0.1179998,-0.0001569209
0.1189998,-0.0001560319
0.1199998,-0.0001552655
0.1209998,-0.0001542846
0.1219998,-0.0001534569
0.1229998,-0.0001526599
0.1239998,-0.0001518322
0.1249998,-0.0001510658
0.1259998,-0.0001503608
0.1269998,-0.0001494411
0.1279998,-0.0001486134
0.1289998,-0.0001477858
0.1299998,-0.0001469581
0.1309998,-0.000146253
0.1319998,-0.0001454866
0.1329998,-0.0001447203
0.1339998,-0.0001439846
0.1349998,-0.0001431569
0.1359998,-0.0001422985
0.1369998,-0.0001415015
0.1379998,-0.0001407658
0.1389998,-0.0001399994
0.1399998,-0.0001392944
0.1409998,-0.00013862
0.1419998,-0.0001378229
0.1429998,-0.0001369953
0.1439998,-0.0001361982
0.1449998,-0.0001354625
0.1459998,-0.0001347268
0.1469998,-0.0001340524
0.1479998,-0.0001332554
0.1489998,-0.0001326116
0.1499998,-0.0001318759
0.1509998,-0.0001310789
0.1519998,-0.0001303125
0.1529998,-0.0001296074
0.1539998,-0.0001288717
0.1549998,-0.0001281973
0.1559998,-0.0001275229
0.1569998,-0.0001268179
0.1579998,-0.0001260208
0.1589998,-0.0001252544
0.1599998,-0.0001245187
0.1609998,-0.0001239056
0.1619998,-0.0001232619
0.1629998,-0.0001225262
0.1639998,-0.0001217291
0.1649998,-0.0001210241
0.1659998,-0.0001203497
0.1669998,-0.0001196753
0.1679998,-0.0001190928
0.1689998,-0.0001183265
0.1699998,-0.0001175294
0.1709998,-0.000116855
0.1719998,-0.0001161806
0.1729998,-0.0001155369
0.1739998,-0.0001149544
0.1749998,-0.0001142187
0.1759998,-0.0001135137
0.1769998,-0.0001127473
0.1779998,-0.0001120422
0.1789998,-0.0001114291
0.1799998,-0.0001107547
0.1809998,-0.0001101416
0.1819998,-0.0001094059
0.1829998,-0.0001086089
0.1839998,-0.0001079345
0.1849998,-0.0001073214
0.1859998,-0.000106647
0.1869998,-0.0001060032
0.1879998,-0.0001053288
0.1889998,-0.0001046544
0.1899998,-0.00010398
0.1909998,-0.000103183
0.1919998,-0.0001024779
0.1929998,-0.0001018035
0.1939998,-0.0001011598
0.1949998,-0.0001004854
0.1959998,-9.981095E-05
0.1969998,-9.919784E-05
0.1979998,-9.846213E-05
0.1989998,-9.763445E-05
0.1999998,-9.689873E-05
0.2009998,-9.622433E-05
0.2019998,-9.542731E-05
0.2029998,-9.487552E-05
0.2039998,-9.410914E-05
0.2049998,-9.340408E-05
0.2059998,-9.272968E-05
0.2069998,-9.196331E-05
0.2079998,-9.119694E-05
0.2089998,-9.03386E-05
0.2099998,-8.966419E-05
0.2109998,-8.892849E-05
0.2119998,-8.81008E-05
0.2129998,-8.742639E-05
0.2139998,-8.669068E-05
0.2149998,-8.5863E-05
0.2159998,-8.515793E-05
0.2169998,-8.420764E-05
0.2179998,-8.331865E-05
0.2189998,-8.261359E-05
0.2199998,-8.169394E-05
0.2209998,-8.089692E-05
0.2219998,-8.013054E-05
0.2229998,-7.927221E-05
0.2239998,-7.844453E-05
0.2249998,-7.761685E-05
0.2259998,-7.660524E-05
0.2269998,-7.57469E-05
0.2279998,-7.470464E-05
0.2289998,-7.375435E-05
0.2299998,-7.301863E-05
0.2309998,-7.188439E-05
0.2319998,-7.09954E-05
0.2329998,-7.013707E-05
0.2339998,-6.906415E-05
0.2349998,-6.799123E-05
0.2359998,-6.682635E-05
0.2369998,-6.575343E-05
0.2379998,-6.480313E-05
0.2389998,-6.366891E-05
0.2399998,-6.265729E-05
0.2409998,-6.14311E-05
0.2419998,-6.026622E-05
0.2429998,-5.894806E-05
0.2439998,-5.762991E-05
0.2449998,-5.649568E-05
0.2459998,-5.526948E-05
0.2469998,-5.395133E-05
0.2479998,-5.266382E-05
0.2489998,-5.12537E-05
0.2499998,-4.959834E-05
0.2509998,-4.837215E-05
0.2519998,-4.680875E-05
0.2529998,-4.539863E-05
0.2539998,-4.401916E-05
0.2549998,-4.230249E-05
0.2559998,-4.052451E-05
0.2569998,-3.886915E-05
0.2579998,-3.706052E-05
0.2589998,-3.549712E-05
0.2599998,-3.365783E-05
0.2609998,-3.172658E-05
0.2619998,-2.973401E-05
0.2629998,-2.771079E-05
0.2639998,-2.574889E-05
0.2649998,-2.372567E-05
0.2659998,-2.151852E-05
0.2669998,-1.934203E-05
0.2679998,-1.682833E-05
0.2689998,-1.437595E-05
0.2699998,-1.204618E-05
0.2709998,-9.37921E-06
0.2719998,-6.80832E-06
0.2729998,-4.199595E-06
0.2739998,-1.262862E-06
0.2749998,1.689198E-06
0.2759998,4.800662E-06
0.2769998,7.752722E-06
0.2779998,1.077529E-05
0.2789998,1.4273E-05
0.2799998,1.759598E-05
0.2809998,2.118365E-05
0.2819998,2.492354E-05
0.2829998,2.869408E-05
0.2839998,3.286314E-05
0.2849998,3.687892E-05
0.2859998,4.101732E-05
0.2869998,4.555424E-05
0.2879998,5.018312E-05
0.2889998,5.484265E-05
0.2899998,6.002332E-05
0.2909998,6.517333E-05
0.2919998,7.084447E-05
0.2929998,7.633169E-05
0.2939998,8.203348E-05
0.2949998,8.834837E-05
0.2959998,9.441803E-05
0.2969998,0.0001010701
0.2979998,0.0001082433
0.2989998,0.0001151407
0.2999998,0.0001230803
0.3009998,0.0001308666
0.3019998,0.0001388675
0.3029998,0.0001476041
0.3039998,0.0001564021
0.3049998,0.0001656598
0.3059998,0.0001757146
0.3069998,0.0001862292
0.3079998,0.000197173
0.3089998,0.0002083007
0.3099998,0.0002201335
0.3109998,0.0002327633
0.3119998,0.0002454237
0.3129998,0.000259249
0.3139998,0.0002737181
0.3149998,0.0002884324
0.3159998,0.0003083992
0.3169998,0.0003243398
0.3179998,0.000341813
0.3189998,0.000360819
0.3199998,0.0003801315
0.3209998,0.0004012834
0.3219998,0.0004233549
0.3229998,0.0004457328
0.3239998,0.0004708698
0.3249998,0.0004963133
0.3259998,0.0005235961
0.3269998,0.0005533313
0.3279998,0.000583373
0.3289998,0.0006161737
0.3299998,0.0006511202
0.3309998,0.0006872929
0.3319998,0.0007274507
0.3329998,0.0007688347
0.3339998,0.0008132842
0.3349998,0.0008614123
0.3359998,0.0009116862
0.3369998,0.0009668649
0.3379998,0.001025109
0.3389998,0.001087645
0.3399998,0.001155699
0.3409998,0.001227124
0.3419998,0.001304988
0.3429998,0.001389288
0.3439998,0.001478187
0.3449998,0.001576589
0.3459998,0.001682042
0.3469998,0.001794239
0.3479998,0.001918391
0.3489998,0.00204898
0.3499998,0.002190912
0.3509998,0.002344799
0.3519998,0.002507883
0.3529998,0.002683535
0.3539998,0.00286961
0.3549998,0.003063962
0.3559998,0.003298576
0.3569998,0.003503963
0.3579998,0.003721613
0.3589998,0.003945393
0.3599998,0.004163042
0.3609998,0.004380691
0.3619998,0.00459834
0.3629998,0.004806793
0.3639998,0.005012181
0.3649998,0.005211437
0.3659998,0.005401497
0.3669998,0.005588491
0.3679998,0.005763224
0.3689998,0.005931825
0.3699998,0.006094296
0.3709998,0.00624757
0.3719998,0.006400844
0.3729998,0.006538791
0.3739998,0.006673672
0.3749998,0.006802422
0.3759998,0.006925041
0.3769998,0.007044595
0.3779998,0.007158018
0.3789998,0.007262245
0.3799998,0.007366471
0.3809998,0.007461501
0.3819998,0.007553466
0.3829998,0.007642365
0.3839998,0.007722067
0.3849998,0.007804835
0.3859998,0.007881473
0.3869998,0.007955044
0.3879998,0.008028615
0.3889998,0.008092991
0.3899998,0.008157366
0.3909998,0.008221741
0.3919998,0.008283051
0.3929998,0.008344361
0.3939998,0.008402605
0.3949998,0.008457784
0.3959998,0.008516028
0.3969998,0.008568141
0.3979998,0.008623319
0.3989998,0.008675433
0.3999998,0.008718349
0.4009998,0.008767396
0.4019998,0.008813379
0.4029998,0.008856296
0.4039998,0.008902278
0.4049998,0.008939064
0.4059998,0.008975849
0.4069998,0.009012635
0.4079998,0.00904329
0.4089998,0.009080076
0.4099998,0.009116862
0.4109998,0.00913832
0.4119998,0.009162844
0.4129998,0.009178172
0.4139998,0.009196565
0.4149998,0.009211891
0.4159998,0.009218022
0.4169998,0.009230284
0.4179998,0.009230284
0.4189998,0.009230284
0.4199998,0.00923335
0.4209998,0.009218022
0.4219998,0.009208826
0.4229998,0.00919963
0.4239998,0.009178172
0.4249998,0.009156713
0.4259998,0.009132189
0.4269998,0.009101534
0.4279998,0.00907088
0.4289998,0.009034094
0.4299998,0.008991177
0.4309998,0.00894826
0.4319998,0.008902278
0.4329998,0.008853231
0.4339998,0.008798052
0.4349998,0.008739808
0.4359998,0.008681564
0.4369998,0.008614123
0.4379998,0.008552813
0.4389998,0.008485372
0.4399998,0.008408736
0.4409998,0.008341295
0.4419998,0.008264658
0.4429998,0.00818802
0.4439998,0.008114449
0.4449998,0.008031681
0.4459998,0.007951979
0.4469998,0.007872276
0.4479998,0.007789508
0.4489998,0.007709805
0.4499998,0.007627037
0.4509998,0.007544269
0.4519998,0.007467632
0.4529998,0.007381798
0.4539998,0.007305162
0.4549998,0.007234655
0.4559998,0.007154953
0.4569998,0.007087512
0.4579998,0.007023137
0.4589998,0.006949566
0.4599998,0.006888256
0.4609998,0.006836143
0.4619998,0.006777898
0.4629998,0.006728851
0.4639998,0.006685934
0.4649998,0.006649148
0.4659998,0.006612363
0.4669998,0.006587839
0.4679998,0.006572511
0.4689998,0.006554118
0.4699998,0.006547987
0.4709998,0.006554118
0.4719998,0.006560249
0.4729998,0.006581707
0.4739998,0.006609297
0.4749998,0.006643017
0.4759998,0.00669513
0.4769998,0.006747244
0.4779998,0.006814685
0.4789998,0.006891321
0.4799998,0.006977155
0.4809998,0.007078316
0.4819998,0.007185608
0.4829998,0.007302096
0.4839998,0.007433912
0.4849998,0.007571859
0.4859998,0.007722067
0.4869998,0.007887604
0.4879998,0.008053139
0.4889998,0.008237069
0.4899998,0.008430193
0.4909998,0.00862945
0.4919998,0.008844034
0.4929998,0.009061683
0.4939998,0.009291595
0.4949998,0.009530702
0.4959998,0.009772875
0.4969998,0.01003038
0.4979998,0.01029094
0.4989998,0.0105607
0.4999998,0.01084273
0.5009998,0.01112169
0.5019998,0.01141291
0.5029998,0.01171026
0.5039998,0.01200761
0.5049998,0.01232029
0.5059998,0.01263604
0.5069998,0.01294871
0.5079998,0.01327979
0.5089998,0.01360473
0.5099998,0.01393887
0.5109998,0.01427913
0.5119998,0.01462553
0.5129998,0.01497193
0.5139998,0.0153214
0.5149998,0.01567393
0.5159998,0.01602952
0.5169998,0.01638819
0.5179998,0.01675298
0.5189998,0.01712084
0.5199998,0.01748869
0.5209998,0.01786575
0.5219998,0.01823667
0.5229998,0.01861066
0.5239998,0.01899691
0.5249998,0.01937397
0.5259998,0.01976328
0.5269998,0.0201526
0.5279998,0.02053272
0.5289998,0.02092816
0.5299998,0.02132055
0.5309998,0.02171293
0.5319998,0.02211451
0.5329998,0.02250996
0.5339998,0.02290847
0.5349998,0.02331004
0.5359998,0.02371162
0.5369998,0.0241132
0.5379998,0.02451785
0.5389998,0.02492556
0.5399998,0.02533326
0.5409998,0.02574097
0.5419998,0.02615481
0.5429998,0.02656559
0.5439998,0.02697943
0.5449998,0.02739633
0.5459998,0.02781017
0.5469998,0.02822708
0.5479998,0.02864705
0.5489998,0.02906089
0.5499998,0.02948393
0.5509998,0.02991003
0.5519998,0.03108516
0.5529998,0.03148368
0.5539998,0.0319435
0.5549998,0.03234201
0.5559998,0.03280183
0.5569998,0.033231
0.5579998,0.03366017
0.5589998,0.03408933
0.5599998,0.0345185
0.5609998,0.03494767
0.5619998,0.03537684
0.5629998,0.03583666
0.5639998,0.03626583
0.5649998,0.036695
0.5659998,0.03712416
0.5669998,0.03758398
0.5679998,0.03801315
0.5689998,0.03847298
0.5699998,0.03890214
0.5709998,0.03933131
0.5719998,0.03979113
0.5729998,0.0402203
0.5739998,0.04068012
0.5749998,0.04110929
0.5759998,0.04156911
0.5769998,0.04199828
0.5779998,0.0424581
0.5789998,0.04288727
0.5799998,0.04334709
0.5809998,0.04380691
0.5819998,0.04423608
0.5829998,0.04469591
0.5839998,0.04512507
0.5849998,0.04558489
0.5859998,0.04604472
0.5869998,0.04650454
0.5879998,0.04696436
0.5889998,0.04739353
0.5899998,0.04785335
0.5909998,0.04828252
0.5919998,0.04874234
0.5929998,0.04920216
0.5939998,0.04966199
0.5949998,0.05009115
0.5959998,0.05055097
0.5969998,0.0510108
0.5979998,0.05147062
0.5989998,0.05193045
0.5999998,0.05235961
0.6009998,0.05281943
0.6019998,0.05330991
0.6029998,0.05373908
0.6039998,0.05422956
0.6049998,0.05468938
0.6059998,0.0551492
0.6069998,0.05560903
0.6079998,0.05606885
0.6089998,0.05652867
0.6099998,0.05698849
0.6109998,0.05744831
0.6119998,0.05790814
0.6129998,0.05836796
0.6139998,0.05882778
0.6149998,0.0592876
0.6159998,0.05974742
0.6169998,0.06020725
0.6179998,0.06066707
0.6189998,0.06112689
0.6199998,0.06158672
0.6209998,0.06207719
0.6219998,0.06253701
0.6229998,0.06299683
0.6239998,0.06345665
0.6249998,0.06391648
0.6259998,0.0643763
0.6269998,0.06486678
0.6279998,0.0653266
0.6289998,0.06578642
0.6299998,0.06624625
0.6309998,0.06670607
0.6319998,0.0671659
0.6329998,0.06765637
0.6339998,0.06811619
0.6349998,0.06857602
0.6359998,0.06906649
0.6369998,0.06952631
0.6379998,0.06998613
0.6389998,0.07047661
0.6399998,0.07093643
0.6409998,0.07139625
0.6419998,0.07185608
0.6429998,0.0723159
0.6439998,0.07280638
0.6449998,0.0732662
0.6459998,0.07372602
0.6469998,0.07421651
0.6479998,0.07467633
0.6489998,0.07516681
0.6499998,0.07562663
0.6509998,0.07608645
0.6519998,0.07657693
0.6529998,0.07703675
0.6539998,0.07752723
0.6549998,0.0780177
0.6559998,0.07847752
0.6569998,0.07893734
0.6579998,0.07939716
0.6589998,0.07985699
0.6599998,0.08034747
0.6609998,0.08080729
0.6619998,0.08129777
0.6629998,0.08175759
0.6639998,0.08221742
0.6649998,0.08270789
0.6659998,0.08316771
0.6669998,0.08362754
0.6679998,0.08411801
0.6689998,0.08460849
0.6699998,0.08506831
0.6709998,0.08555879
0.6719998,0.08604927
0.6729998,0.08650909
0.6739998,0.08696891
0.6749998,0.08745939
0.6759998,0.08791921
0.6769998,0.08837903
0.6779998,0.0888695
0.6789998,0.08932933
0.6799998,0.08981981
0.6809998,0.09031029
0.6819998,0.09077011
0.6829998,0.09122993
0.6839998,0.09172041
0.6849998,0.09218023
0.6859998,0.09267071
0.6869998,0.09313053
0.6879998,0.09362101
0.6889998,0.09408083
0.6899998,0.09457131
0.6909998,0.09503113
0.6919998,0.09552161
0.6929998,0.09598143
0.6939998,0.09647191
0.6949998,0.09693173
0.6959998,0.0974222
0.6969998,0.09788202
0.6979998,0.09837251
0.6989998,0.09886298
0.6999998,0.0989856
0.6990003,0.09852578
0.6980003,0.09806596
0.6970003,0.09757548
0.6960003,0.09711566
0.6950003,0.09665584
0.6940003,0.09619602
0.6930003,0.09570553
0.6920003,0.09524571
0.6910003,0.09478589
0.6900003,0.09432607
0.6890003,0.09383559
0.6880003,0.09340642
0.6870003,0.09291594
0.6860003,0.09245612
0.6850003,0.0919963
0.6840003,0.09150583
0.6830003,0.09107666
0.6820003,0.09058618
0.6810003,0.09012636
0.6800003,0.08966654
0.6790003,0.08920672
0.6780003,0.08871623
0.6770003,0.08825641
0.6760003,0.08779659
0.6750003,0.08733677
0.6740003,0.08687695
0.6730003,0.08641712
0.6720003,0.08592664
0.6710003,0.08546682
0.6700003,0.085007
0.6690003,0.08454718
0.6680003,0.0840567
0.6670003,0.08362754
0.6660003,0.08313706
0.6650003,0.08270789
0.6640003,0.08224807
0.6630003,0.08175759
0.6620003,0.08129777
0.6610003,0.08086859
0.6600003,0.08040877
0.6590003,0.07994895
0.6580003,0.07948913
0.6570003,0.07899866
0.6560003,0.07853883
0.6550003,0.07807901
0.6540003,0.07761919
0.6530003,0.07712871
0.6520003,0.07669955
0.6510003,0.07620906
0.6500003,0.07574924
0.6490003,0.07528942
0.6480003,0.0748296
0.6470003,0.07436978
0.6460003,0.07390995
0.6450003,0.07345013
0.6440003,0.07299031
0.6430003,0.07253049
0.6420003,0.07207067
0.6410003,0.07161084
0.6400003,0.07115102
0.6390003,0.0706912
0.6380003,0.07023137
0.6370003,0.06980221
0.6360003,0.06931173
0.6350003,0.06885191
0.6340003,0.06842274
0.6330003,0.06793226
0.6320003,0.06750309
0.6310003,0.06704327
0.6300003,0.06658345
0.6290003,0.06612363
0.6280003,0.06569446
0.6270003,0.06523464
0.6260003,0.06477482
0.6250003,0.06431499
0.6240003,0.06385517
0.6230003,0.06339534
0.6220003,0.06296618
0.6210003,0.06250636
0.6200003,0.06201588
0.6190003,0.06158672
0.6180003,0.06112689
0.6170003,0.06066707
0.6160003,0.0602379
0.6150003,0.05977808
0.6140003,0.05931826
0.6130003,0.05885844
0.6120003,0.05842927
0.6110003,0.05796945
0.6100003,0.05750962
0.6090003,0.05708046
0.6080003,0.05662064
0.6070003,0.05619146
0.6060003,0.05573164
0.6050003,0.05527182
0.6040003,0.054812
0.6030003,0.05438283
0.6020003,0.05392301
0.6010003,0.05346319
0.6000003,0.05303402
0.5990003,0.05257419
0.5980003,0.05211437
0.5970003,0.0516852
0.5960003,0.05122538
0.5950003,0.05079622
0.5940003,0.05033639
0.5930003,0.04990723
0.5920003,0.04947806
0.5910003,0.04901823
0.5900003,0.04858907
0.5890003,0.0481599
0.5880003,0.04770008
0.5870003,0.04727091
0.5860003,0.04684174
0.5850003,0.04638192
0.5840003,0.04595275
0.5830003,0.04552358
0.5820003,0.04506376
0.5810003,0.0446346
0.5800003,0.04420543
0.5790003,0.04377626
0.5780003,0.04331644
0.5770003,0.04288727
0.5760003,0.0424581
0.5750003,0.04199828
0.5740003,0.04156911
0.5730003,0.04113995
0.5720003,0.04071078
0.5710003,0.04028161
0.5700003,0.03985244
0.5690003,0.03942328
0.5680003,0.03899411
0.5670003,0.03853428
0.5660003,0.03813577
0.5650003,0.03770661
0.5640003,0.03724678
0.5630003,0.03684827
0.5620003,0.0364191
0.5610003,0.03598994
0.5600003,0.03556077
0.5590003,0.0351316
0.5580003,0.03470243
0.5570003,0.03427326
0.5560003,0.03387475
0.5550003,0.03344558
0.5540003,0.03301642
0.5530003,0.0326179
0.5520003,0.03218874
0.5510003,0.03175957
0.5500003,0.03136105
0.5490003,0.03093189
0.5480003,0.03053337
0.5470003,0.03010421
0.5460003,0.02967504
0.5450003,0.02927653
0.5440003,0.02887801
0.5430003,0.02844885
0.5420003,0.02805033
0.5410003,0.02765182
0.5400003,0.02722265
0.5390003,0.02682414
0.5380003,0.02642563
0.5370003,0.02602712
0.5360003,0.0256286
0.5350003,0.02523009
0.5340003,0.02483158
0.5330003,0.02443307
0.5320003,0.02403455
0.5310003,0.02363604
0.5300003,0.02323752
0.5290003,0.02283901
0.5280003,0.0224405
0.5270003,0.02204199
0.5260003,0.02167413
0.5250003,0.02127562
0.5240003,0.0208771
0.5230003,0.02050925
0.5220003,0.02011073
0.5210003,0.01974287
0.5200003,0.01937502
0.5190003,0.01897651
0.5180003,0.01860865
0.5170003,0.01824079
0.5160003,0.01787293
0.5150003,0.01750507
0.5140003,0.01713721
0.5130003,0.01676936
0.5120003,0.0164015
0.5110003,0.01603364
0.5100003,0.01569644
0.5090003,0.01532858
0.5080003,0.01496072
0.5070003,0.01459287
0.5060003,0.01425566
0.5050003,0.0138878
0.5040003,0.0135506
0.5030003,0.0132134
0.5020003,0.01237547
0.5010003,0.01204133
0.5000003,0.01170719
0.4990003,0.01137919
0.4980003,0.01105118
0.4970003,0.01072931
0.4960003,0.01041049
0.4950003,0.01008862
0.4940003,0.00977594
0.4930003,0.009463261
0.4920003,0.009153648
0.4910003,0.008850165
0.4900003,0.008543616
0.4890003,0.008246264
0.4880003,0.007951979
0.4870003,0.007657692
0.4860003,0.007372602
0.4850003,0.007090578
0.4840003,0.006805488
0.4830003,0.00653266
0.4820003,0.006259832
0.4810003,0.005990069
0.4800003,0.005723373
0.4790003,0.005462807
0.4780003,0.005208372
0.4770003,0.004957002
0.4760003,0.004708698
0.4750003,0.00446959
0.4740003,0.004227417
0.4730003,0.00399444
0.4720003,0.003767595
0.4710003,0.003537684
0.4700003,0.0033231
0.4690003,0.003108516
0.4680003,0.002893932
0.4670003,0.00269161
0.4660003,0.002492354
0.4650003,0.002296163
0.4640003,0.002109169
0.4630003,0.001919109
0.4620003,0.001744376
0.4610003,0.001566578
0.4600003,0.001394911
0.4590003,0.001235506
0.4580003,0.001041356
0.4570003,0.0008877754
0.4560003,0.0007403258
0.4550003,0.0005922629
0.4540003,0.0004537031
0.4530003,0.0003191284
0.4520003,0.0001873127
0.4510003,6.408026E-05
0.4500003,-6.434331E-05
0.4490003,-0.000179207
0.4480003,-0.000291189
0.4470003,-0.0004018731
0.4460003,-0.0005011947
0.4450003,-0.0006002099
0.4440003,-0.0006983053
0.4430003,-0.0007862847
0.4420003,-0.0008776361
0.4410003,-0.0009634696
0.4400003,-0.001041333
0.4390003,-0.001122262
0.4380003,-0.001195527
0.4370003,-0.001266339
0.4360003,-0.001337459
0.4350003,-0.001400607
0.4340003,-0.001464676
0.4330003,-0.001525986
0.4320003,-0.00158331
0.4310003,-0.001642168
0.4300003,-0.001694894
0.4290003,-0.00174854
0.4280003,-0.00180004
0.4270003,-0.001844489
0.4260003,-0.00189415
0.4250003,-0.001938906
0.4240003,-0.00198029
0.4230003,-0.002026272
0.4220003,-0.00206643
0.4210003,-0.002105055
0.4200003,-0.002147052
0.4190003,-0.002180466
0.4180003,-0.002219398
0.4170003,-0.002255877
0.4160003,-0.002289291
0.4150003,-0.002327609
0.4140003,-0.00235949
0.4130003,-0.002391678
0.4120003,-0.002426624
0.4110003,-0.002456666
0.4100003,-0.002494985
0.4090003,-0.002532077
0.4080003,-0.00255936
0.4070003,-0.002590015
0.4060003,-0.002618217
0.4050003,-0.002648259
0.4040003,-0.00267922
0.4030003,-0.002708342
0.4020003,-0.002739304
0.4010003,-0.002767506
0.4000003,-0.002795709
0.3990003,-0.002828509
0.3980003,-0.002856099
0.3970003,-0.00288706
0.3960003,-0.002919248
0.3950003,-0.002945304
0.3940003,-0.002977492
0.3930003,-0.003008147
0.3920003,-0.003000991
0.3910003,-0.003031645
0.3900003,-0.0030623
0.3890003,-0.003089889
0.3880003,-0.00312361
0.3870003,-0.003151199
0.3860003,-0.003184919
0.3850003,-0.003215575
0.3840003,-0.003246229
0.3830003,-0.00327995
0.3820003,-0.003310604
0.3810003,-0.003344325
0.3800003,-0.003378045
0.3790003,-0.0034087
0.3780003,-0.00344242
0.3770003,-0.00347614
0.3760003,-0.003509861
0.3750003,-0.003546647
0.3740003,-0.003577302
0.3730003,-0.003611021
0.3720003,-0.003647808
0.3710003,-0.003681528
0.3700003,-0.003718314
0.3690003,-0.003755099
0.3680003,-0.00378882
0.3670003,-0.003828671
0.3660003,-0.003859326
0.3650003,-0.003899177
0.3640003,-0.003939028
0.3630003,-0.003972749
0.3620003,-0.0040126
0.3610003,-0.004049386
0.3600003,-0.004086172
0.3590003,-0.004129088
0.3580003,-0.004165874
0.3570003,-0.004205726
0.3560003,-0.004245576
0.3550003,-0.004282362
0.3540003,-0.004322214
0.3530003,-0.004362065
0.3520003,-0.004401916
0.3510003,-0.004444833
0.3500003,-0.004481619
0.3490003,-0.004524535
0.3480003,-0.004567452
0.3470003,-0.004604238
0.3460003,-0.00465022
0.3450003,-0.004690072
0.3440003,-0.004729923
0.3430003,-0.004775905
0.3420003,-0.004815756
0.3410003,-0.004858673
0.3400003,-0.00490159
0.3390003,-0.004941441
0.3380003,-0.004987423
0.3370003,-0.00503034
0.3360003,-0.005070191
0.3350003,-0.005116174
0.3340003,-0.005159091
0.3330003,-0.005198942
0.3320003,-0.005244924
0.3310003,-0.005284776
0.3300003,-0.005327692
0.3290003,-0.005370609
0.3280003,-0.005413526
0.3270003,-0.005456442
0.3260003,-0.005499359
0.3250003,-0.005542276
0.3240003,-0.005585192
0.3230003,-0.005625044
0.3220003,-0.005671026
0.3210003,-0.005713942
0.3200003,-0.005753794
0.3190003,-0.005799776
0.3180003,-0.005836562
0.3170003,-0.005876414
0.3160003,-0.00591933
0.3150003,-0.005956116
0.3140003,-0.005999033
0.3130003,-0.006038884
0.3120003,-0.00607567
0.3110003,-0.006118587
0.3100003,-0.006152307
0.3090003,-0.006189092
0.3080003,-0.006228944
0.3070003,-0.006268795
0.3060003,-0.00630558
0.3050003,-0.006339301
0.3040003,-0.006369956
0.3030003,-0.006406742
0.3020003,-0.006437397
0.3010003,-0.006471117
0.3000003,-0.006501772
0.2990003,-0.006529361
0.2980003,-0.006560016
0.2970003,-0.006587605
0.2960003,-0.006609064
0.2950003,-0.006639718
0.2940003,-0.006661177
0.2930003,-0.006682635
0.2920003,-0.006707159
0.2910003,-0.006725552
0.2900003,-0.006743945
0.2890003,-0.006762337
0.2880003,-0.006774599
0.2870003,-0.006789927
0.2860003,-0.006799124
0.2850003,-0.00680832
0.2840003,-0.006814451
0.2830003,-0.006817516
0.2820003,-0.006817516
0.2810003,-0.006814451
0.2800003,-0.00680832
0.2790003,-0.006799124
0.2780003,-0.006783796
0.2770003,-0.006765403
0.2760003,-0.006743945
0.2750003,-0.00671329
0.2740003,-0.006682635
0.2730003,-0.006639718
0.2720003,-0.006587605
0.2710003,-0.006532426
0.2700003,-0.006461921
0.2690003,-0.006379152
0.2680003,-0.006277991
0.2670003,-0.006155372
0.2660003,-0.00601436
0.2650003,-0.005848824
0.2640003,-0.005655698
0.2630003,-0.005441115
0.2620003,-0.005211203
0.2610003,-0.0049629
0.2600003,-0.00471153
0.2590003,-0.004463226
0.2580003,-0.004221053
0.2570003,-0.003991141
0.2560003,-0.003776558
0.2550003,-0.003583432
0.2540003,-0.003402569
0.2530003,-0.003240098
0.2520003,-0.003089889
0.2510003,-0.002951943
0.2500003,-0.002826258
0.2490003,-0.002706704
0.2480003,-0.002596347
0.2470003,-0.002495186
0.2460003,-0.002397091
0.2450003,-0.002308191
0.2440003,-0.002228489
0.2430003,-0.002151852
0.2420003,-0.002081346
0.2410003,-0.002016971
0.2400003,-0.001958727
0.2390003,-0.001906613
0.2380003,-0.0018545
0.2370003,-0.001808518
0.2360003,-0.001762536
0.2350003,-0.001719619
0.2340003,-0.001682833
0.2330003,-0.001642982
0.2320003,-0.001606196
0.2310003,-0.001610593
0.2300003,-0.001578405
0.2290003,-0.001547751
0.2280003,-0.001518629
0.2270003,-0.001490426
0.2260003,-0.00146345
0.2250003,-0.0014377
0.2240003,-0.001412869
0.2230003,-0.001389265
0.2220003,-0.001366274
0.2210003,-0.001344509
0.2200003,-0.001323357
0.2190003,-0.001302819
0.2180003,-0.001282893
0.2170003,-0.001264193
0.2160003,-0.001245494
0.2150003,-0.001227714
0.2140003,-0.001210241
0.2130003,-0.001193381
0.2120003,-0.001177134
0.2110003,-0.001161193
0.2100003,-0.001145866
0.2090003,-0.001131151
0.2080003,-0.001116744
0.2070003,-0.001102643
0.2060003,-0.001089154
0.2050003,-0.001075973
0.2040003,-0.001063404
0.2030003,-0.001050529
0.2020003,-0.001038267
0.2010003,-0.001026312
0.2000003,-0.001014357
0.1990003,-0.001003014
0.1980003,-0.0009922851
0.1970003,-0.0009812494
0.1960003,-0.0009708267
0.1950003,-0.0009607106
0.1940003,-0.0009505945
0.1930003,-0.0009404784
0.1920003,-0.0009309754
0.1910003,-0.000921779
0.1900003,-0.000912276
0.1890003,-0.0009033861
0.1880003,-0.0008948027
0.1870003,-0.0008862194
0.1860003,-0.0008776361
0.1850003,-0.0008696658
0.1840003,-0.000861389
0.1830003,-0.0008534187
0.1820003,-0.000845755
0.1810003,-0.0008380913
0.1800003,-0.0008307341
0.1790003,-0.000823377
0.1780003,-0.0008163264
0.1770003,-0.0008095824
0.1760003,-0.0008025317
0.1750003,-0.0007957877
0.1740003,-0.0007890436
0.1730003,-0.0007822995
0.1720003,-0.0007761685
0.1710003,-0.0007700376
0.1700003,-0.0007636001
0.1690003,-0.0007577756
0.1680003,-0.0007519512
0.1670003,-0.0007458202
0.1660003,-0.0007403024
0.1650003,-0.0007344779
0.1640003,-0.0007289601
0.1630003,-0.0007237488
0.1620003,-0.000718231
0.1610003,-0.0007130196
0.1600003,-0.0007075017
0.1590003,-0.000702597
0.1580003,-0.0006973856
0.1570003,-0.0006924809
0.1560003,-0.0006878827
0.1550003,-0.0006829779
0.1540003,-0.0006783796
0.1530003,-0.0006737814
0.1520003,-0.0006688767
0.1510003,-0.000664585
0.1500003,-0.0006599867
0.1490003,-0.0006556951
0.1480003,-0.0006514034
0.1470003,-0.0006471117
0.1460003,-0.00064282
0.1450003,-0.0006388349
0.1440003,-0.0006345432
0.1430003,-0.0006308646
0.1420003,-0.0006268796
0.1410003,-0.0006228944
0.1400003,-0.0006189093
0.1390003,-0.0006152307
0.1380003,-0.0006115522
0.1370003,-0.0006078735
0.1360003,-0.000604195
0.1350003,-0.0006005164
0.1340003,-0.0005971444
0.1330003,-0.0005934658
0.1320003,-0.0005900938
0.1310003,-0.0005867218
0.1300003,-0.0005833497
0.1290003,-0.0005802842
0.1280003,-0.0005769122
0.1270003,-0.0005735401
0.1260003,-0.0005701681
0.1250003,-0.0005671026
0.1240003,-0.0005640372
0.1230003,-0.0005609716
0.1220003,-0.0005579062
0.1210003,-0.0005551472
0.1200003,-0.0005520818
0.1190003,-0.0005493228
0.1180003,-0.0005462574
0.1170003,-0.0005431919
0.1160003,-0.0005404329
0.1150003,-0.000537674
0.1140003,-0.0005349151
0.1130003,-0.0005321561
0.1120003,-0.0005297037
0.1110003,-0.0005269448
0.1100003,-0.0005241859
0.1090003,-0.0005217335
0.1080003,-0.0005192811
0.1070003,-0.0005168287
0.1060003,-0.0005140697
0.1050003,-0.0005116174
0.1040003,-0.000509165
0.1030003,-0.0005067126
0.1020003,-0.0005042602
0.1010003,-0.0005021144
0.1000003,-0.000499662
0.09900028,-0.0004972096
0.09800029,-0.0004950638
0.09700029,-0.0004926114
0.09600028,-0.0004904656
0.09500029,-0.0004883197
0.09400029,-0.0004861739
0.09300029,-0.0004840281
0.09200028,-0.0004818822
0.09100029,-0.0004794298
0.09000029,-0.000477284
0.08900028,-0.0004751382
0.08800028,-0.0004732989
0.08700029,-0.000471153
0.08600029,-0.0004693137
0.08500028,-0.0004671679
0.08400029,-0.0004653286
0.08300029,-0.0004631828
0.08200029,-0.0004613435
0.08100028,-0.0004595042
0.08000029,-0.0004573583
0.07900029,-0.0004555191
0.07800028,-0.0004536798
0.07700028,-0.0004518405
0.07600029,-0.0004500012
0.07500029,-0.0004481619
0.07400028,-0.0004463226
0.07300029,-0.0004447899
0.07200029,-0.0004429506
0.07100029,-0.0004411113
0.07000028,-0.0004395786
0.06900029,-0.0004377393
0.06800029,-0.0004359
0.06700028,-0.0004343672
0.06600028,-0.0004328345
0.06500029,-0.0004309952
0.06400029,-0.0004294625
0.06300028,-0.0004279297
0.06200029,-0.000426397
0.06100029,-0.0004245577
0.06000029,-0.0004230249
0.05900029,-0.0004214922
0.05800029,-0.0004199595
0.05700029,-0.0004184267
0.05600028,-0.000416894
0.05500029,-0.0004153613
0.05400028,-0.0004141351
0.05300029,-0.0004126023
0.05200029,-0.0004110696
0.05100029,-0.0004095368
0.05000029,-0.0004080041
0.04900029,-0.0004067779
0.04800029,-0.0004052451
0.04700029,-0.0004037124
0.04600029,-0.0004024862
0.04500028,-0.0004009535
0.04400029,-0.0003997273
0.04300028,-0.0003981945
0.04200029,-0.0003969684
0.04100028,-0.0003957421
0.04000029,-0.0003942094
0.03900029,-0.0003929832
0.03800029,-0.000391757
0.03700029,-0.0003905308
0.03600029,-0.0003893046
0.03500029,-0.0003877719
0.03400028,-0.0003865457
0.03300029,-0.0003853195
0.03200028,-0.0003840933
0.03100029,-0.0003828671
0.03000029,-0.0003816409
0.02900029,-0.0003804147
0.02800029,-0.0003791885
0.02700029,-0.0003779623
0.02600029,-0.0003770427
0.02500029,-0.0003758165
0.02400029,-0.0003742838
0.02300029,-0.0003733641
0.02200029,-0.0003721379
0.02100029,-0.0003709117
0.02000029,-0.0003696856
0.01900029,-0.0003687659
0.01800029,-0.0003675397
0.01700029,-0.0003663135
0.01600029,-0.0003653939
0.01500029,-0.0003641677
0.01400029,-0.0003632481
0.01300029,-0.0003620218
0.01200029,-0.0003607956
0.01100029,-0.000359876
0.01000029,-0.0003586498
0.009000286,-0.0003577302
0.008000286,-0.0003568105
0.007000286,-0.0003555843
0.006000286,-0.0003546647
0.005000286,-0.000353745
0.004000286,-0.0003525188
0.003000286,-0.0003515992
0.002000286,-0.000350373
0.001000286,-0.0003494534
2.861023E-07,-0.0003448552
0.0009997139,-0.0003399504
0.001999714,-0.0003359652
0.002999714,-0.0003322866
0.003999714,-0.0003289146
0.004999714,-0.0003255426
0.005999714,-0.0003224771
0.006999714,-0.0003194116
0.007999714,-0.0003163462
0.008999714,-0.0003135872
0.009999714,-0.0003108283
0.01099971,-0.0003080693
0.01199971,-0.0003053104
0.01299971,-0.000302858
0.01399971,-0.0003004056
0.01499971,-0.0002982598
0.01599971,-0.0002958074
0.01699971,-0.000293355
0.01799971,-0.0002912092
0.01899971,-0.0002890633
0.01999971,-0.0002869175
0.02099971,-0.0002847717
0.02199971,-0.0002826258
0.02299971,-0.00028048
0.02399971,-0.0002783342
0.02499971,-0.0002764949
0.02599971,-0.000274349
0.02699971,-0.0002725097
0.02799971,-0.0002706705
0.02899971,-0.0002688312
0.02999971,-0.0002666853
0.03099971,-0.0002648461
0.03199971,-0.0002630067
0.03299971,-0.000261474
0.03399972,-0.0002596347
0.03499971,-0.000258102
0.03599972,-0.0002562627
0.03699971,-0.0002544234
0.03799972,-0.0002528907
0.03899971,-0.0002513579
0.03999971,-0.0002495186
0.04099971,-0.0002476793
0.04199971,-0.0002461466
0.04299971,-0.0002446139
0.04399971,-0.0002427746
0.04499971,-0.0002412418
0.04599971,-0.0002397091
0.04699972,-0.0002381763
0.04799971,-0.0002366436
0.04899972,-0.0002351108
0.04999971,-0.0002338847
0.05099971,-0.0002323519
0.05199971,-0.0002308192
0.05299971,-0.0002292864
0.05399971,-0.0002277537
0.05499971,-0.0002265275
0.05599971,-0.0002249948
0.05699971,-0.0002237686
0.05799972,-0.0002222358
0.05899971,-0.0002210096
0.05999972,-0.0002194769
0.06099971,-0.0002182507
0.06199971,-0.0002167179
0.06299971,-0.0002154918
0.06399971,-0.000213959
0.06499971,-0.0002127328
0.06599972,-0.0002115066
0.06699971,-0.0002102804
0.06799971,-0.0002090542
0.06899972,-0.0002078281
0.06999972,-0.0002062953
0.07099971,-0.0002050691
0.07199971,-0.0002038429
0.07299972,-0.0002026167
0.07399971,-0.0002013905
0.07499971,-0.0002001643
0.07599971,-0.0001989382
0.07699972,-0.0001980185
0.07799971,-0.0001964858
0.07899971,-0.0001952596
0.07999972,-0.0001943399
0.08099972,-0.0001931137
0.08199971,-0.0001918875
0.08299971,-0.0001906613
0.08399972,-0.0001897417
0.08499971,-0.0001885155
0.08599971,-0.0001872893
0.08699971,-0.0001860631
0.08799972,-0.0001851435
0.08899971,-0.0001839173
0.08999971,-0.0001829976
0.09099972,-0.0001817715
0.09199972,-0.0001808518
0.09299971,-0.0001796256
0.09399971,-0.000178706
0.09499972,-0.0001777863
0.09599971,-0.0001765601
0.09699971,-0.0001753339
0.09799971,-0.0001744143
0.09899972,-0.0001734946
0.09999971,-0.0001722685
0.1009997,-0.0001713488
0.1019997,-0.0001704292
0.1029997,-0.000169203
0.1039997,-0.0001682833
0.1049997,-0.0001673637
0.1059997,-0.000166444
0.1069997,-0.0001655244
0.1079997,-0.0001642982
0.1089997,-0.0001633786
0.1099997,-0.0001624589
0.1109997,-0.0001615393
0.1119997,-0.0001606196
0.1129997,-0.0001629905
0.1139997,-0.0001621016
0.1149997,-0.0001612432
0.1159997,-0.0001602929
0.1169997,-0.0001594039
0.1179997,-0.0001585456
0.1189997,-0.000157534
0.1199997,-0.0001566756
0.1209997,-0.0001557254
0.1219997,-0.0001547444
0.1229997,-0.0001539167
0.1239997,-0.0001530277
0.1249997,-0.0001521694
0.1259997,-0.0001513724
0.1269997,-0.0001504834
0.1279997,-0.0001496863
0.1289997,-0.00014892
0.1299997,-0.000148031
0.1309997,-0.0001472033
0.1319997,-0.0001463143
0.1329997,-0.0001453947
0.1339997,-0.0001445363
0.1349997,-0.00014377
0.1359997,-0.0001429423
0.1369997,-0.0001421759
0.1379997,-0.0001414095
0.1389997,-0.0001406738
0.1399997,-0.0001398155
0.1409997,-0.0001389878
0.1419997,-0.0001381295
0.1429997,-0.0001373018
0.1439997,-0.0001365967
0.1449997,-0.0001358304
0.1459997,-0.0001350027
0.1469997,-0.0001342976
0.1479997,-0.0001335006
0.1489997,-0.0001327036
0.1499997,-0.0001319065
0.1509997,-0.0001311095
0.1519997,-0.0001304045
0.1529997,-0.0001296381
0.1539997,-0.000128933
0.1549997,-0.0001282586
0.1559997,-0.0001274309
0.1569997,-0.0001267259
0.1579997,-0.0001259902
0.1589997,-0.0001251318
0.1599997,-0.0001243961
0.1609997,-0.0001236911
0.1619997,-0.0001229247
0.1629997,-0.0001223116
0.1639997,-0.0001215452
0.1649997,-0.0001208095
0.1659997,-0.0001201658
0.1669997,-0.0001194913
0.1679997,-0.0001187556
0.1689997,-0.0001180199
0.1699997,-0.0001172535
0.1709997,-0.0001165485
0.1719997,-0.0001157515
0.1729997,-0.0001149851
0.1739997,-0.000114372
0.1749997,-0.000113575
0.1759997,-0.0001129006
0.1769997,-0.0001122568
0.1779997,-0.0001115211
0.1789997,-0.000110908
0.1799997,-0.0001102336
0.1809997,-0.0001095285
0.1819997,-0.0001088235
0.1829997,-0.0001080571
0.1839997,-0.0001073214
0.1849997,-0.0001065857
0.1859997,-0.0001058806
0.1869997,-0.0001052368
0.1879997,-0.0001044705
0.1889997,-0.0001037961
0.1899997,-0.000103183
0.1909997,-0.0001024779
0.1919997,-0.0001017729
0.1929997,-0.0001009452
0.1939997,-0.0001001482
0.1949997,-9.95044E-05
0.1959997,-9.876868E-05
0.1969997,-9.809428E-05
0.1979997,-9.745052E-05
0.1989997,-9.662284E-05
0.1999997,-9.594844E-05
0.2009997,-9.524338E-05
0.2019997,-9.432372E-05
0.2029997,-9.367998E-05
0.2039997,-9.288295E-05
0.2049997,-9.217789E-05
0.2059997,-9.144218E-05
0.2069997,-9.073711E-05
0.2079997,-8.997074E-05
0.2089997,-8.920438E-05
0.2099997,-8.834604E-05
0.2109997,-8.74877E-05
0.2119997,-8.662937E-05
0.2129997,-8.592431E-05
0.2139997,-8.515793E-05
0.2149997,-8.436092E-05
0.2159997,-8.356389E-05
0.2169997,-8.285882E-05
0.2179997,-8.193919E-05
0.2189997,-8.120346E-05
0.2199997,-8.019186E-05
0.2209997,-7.930287E-05
0.2219997,-7.838322E-05
0.2229997,-7.749423E-05
0.2239997,-7.663589E-05
0.2249997,-7.580821E-05
0.2259997,-7.47966E-05
0.2269997,-7.403023E-05
0.2279997,-7.295731E-05
0.2289997,-7.206832E-05
0.2299997,-7.105672E-05
0.2309997,-6.995314E-05
0.2319997,-6.894153E-05
0.2329997,-6.789927E-05
0.2339997,-6.685701E-05
0.2349997,-6.587605E-05
0.2359997,-6.480313E-05
0.2369997,-6.369956E-05
0.2379997,-6.259599E-05
0.2389997,-6.146176E-05
0.2399997,-6.035818E-05
0.2409997,-5.907068E-05
0.2419997,-5.784449E-05
0.2429997,-5.66183E-05
0.2439997,-5.517752E-05
0.2449997,-5.385936E-05
0.2459997,-5.263316E-05
0.2469997,-5.116174E-05
0.2479997,-4.990489E-05
0.2489997,-4.84028E-05
0.2499997,-4.690071E-05
0.2509997,-4.558256E-05
0.2519997,-4.39272E-05
0.2529997,-4.239445E-05
0.2539997,-4.089237E-05
0.2549997,-3.914504E-05
0.2559997,-3.742837E-05
0.2569997,-3.571171E-05
0.2579997,-3.384176E-05
0.2589997,-3.212509E-05
0.2599997,-3.007122E-05
0.2609997,-2.810931E-05
0.2619997,-2.608609E-05
0.2629997,-2.394025E-05
0.2639997,-2.176376E-05
0.2649997,-1.961792E-05
0.2659997,-1.731881E-05
0.2669997,-1.517297E-05
0.2679997,-1.253666E-05
0.2689997,-1.011493E-05
0.2699997,-7.562428E-06
0.2709997,-4.821887E-06
0.2719997,-2.213162E-06
0.2729997,5.549691E-07
0.2739997,3.592862E-06
0.2749997,6.517333E-06
0.2759997,9.754483E-06
0.2769997,1.296404E-05
0.2779997,1.612456E-05
0.2789997,1.977861E-05
0.2799997,2.336014E-05
0.2809997,2.688545E-05
0.2819997,3.080927E-05
0.2829997,3.470243E-05
0.2839997,3.908607E-05
0.2849997,4.343905E-05
0.2859997,4.776139E-05
0.2869997,5.251288E-05
0.2879997,5.729503E-05
0.2889997,6.223046E-05
0.2899997,6.750309E-05
0.2909997,7.271441E-05
0.2919997,7.860013E-05
0.2929997,8.417932E-05
0.2939997,9.031028E-05
0.2949997,9.690107E-05
0.2959997,0.000103216
0.2969997,0.0001102053
0.2979997,0.0001175318
0.2989997,0.000124797
0.2999997,0.0001330125
0.3009997,0.0001411973
0.3019997,0.0001495047
0.3029997,0.0001587012
0.3039997,0.0001679283
0.3049997,0.0001774619
0.3059997,0.0001879152
0.3069997,0.0001987977
0.3079997,0.0002101706
0.3089997,0.0002216049
0.3099997,0.0002338668
0.3109997,0.0002470791
0.3119997,0.0002604446
0.3129997,0.000274975
0.3139997,0.0002899958
0.3149997,0.0003090123
0.3159997,0.0003258725
0.3169997,0.0003427326
0.3179997,0.000360819
0.3189997,0.0003807446
0.3199997,0.0004009768
0.3209997,0.0004227417
0.3219997,0.0004457328
0.3229997,0.0004690305
0.3239997,0.0004953937
0.3249997,0.0005220634
0.3259997,0.0005502658
0.3269997,0.0005812272
0.3279997,0.0006128017
0.3289997,0.0006471351
0.3299997,0.0006833078
0.3309997,0.0007216263
0.3319997,0.0007633169
0.3329997,0.0008062336
0.3339997,0.000852829
0.3349997,0.0009031029
0.3359997,0.0009558292
0.3369997,0.001013154
0.3379997,0.001074157
0.3389997,0.001139145
0.3399997,0.001210877
0.3409997,0.001285368
0.3419997,0.001366604
0.3429997,0.001455196
0.3439997,0.00154808
0.3449997,0.001650774
0.3459997,0.001761438
0.3469997,0.001878233
0.3479997,0.00200729
0.3489997,0.002144011
0.3499997,0.00229146
0.3509997,0.002450559
0.3519997,0.002619773
0.3529997,0.002800637
0.3539997,0.002991003
0.3549997,0.003218873
0.3559997,0.003427326
0.3569997,0.003635779
0.3579997,0.003853428
0.3589997,0.004074143
0.3599997,0.004288727
0.3609997,0.004506376
0.3619997,0.004717894
0.3629997,0.004920216
0.3639997,0.005122538
0.3649997,0.005312598
0.3659997,0.005499593
0.3669997,0.005680456
0.3679997,0.005849057
0.3689997,0.006011528
0.3699997,0.006170933
0.3709997,0.006318076
0.3719997,0.006465219
0.3729997,0.006597036
0.3739997,0.006728851
0.3749997,0.006854536
0.3759997,0.006971024
0.3769997,0.007084447
0.3779997,0.007188674
0.3789997,0.007289834
0.3799997,0.00738793
0.3809997,0.007473763
0.3819997,0.007559597
0.3829997,0.0076393
0.3839997,0.007712871
0.3849997,0.007786443
0.3859997,0.007856948
0.3869997,0.007918258
0.3879997,0.007985699
0.3889997,0.008040877
0.3899997,0.008102187
0.3909997,0.008157366
0.3919997,0.008209479
0.3929997,0.008264658
0.3939997,0.00831677
0.3949997,0.008362753
0.3959997,0.008417931
0.3969997,0.008463915
0.3979997,0.008509896
0.3989997,0.008555878
0.3999997,0.008598795
0.4009997,0.008641711
0.4019997,0.008681564
0.4029997,0.008721415
0.4039997,0.008761265
0.4049997,0.008794987
0.4059997,0.008828706
0.4069997,0.008862427
0.4079997,0.00888695
0.4089997,0.008920671
0.4099997,0.008954391
0.4109997,0.008975849
0.4119997,0.008997308
0.4129997,0.009012635
0.4139997,0.009027964
0.4149997,0.009040225
0.4159997,0.009049421
0.4169997,0.009058618
0.4179997,0.009061683
0.4189997,0.009058618
0.4199997,0.009058618
0.4209997,0.009049421
0.4219997,0.009040225
0.4229997,0.009031028
0.4239997,0.00900957
0.4249997,0.008991177
0.4259997,0.008969719
0.4269997,0.008939064
0.4279997,0.008911475
0.4289997,0.008877754
0.4299997,0.008837903
0.4309997,0.008798052
0.4319997,0.008752069
0.4329997,0.008706087
0.4339997,0.008653974
0.4349997,0.008598795
0.4359997,0.008543616
0.4369997,0.008479241
0.4379997,0.008414866
0.4389997,0.008350492
0.4399997,0.008279985
0.4409997,0.008212545
0.4419997,0.008138973
0.4429997,0.008065402
0.4439997,0.00799183
0.4449997,0.007912127
0.4459997,0.00783549
0.4469997,0.007755788
0.4479997,0.007676085
0.4489997,0.007599448
0.4499997,0.00751668
0.4509997,0.007436977
0.4519997,0.007363406
0.4529997,0.007280638
0.4539997,0.007207066
0.4549997,0.00713656
0.4559997,0.007056858
0.4569997,0.006989417
0.4579997,0.006925041
0.4589997,0.006857601
0.4599997,0.006802422
0.4609997,0.006747244
0.4619997,0.00669513
0.4629997,0.006649148
0.4639997,0.006606232
0.4649997,0.006575576
0.4659997,0.006541857
0.4669997,0.006517333
0.4679997,0.006505071
0.4689997,0.006489743
0.4699997,0.006489743
0.4709997,0.00649894
0.4719997,0.006508136
0.4729997,0.00653266
0.4739997,0.00656638
0.4749997,0.006603166
0.4759997,0.006658345
0.4769997,0.006716589
0.4779997,0.006787095
0.4789997,0.006866798
0.4799997,0.006958762
0.4809997,0.007059923
0.4819997,0.00717028
0.4829997,0.0072929
0.4839997,0.007427781
0.4849997,0.007565727
0.4859997,0.007722067
0.4869997,0.007884538
0.4879997,0.008056205
0.4889997,0.008240134
0.4899997,0.008433259
0.4909997,0.008635581
0.4919997,0.008853231
0.4929997,0.00907088
0.4939997,0.009303857
0.4949997,0.009542963
0.4959997,0.009785137
0.4969997,0.01004264
0.4979997,0.01030627
0.4989997,0.01057603
0.4999997,0.01085499
0.5009997,0.01113701
0.5019997,0.01142517
0.5029997,0.01172559
0.5039997,0.012026
0.5049997,0.01233562
0.5059997,0.0126483
0.5069997,0.01296711
0.5079997,0.01329205
0.5089997,0.01361699
0.5099997,0.01395113
0.5109997,0.01428833
0.5119997,0.01463473
0.5129997,0.0149842
0.5139997,0.01533059
0.5149997,0.01568006
0.5159997,0.01604179
0.5169997,0.01639432
0.5179997,0.01675911
0.5189997,0.01712697
0.5199997,0.01749176
0.5209997,0.01786268
0.5219997,0.01823974
0.5229997,0.01861373
0.5239997,0.01899385
0.5249997,0.01937703
0.5259997,0.01976022
0.5269997,0.02014647
0.5279997,0.02053272
0.5289997,0.0209251
0.5299997,0.02131135
0.5309997,0.0217068
0.5319997,0.02210838
0.5329997,0.02249769
0.5339997,0.02289621
0.5349997,0.02329778
0.5359997,0.0236963
0.5369997,0.02409788
0.5379997,0.02450252
0.5389997,0.02491023
0.5399997,0.02531794
0.5409997,0.02572258
0.5419997,0.02613642
0.5429997,0.0265472
0.5439997,0.02696104
0.5449997,0.02737794
0.5459997,0.02779485
0.5469997,0.02820869
0.5479997,0.02862559
0.5489997,0.02903943
0.5499997,0.02946247
0.5509997,0.02988244
0.5519997,0.03105451
0.5529997,0.03148368
0.5539997,0.03188219
0.5549997,0.03231135
0.5559997,0.03277118
0.5569997,0.03316969
0.5579997,0.03359886
0.5589997,0.03405868
0.5599997,0.03445719
0.5609997,0.03491702
0.5619997,0.03534618
0.5629997,0.03577535
0.5639997,0.03620452
0.5649997,0.03666434
0.5659997,0.03709351
0.5669997,0.03752267
0.5679997,0.0379825
0.5689997,0.03841167
0.5699997,0.03887149
0.5709997,0.03930065
0.5719997,0.03976048
0.5729997,0.04018965
0.5739997,0.04061881
0.5749997,0.04107863
0.5759997,0.0415078
0.5769997,0.04196763
0.5779997,0.0423968
0.5789997,0.04285662
0.5799997,0.04331644
0.5809997,0.0437456
0.5819997,0.04420543
0.5829997,0.0446346
0.5839997,0.04509442
0.5849997,0.04555424
0.5859997,0.04601406
0.5869997,0.04644323
0.5879997,0.04690305
0.5889997,0.04733222
0.5899997,0.04779204
0.5909997,0.04825186
0.5919997,0.04871169
0.5929997,0.04917151
0.5939997,0.04960068
0.5949997,0.0500605
0.5959997,0.05052032
0.5969997,0.05098015
0.5979997,0.05140931
0.5989997,0.05186913
0.5999997,0.05232896
0.6009997,0.05278878
0.6019997,0.0532486
0.6029997,0.05370842
0.6039997,0.05416824
0.6049997,0.05465872
0.6059997,0.05508789
0.6069997,0.05554771
0.6079997,0.05600753
0.6089997,0.05646735
0.6099997,0.05692718
0.6109997,0.057387
0.6119997,0.05784683
0.6129997,0.05830665
0.6139997,0.05876647
0.6149997,0.05925695
0.6159997,0.05971677
0.6169997,0.06017659
0.6179997,0.06063641
0.6189997,0.06109623
0.6199997,0.06155606
0.6209997,0.06201588
0.6219997,0.06247571
0.6229997,0.06296618
0.6239997,0.063426
0.6249997,0.06385517
0.6259997,0.06434565
0.6269997,0.06480547
0.6279997,0.06526529
0.6289997,0.06572511
0.6299997,0.06618494
0.6309997,0.06664476
0.6319997,0.06710459
0.6329997,0.06759506
0.6339997,0.06805488
0.6349997,0.0685147
0.6359997,0.06900518
0.6369997,0.06943435
0.6379997,0.06992482
0.6389997,0.0704153
0.6399997,0.07084447
0.6409997,0.07130429
0.6419997,0.07179477
0.6429997,0.07225459
0.6439997,0.07274507
0.6449997,0.0732049
0.6459997,0.07366472
0.6469997,0.07412454
0.6479997,0.07461502
0.6489997,0.07507484
0.6499997,0.07553466
0.6509997,0.07599448
0.6519997,0.07648496
0.6529997,0.07694478
0.6539997,0.0774046
0.6549997,0.07789508
0.6559997,0.0783549
0.6569997,0.07881473
0.6579997,0.0793052
0.6589997,0.07976502
0.6599997,0.0802555
0.6609997,0.08071532
0.6619997,0.08117515
0.6629997,0.08166563
0.6639997,0.08212545
0.6649997,0.08258527
0.6659997,0.08307575
0.6669997,0.08353557
0.6679997,0.08399539
0.6689997,0.08448587
0.6699997,0.08497635
0.6709997,0.08543617
0.6719997,0.08592664
0.6729997,0.08638646
0.6739997,0.08687695
0.6749997,0.08733677
0.6759997,0.08779659
0.6769997,0.08825641
0.6779997,0.08874689
0.6789997,0.08923737
0.6799997,0.08969719
0.6809997,0.09015701
0.6819997,0.09061684
0.6829997,0.09110731
0.6839997,0.09156714
0.6849997,0.09205761
0.6859997,0.09251743
0.6869997,0.09300791
0.6879997,0.09349839
0.6889997,0.09395821
0.6899997,0.09444869
0.6909997,0.09490851
0.6919997,0.09539898
0.6929997,0.09588946
0.6939997,0.09634929
0.6949997,0.09683976
0.6959997,0.09729959
0.6969997,0.09775941
0.6979997,0.09824988
0.6989997,0.09874036
0.6999997,0.09889363
0.6990004,0.09843381
0.6980004,0.09794334
0.6970004,0.09745286
0.6960004,0.09699304
0.6950004,0.09653322
0.6940004,0.0960734
0.6930004,0.09561357
0.6920004,0.0951231
0.6910004,0.09469392
0.6900004,0.09420345
0.6890004,0.09374363
0.6880004,0.0932838
0.6870004,0.09282398
0.6860004,0.0923335
0.6850004,0.09190433
0.6840004,0.09141386
0.6830004,0.09095404
0.6820004,0.09049422
0.6810004,0.09003439
0.6800004,0.08954392
0.6790004,0.0890841
0.6780004,0.08862427
0.6770004,0.08816445
0.6760004,0.08770462
0.6750004,0.0872448
0.6740004,0.08678498
0.6730004,0.08632516
0.6720004,0.08586534
0.6710004,0.08537485
0.6700004,0.08491503
0.6690004,0.08445521
0.6680004,0.08396474
0.6670004,0.08353557
0.6660004,0.08307575
0.6650004,0.08258527
0.6640004,0.08215611
0.6630004,0.08166563
0.6620004,0.08120581
0.6610004,0.08077663
0.6600004,0.08031681
0.6590004,0.07985699
0.6580004,0.07936651
0.6570004,0.07890669
0.6560004,0.07844687
0.6550004,0.07798705
0.6540004,0.07752723
0.6530004,0.0770674
0.6520004,0.07660758
0.6510004,0.07614776
0.6500004,0.07568794
0.6490004,0.07522812
0.6480004,0.07476829
0.6470004,0.07430847
0.6460004,0.07384864
0.6450004,0.07338882
0.6440004,0.072929
0.6430004,0.07246917
0.6420004,0.07200935
0.6410004,0.07154953
0.6400004,0.07108971
0.6390004,0.07066055
0.6380004,0.07020072
0.6370004,0.0697409
0.6360004,0.06925042
0.6350004,0.06882125
0.6340004,0.06836143
0.6330004,0.0679016
0.6320004,0.06744178
0.6310004,0.06698196
0.6300004,0.0665528
0.6290004,0.06609298
0.6280004,0.06563315
0.6270004,0.06517333
0.6260004,0.06471351
0.6250004,0.06425368
0.6240004,0.06379386
0.6230004,0.06336469
0.6220004,0.06290487
0.6210004,0.06244505
0.6200004,0.06198522
0.6190004,0.06155606
0.6180004,0.06109623
0.6170004,0.06063641
0.6160004,0.06017659
0.6150004,0.05974742
0.6140004,0.0592876
0.6130004,0.05882778
0.6120004,0.05836796
0.6110004,0.05793879
0.6100004,0.05747896
0.6090004,0.05701914
0.6080004,0.05658998
0.6070004,0.05613015
0.6060004,0.05570099
0.6050004,0.05524116
0.6040004,0.05478134
0.6030004,0.05435218
0.6020004,0.05389235
0.6010004,0.05343253
0.6000004,0.05300336
0.5990004,0.05254354
0.5980004,0.05211437
0.5970004,0.05165455
0.5960004,0.05122538
0.5950004,0.05076556
0.5940004,0.05033639
0.5930004,0.04990723
0.5920004,0.0494474
0.5910004,0.04901823
0.5900004,0.04855841
0.5890004,0.04812925
0.5880004,0.04770008
0.5870004,0.04727091
0.5860004,0.04681109
0.5850004,0.04638192
0.5840004,0.04595275
0.5830004,0.04549293
0.5820004,0.04506376
0.5810004,0.04460394
0.5800004,0.04417477
0.5790004,0.0437456
0.5780004,0.04331644
0.5770004,0.04285662
0.5760004,0.04242745
0.5750004,0.04199828
0.5740004,0.04156911
0.5730004,0.04113995
0.5720004,0.04071078
0.5710004,0.04028161
0.5700004,0.03985244
0.5690004,0.03942328
0.5680004,0.03899411
0.5670004,0.03856494
0.5660004,0.03813577
0.5650004,0.03770661
0.5640004,0.03724678
0.5630004,0.03684827
0.5620004,0.0364191
0.5610004,0.03598994
0.5600004,0.03556077
0.5590004,0.0351316
0.5580004,0.03473309
0.5570004,0.03430392
0.5560004,0.03387475
0.5550004,0.03344558
0.5540004,0.03304707
0.5530004,0.0326179
0.5520004,0.03218874
0.5510004,0.03179022
0.5500004,0.03136105
0.5490004,0.03096254
0.5480004,0.03053337
0.5470004,0.03013486
0.5460004,0.02970569
0.5450004,0.02930718
0.5440004,0.02887801
0.5430004,0.0284795
0.5420004,0.02808099
0.5410004,0.02765182
0.5400004,0.02725331
0.5390004,0.0268548
0.5380004,0.02645628
0.5370004,0.02605777
0.5360004,0.02565926
0.5350004,0.02526074
0.5340004,0.02486223
0.5330004,0.02446372
0.5320004,0.02406521
0.5310004,0.02366669
0.5300004,0.02326818
0.5290004,0.02286967
0.5280004,0.02247116
0.5270004,0.0221033
0.5260004,0.02170478
0.5250004,0.02130627
0.5240004,0.02090776
0.5230004,0.0205399
0.5220004,0.02017204
0.5210004,0.01977353
0.5200004,0.01940567
0.5190004,0.01903781
0.5180004,0.0186393
0.5170004,0.0183021
0.5160004,0.01790359
0.5150004,0.01753573
0.5140004,0.01716787
0.5130004,0.01680001
0.5120004,0.01643215
0.5110004,0.01609495
0.5100004,0.01572709
0.5090004,0.01535923
0.5080004,0.01502203
0.5070004,0.01465417
0.5060004,0.01428632
0.5050004,0.01394911
0.5040004,0.01361191
0.5030004,0.01324405
0.5020004,0.01242758
0.5010004,0.01209344
0.5000004,0.01175931
0.4990004,0.0114313
0.4980004,0.01110329
0.4970004,0.01078142
0.4960004,0.01046261
0.4950004,0.0101438
0.4940004,0.009831119
0.4930004,0.00951844
0.4920004,0.00920576
0.4910004,0.008902278
0.4900004,0.008601861
0.4890004,0.008301443
0.4880004,0.008007158
0.4870004,0.007715936
0.4860004,0.007430846
0.4850004,0.007145756
0.4840004,0.006863732
0.4830004,0.006590905
0.4820004,0.006315011
0.4810004,0.006045248
0.4800004,0.005781617
0.4790004,0.005517985
0.4780004,0.00526355
0.4770004,0.005015246
0.4760004,0.004763877
0.4750004,0.004521704
0.4740004,0.004282596
0.4730004,0.004046554
0.4720004,0.003819708
0.4710004,0.003592863
0.4700004,0.003375213
0.4690004,0.003157564
0.4680004,0.002946045
0.4670004,0.002740658
0.4660004,0.002541402
0.4650004,0.002345211
0.4640004,0.002155151
0.4630004,0.001968157
0.4620004,0.001790359
0.4610004,0.001612561
0.4600004,0.001437828
0.4590004,0.001278423
0.4580004,0.001083353
0.4570004,0.0009285464
0.4560004,0.0007814032
0.4550004,0.0006311946
0.4540004,0.0004914086
0.4530004,0.0003571404
0.4520004,0.0002228723
0.4510004,9.902677E-05
0.4500004,-2.451219E-05
0.4490004,-0.0001469887
0.4480004,-0.0002596452
0.4470004,-0.0003696856
0.4460004,-0.0004714596
0.4450004,-0.0005720074
0.4440004,-0.0006697963
0.4430004,-0.0007599215
0.4420004,-0.0008518859
0.4410004,-0.0009380261
0.4400004,-0.001018342
0.4390004,-0.001099577
0.4380004,-0.001172536
0.4370004,-0.001246414
0.4360004,-0.001317839
0.4350004,-0.001380375
0.4340004,-0.001447509
0.4330004,-0.001508206
0.4320004,-0.001564917
0.4310004,-0.001626534
0.4300004,-0.001678647
0.4290004,-0.001731373
0.4280004,-0.001785632
0.4270004,-0.001830388
0.4260004,-0.001879129
0.4250004,-0.001926031
0.4240004,-0.001967109
0.4230004,-0.002012784
0.4220004,-0.002053555
0.4210004,-0.002092793
0.4200004,-0.002132644
0.4190004,-0.002168817
0.4180004,-0.002207136
0.4170004,-0.002242696
0.4160004,-0.002278255
0.4150004,-0.002315041
0.4140004,-0.002346002
0.4130004,-0.002379416
0.4120004,-0.002414056
0.4110004,-0.002442871
0.4100004,-0.002483029
0.4090004,-0.002520122
0.4080004,-0.002544645
0.4070004,-0.002577753
0.4060004,-0.002605035
0.4050004,-0.002633851
0.4040004,-0.002666039
0.4030004,-0.002693628
0.4020004,-0.00272367
0.4010004,-0.002753405
0.4000004,-0.002780994
0.3990004,-0.002812569
0.3980004,-0.002840464
0.3970004,-0.0028702
0.3960004,-0.002902081
0.3950004,-0.002929057
0.3940004,-0.002959405
0.3930004,-0.002989754
0.3920004,-0.00301765
0.3910004,-0.003016318
0.3900004,-0.003043907
0.3890004,-0.003071497
0.3880004,-0.003102152
0.3870004,-0.003129741
0.3860004,-0.003163461
0.3850004,-0.003194116
0.3840004,-0.003221706
0.3830004,-0.003258491
0.3820004,-0.003286081
0.3810004,-0.003319801
0.3800004,-0.003353521
0.3790004,-0.00338111
0.3780004,-0.003417896
0.3770004,-0.003451617
0.3760004,-0.003482271
0.3750004,-0.003519057
0.3740004,-0.003549712
0.3730004,-0.003583432
0.3720004,-0.003620218
0.3710004,-0.003653938
0.3700004,-0.003690724
0.3690004,-0.003724444
0.3680004,-0.003758165
0.3670004,-0.003794951
0.3660004,-0.003828671
0.3650004,-0.003865457
0.3640004,-0.003905308
0.3630004,-0.003939028
0.3620004,-0.00397888
0.3610004,-0.004015665
0.3600004,-0.004052451
0.3590004,-0.004092303
0.3580004,-0.004129088
0.3570004,-0.004168939
0.3560004,-0.004208791
0.3550004,-0.004242511
0.3540004,-0.004285428
0.3530004,-0.004325279
0.3520004,-0.004362065
0.3510004,-0.004404982
0.3500004,-0.004441767
0.3490004,-0.004481619
0.3480004,-0.004524535
0.3470004,-0.004561321
0.3460004,-0.004604238
0.3450004,-0.004647155
0.3440004,-0.004683941
0.3430004,-0.004726857
0.3420004,-0.004766709
0.3410004,-0.004809625
0.3400004,-0.004852542
0.3390004,-0.004892393
0.3380004,-0.00493531
0.3370004,-0.004978227
0.3360004,-0.005018078
0.3350004,-0.005060995
0.3340004,-0.005103912
0.3330004,-0.005143763
0.3320004,-0.00518668
0.3310004,-0.005226531
0.3300004,-0.005269447
0.3290004,-0.005312365
0.3280004,-0.005352216
0.3270004,-0.005395133
0.3260004,-0.005438049
0.3250004,-0.0054779
0.3240004,-0.005520817
0.3230004,-0.005560669
0.3220004,-0.005600519
0.3210004,-0.005643437
0.3200004,-0.005683288
0.3190004,-0.005726204
0.3180004,-0.005762991
0.3170004,-0.005802842
0.3160004,-0.005842693
0.3150004,-0.005882544
0.3140004,-0.00591933
0.3130004,-0.005959181
0.3120004,-0.005995967
0.3110004,-0.006032753
0.3100004,-0.006066473
0.3090004,-0.006103259
0.3080004,-0.006140045
0.3070004,-0.00617683
0.3060004,-0.006213617
0.3050004,-0.006244271
0.3040004,-0.006274926
0.3030004,-0.006308646
0.3020004,-0.006336236
0.3010004,-0.00636689
0.3000004,-0.006397545
0.2990004,-0.006422069
0.2980004,-0.006449659
0.2970004,-0.006474182
0.2960004,-0.006495641
0.2950004,-0.006520165
0.2940004,-0.006544688
0.2930004,-0.006563081
0.2920004,-0.006581475
0.2910004,-0.006596802
0.2900004,-0.006612129
0.2890004,-0.006624391
0.2880004,-0.006636653
0.2870004,-0.006645849
0.2860004,-0.00665198
0.2850004,-0.006658111
0.2840004,-0.006661177
0.2830004,-0.006658111
0.2820004,-0.006658111
0.2810004,-0.006648915
0.2800004,-0.006633587
0.2790004,-0.006624391
0.2780004,-0.006602933
0.2770004,-0.006578409
0.2760004,-0.006550819
0.2750004,-0.006517099
0.2740004,-0.006477248
0.2730004,-0.0064282
0.2720004,-0.006369956
0.2710004,-0.00630558
0.2700004,-0.006219747
0.2690004,-0.006124718
0.2680004,-0.006011295
0.2670004,-0.005873348
0.2660004,-0.005717008
0.2650004,-0.005533079
0.2640004,-0.005327692
0.2630004,-0.005110043
0.2620004,-0.004880131
0.2610004,-0.004644089
0.2600004,-0.004411113
0.2590004,-0.004184267
0.2580004,-0.003969683
0.2570004,-0.003767361
0.2560004,-0.003586498
0.2550004,-0.003417896
0.2540004,-0.003264622
0.2530004,-0.00312361
0.2520004,-0.00299486
0.2510004,-0.002878371
0.2500004,-0.00277108
0.2490004,-0.002669919
0.2480004,-0.002574889
0.2470004,-0.00248599
0.2460004,-0.002397091
0.2450004,-0.002317388
0.2440004,-0.002237685
0.2430004,-0.002164114
0.2420004,-0.002093608
0.2410004,-0.002029233
0.2400004,-0.001967923
0.2390004,-0.001912744
0.2380004,-0.001860631
0.2370004,-0.001811583
0.2360004,-0.001768667
0.2350004,-0.00172575
0.2340004,-0.001685899
0.2330004,-0.001649113
0.2320004,-0.001612327
0.2310004,-0.001615498
0.2300004,-0.001583617
0.2290004,-0.001553269
0.2280004,-0.001524453
0.2270004,-0.001496251
0.2260004,-0.001469887
0.2250004,-0.001444444
0.2240004,-0.001419613
0.2230004,-0.001396316
0.2220004,-0.001373631
0.2210004,-0.001351866
0.2200004,-0.001331021
0.2190004,-0.001310482
0.2180004,-0.001290863
0.2170004,-0.001272164
0.2160004,-0.001253158
0.2150004,-0.001235684
0.2140004,-0.001218824
0.2130004,-0.001201964
0.2120004,-0.001185717
0.2110004,-0.001170083
0.2100004,-0.001155062
0.2090004,-0.001140348
0.2080004,-0.00112594
0.2070004,-0.001112145
0.2060004,-0.001098351
0.2050004,-0.001085476
0.2040004,-0.001072601
0.2030004,-0.001060032
0.2020004,-0.001048077
0.2010004,-0.001036122
0.2000004,-0.001024166
0.1990004,-0.001013131
0.1980004,-0.001002095
0.1970004,-0.0009913654
0.1960004,-0.0009809429
0.1950004,-0.0009705202
0.1940004,-0.0009607106
0.1930004,-0.0009509011
0.1920004,-0.0009410915
0.1910004,-0.000931895
0.1900004,-0.0009230052
0.1890004,-0.0009141153
0.1880004,-0.0009052254
0.1870004,-0.000896642
0.1860004,-0.0008880587
0.1850004,-0.0008800884
0.1840004,-0.0008721182
0.1830004,-0.0008641479
0.1820004,-0.0008564842
0.1810004,-0.0008488205
0.1800004,-0.0008414634
0.1790004,-0.0008341062
0.1780004,-0.0008270555
0.1770004,-0.000820005
0.1760004,-0.0008132609
0.1750004,-0.0008065169
0.1740004,-0.0008000793
0.1730004,-0.0007933353
0.1720004,-0.0007872043
0.1710004,-0.0007807668
0.1700004,-0.0007746358
0.1690004,-0.0007688114
0.1680004,-0.0007626804
0.1670004,-0.0007571626
0.1660004,-0.0007516447
0.1650004,-0.0007458202
0.1640004,-0.0007403024
0.1630004,-0.0007347845
0.1620004,-0.0007295733
0.1610004,-0.0007243619
0.1600004,-0.0007191506
0.1590004,-0.0007142458
0.1580004,-0.0007090345
0.1570004,-0.0007041298
0.1560004,-0.0006992249
0.1550004,-0.0006943202
0.1540004,-0.0006897219
0.1530004,-0.0006854302
0.1520004,-0.0006805255
0.1510004,-0.0006762338
0.1500004,-0.0006716356
0.1490004,-0.000667344
0.1480004,-0.0006630523
0.1470004,-0.0006590671
0.1460004,-0.0006547754
0.1450004,-0.0006507903
0.1440004,-0.0006468052
0.1430004,-0.00064282
0.1420004,-0.0006388349
0.1410004,-0.0006348498
0.1400004,-0.0006311712
0.1390004,-0.0006271861
0.1380004,-0.0006235075
0.1370004,-0.0006198289
0.1360004,-0.0006161503
0.1350004,-0.0006127784
0.1340004,-0.0006094063
0.1330004,-0.0006057277
0.1320004,-0.0006023557
0.1310004,-0.0005989837
0.1300004,-0.0005956116
0.1290004,-0.0005922396
0.1280004,-0.0005888676
0.1270004,-0.0005861087
0.1260004,-0.0005827366
0.1250004,-0.0005793645
0.1240004,-0.0005762991
0.1230004,-0.0005735401
0.1220004,-0.0005704747
0.1210004,-0.0005674092
0.1200004,-0.0005646503
0.1190004,-0.0005618913
0.1180004,-0.0005585193
0.1170004,-0.0005557603
0.1160004,-0.0005530014
0.1150004,-0.0005502424
0.1140004,-0.0005474835
0.1130004,-0.0005447246
0.1120004,-0.0005422722
0.1110004,-0.0005395133
0.1100004,-0.0005370609
0.1090004,-0.000534302
0.1080004,-0.0005318496
0.1070004,-0.0005293972
0.1060004,-0.0005266382
0.1050004,-0.0005244924
0.1040004,-0.0005217335
0.1030004,-0.0005195877
0.1020004,-0.0005171353
0.1010004,-0.0005146828
0.1000004,-0.0005122305
0.09900038,-0.0005100847
0.09800038,-0.0005076323
0.09700038,-0.0005054864
0.09600038,-0.0005033406
0.09500038,-0.0005011947
0.09400038,-0.0004990489
0.09300038,-0.0004969031
0.09200038,-0.0004947572
0.09100038,-0.0004926114
0.09000038,-0.0004904656
0.08900038,-0.0004883197
0.08800038,-0.0004861739
0.08700038,-0.0004843346
0.08600038,-0.0004821887
0.08500038,-0.0004800429
0.08400038,-0.0004782036
0.08300038,-0.0004760578
0.08200038,-0.0004742185
0.08100038,-0.0004723792
0.08000038,-0.0004705399
0.07900038,-0.0004687006
0.07800038,-0.0004668614
0.07700038,-0.0004650221
0.07600038,-0.0004631828
0.07500038,-0.0004613435
0.07400038,-0.0004595042
0.07300038,-0.0004576649
0.07200038,-0.0004558256
0.07100038,-0.0004542929
0.07000038,-0.0004527601
0.06900038,-0.0004509208
0.06800038,-0.0004490816
0.06700038,-0.0004475488
0.06600038,-0.0004460161
0.06500039,-0.0004441768
0.06400038,-0.000442644
0.06300038,-0.0004411113
0.06200038,-0.0004395786
0.06100038,-0.0004377393
0.06000038,-0.0004362065
0.05900038,-0.0004346738
0.05800038,-0.0004334476
0.05700038,-0.0004319148
0.05600038,-0.0004303821
0.05500038,-0.0004288494
0.05400038,-0.0004273166
0.05300038,-0.0004257839
0.05200038,-0.0004245577
0.05100038,-0.0004230249
0.05000038,-0.0004214922
0.04900038,-0.000420266
0.04800038,-0.0004187333
0.04700038,-0.0004172005
0.04600038,-0.0004156678
0.04500038,-0.0004144416
0.04400038,-0.0004132154
0.04300038,-0.0004116826
0.04200038,-0.0004104565
0.04100038,-0.0004092303
0.04000038,-0.0004076975
0.03900038,-0.0004064713
0.03800038,-0.0004049386
0.03700038,-0.0004037124
0.03600038,-0.0004024862
0.03500038,-0.00040126
0.03400038,-0.0004000338
0.03300038,-0.0003988076
0.03200038,-0.0003975815
0.03100038,-0.0003960487
0.03000038,-0.0003948225
0.02900038,-0.0003935963
0.02800038,-0.0003926767
0.02700038,-0.0003911439
0.02600038,-0.0003899177
0.02500038,-0.0003889981
0.02400038,-0.0003877719
0.02300038,-0.0003865457
0.02200038,-0.0003853195
0.02100038,-0.0003840933
0.02000038,-0.0003831737
0.01900038,-0.0003819475
0.01800038,-0.0003807213
0.01700038,-0.0003794951
0.01600038,-0.0003782689
0.01500038,-0.0003773492
0.01400038,-0.0003761231
0.01300038,-0.0003748969
0.01200038,-0.0003739772
0.01100038,-0.000372751
0.01000038,-0.0003718314
0.009000381,-0.0003706052
0.008000381,-0.0003696856
0.007000382,-0.0003684594
0.006000381,-0.0003672332
0.005000381,-0.0003663135
0.004000382,-0.0003650873
0.003000381,-0.0003641677
0.002000381,-0.0003629415
0.001000381,-0.0003620218
3.814697E-07,-0.0003574236
0.0009996186,-0.0003522123
0.001999618,-0.0003479206
0.002999618,-0.000344242
0.003999618,-0.0003402569
0.004999619,-0.0003368849
0.005999619,-0.0003335129
0.006999618,-0.0003304474
0.007999619,-0.0003273819
0.008999619,-0.0003243164
0.009999619,-0.0003212509
0.01099962,-0.000318492
0.01199962,-0.0003157331
0.01299962,-0.0003129741
0.01399962,-0.0003102152
0.01499962,-0.0003077628
0.01599962,-0.0003050039
0.01699962,-0.0003025515
0.01799962,-0.0003000991
0.01899962,-0.0002976467
0.01999962,-0.0002955009
0.02099962,-0.0002930485
0.02199962,-0.0002909026
0.02299962,-0.0002884502
0.02399962,-0.0002863044
0.02499962,-0.000283852
0.02599962,-0.0002820127
0.02699962,-0.0002798669
0.02799962,-0.0002777211
0.02899962,-0.0002755752
0.02999962,-0.0002734294
0.03099962,-0.0002715901
0.03199962,-0.0002694443
0.03299962,-0.0002676049
0.03399962,-0.0002654591
0.03499962,-0.0002636198
0.03599962,-0.000261474
0.03699962,-0.0002596347
0.03799962,-0.0002577954
0.03899962,-0.0002559561
0.03999962,-0.0002541168
0.04099962,-0.0002525841
0.04199962,-0.0002507448
0.04299962,-0.0002489055
0.04399962,-0.0002470662
0.04499962,-0.000245227
0.04599962,-0.0002433877
0.04699962,-0.0002418549
0.04799962,-0.0002400156
0.04899962,-0.0002384829
0.04999962,-0.0002366436
0.05099962,-0.0002351108
0.05199962,-0.0002335781
0.05299962,-0.0002317388
0.05399962,-0.0002302061
0.05499962,-0.0002286733
0.05599962,-0.0002271406
0.05699962,-0.0002256079
0.05799962,-0.0002240751
0.05899962,-0.0002225424
0.05999962,-0.0002210096
0.06099962,-0.0002194769
0.06199962,-0.0002182507
0.06299962,-0.0002167179
0.06399962,-0.0002151852
0.06499962,-0.0002136525
0.06599962,-0.0002121197
0.06699962,-0.0002108935
0.06799962,-0.0002093608
0.06899962,-0.0002081346
0.06999962,-0.0002066019
0.07099961,-0.0002053757
0.07199962,-0.0002038429
0.07299962,-0.0002026167
0.07399962,-0.0002013905
0.07499962,-0.0002001643
0.07599962,-0.0001989382
0.07699962,-0.000197712
0.07799962,-0.0001961792
0.07899962,-0.000194953
0.07999962,-0.0001937268
0.08099962,-0.0001925007
0.08199961,-0.0001912744
0.08299962,-0.0001900483
0.08399962,-0.0001888221
0.08499962,-0.0001875959
0.08599962,-0.0001866762
0.08699962,-0.00018545
0.08799962,-0.0001842238
0.08899962,-0.0001833042
0.08999962,-0.000182078
0.09099962,-0.0001808518
0.09199962,-0.0001796256
0.09299962,-0.000178706
0.09399962,-0.0001774798
0.09499962,-0.0001765601
0.09599962,-0.0001756405
0.09699962,-0.0001744143
0.09799962,-0.0001734946
0.09899962,-0.0001722685
0.09999962,-0.0001710423
0.1009996,-0.0001701226
0.1019996,-0.000169203
0.1029996,-0.0001679768
0.1039996,-0.0001670571
0.1049996,-0.0001661375
0.1059996,-0.0001649113
0.1069996,-0.0001642982
0.1079996,-0.000163072
0.1089996,-0.0001621524
0.1099996,-0.0001612327
0.1109996,-0.0001603131
0.1119996,-0.0001624694
0.1129996,-0.0001615804
0.1139996,-0.0001606301
0.1149996,-0.0001596798
0.1159996,-0.0001588215
0.1169996,-0.0001579631
0.1179996,-0.0001570742
0.1189996,-0.0001561852
0.1199996,-0.0001552962
0.1209996,-0.0001544072
0.1219996,-0.0001534569
0.1229996,-0.0001525372
0.1239996,-0.0001516176
0.1249996,-0.0001507593
0.1259996,-0.0001499622
0.1269996,-0.0001490733
0.1279996,-0.0001482762
0.1289996,-0.0001474792
0.1299996,-0.0001466209
0.1309996,-0.0001458238
0.1319996,-0.0001449042
0.1329996,-0.0001440459
0.1339996,-0.0001431875
0.1349996,-0.0001423292
0.1359996,-0.0001415628
0.1369996,-0.0001408271
0.1379996,-0.0001399381
0.1389996,-0.0001392637
0.1399996,-0.000138436
0.1409996,-0.0001376697
0.1419996,-0.0001369033
0.1429996,-0.0001360756
0.1439996,-0.0001352173
0.1449996,-0.0001344509
0.1459996,-0.0001336845
0.1469996,-0.0001328569
0.1479996,-0.0001321518
0.1489996,-0.0001314161
0.1499996,-0.000130711
0.1509996,-0.000130006
0.1519996,-0.0001292702
0.1529996,-0.0001285039
0.1539996,-0.0001275842
0.1549996,-0.0001268485
0.1559996,-0.0001261434
0.1569996,-0.0001253771
0.1579996,-0.0001247946
0.1589996,-0.0001240283
0.1599996,-0.0001233539
0.1609996,-0.0001226794
0.1619996,-0.0001218824
0.1629996,-0.0001211467
0.1639996,-0.000120319
0.1649996,-0.000119614
0.1659996,-0.0001189089
0.1669996,-0.0001182345
0.1679996,-0.0001174988
0.1689996,-0.000116855
0.1699996,-0.00011615
0.1709996,-0.0001155062
0.1719996,-0.0001147092
0.1729996,-0.0001140041
0.1739996,-0.0001132378
0.1749996,-0.000112502
0.1759996,-0.0001117663
0.1769996,-0.0001110919
0.1779996,-0.0001104175
0.1789996,-0.0001097738
0.1799996,-0.0001090074
0.1809996,-0.0001083637
0.1819996,-0.0001077199
0.1829996,-0.0001069535
0.1839996,-0.0001063098
0.1849996,-0.0001056047
0.1859996,-0.0001048077
0.1869996,-0.0001041026
0.1879996,-0.0001033056
0.1889996,-0.0001025392
0.1899996,-0.0001018955
0.1909996,-0.0001011291
0.1919996,-0.000100424
0.1929996,-9.978029E-05
0.1939996,-9.898326E-05
0.1949996,-9.827821E-05
0.1959996,-9.754248E-05
0.1969996,-9.686808E-05
0.1979996,-9.619367E-05
0.1989996,-9.539664E-05
0.1999996,-9.466094E-05
0.2009996,-9.383325E-05
0.2019996,-9.300557E-05
0.2029996,-9.22392E-05
0.2039996,-9.147283E-05
0.2049996,-9.073711E-05
0.2059996,-9.003206E-05
0.2069996,-8.923503E-05
0.2079996,-8.852997E-05
0.2089996,-8.779425E-05
0.2099996,-8.687461E-05
0.2109996,-8.604692E-05
0.2119996,-8.512728E-05
0.2129996,-8.436092E-05
0.2139996,-8.359454E-05
0.2149996,-8.27362E-05
0.2159996,-8.190853E-05
0.2169996,-8.108085E-05
0.2179996,-8.022251E-05
0.2189996,-7.942548E-05
0.2199996,-7.850584E-05
0.2209996,-7.767816E-05
0.2219996,-7.678917E-05
0.2229996,-7.571625E-05
0.2239996,-7.47966E-05
0.2249996,-7.387697E-05
0.2259996,-7.289601E-05
0.2269996,-7.200702E-05
0.2279996,-7.087279E-05
0.2289996,-7.004511E-05
0.2299996,-6.912547E-05
0.2309996,-6.811386E-05
0.2319996,-6.704094E-05
0.2329996,-6.596802E-05
0.2339996,-6.480313E-05
0.2349996,-6.379152E-05
0.2359996,-6.256533E-05
0.2369996,-6.130848E-05
0.2379996,-6.020491E-05
0.2389996,-5.900937E-05
0.2399996,-5.784449E-05
0.2409996,-5.66183E-05
0.2419996,-5.530014E-05
0.2429996,-5.41046E-05
0.2439996,-5.275579E-05
0.2449996,-5.137632E-05
0.2459996,-4.993554E-05
0.2469996,-4.849477E-05
0.2479996,-4.71153E-05
0.2489996,-4.558256E-05
0.2499996,-4.414178E-05
0.2509996,-4.273166E-05
0.2519996,-4.098433E-05
0.2529996,-3.948225E-05
0.2539996,-3.776558E-05
0.2549996,-3.583432E-05
0.2559996,-3.4087E-05
0.2569996,-3.237033E-05
0.2579996,-3.040842E-05
0.2589996,-2.86611E-05
0.2599996,-2.660722E-05
0.2609996,-2.467597E-05
0.2619996,-2.259144E-05
0.2629996,-2.026167E-05
0.2639996,-1.802387E-05
0.2649996,-1.584738E-05
0.2659996,-1.342565E-05
0.2669996,-1.112653E-05
0.2679996,-8.520874E-06
0.2689996,-5.913199E-06
0.2699996,-3.374979E-06
0.2709996,-4.689021E-07
0.2719996,2.3728E-06
0.2729996,5.214503E-06
0.2739996,8.221741E-06
0.2749996,1.11738E-05
0.2759996,1.463473E-05
0.2769996,1.785655E-05
0.2779996,2.132668E-05
0.2789996,2.532205E-05
0.2799996,2.860212E-05
0.2809996,3.237266E-05
0.2819996,3.648041E-05
0.2829996,4.037357E-05
0.2839996,4.487983E-05
0.2849996,4.935544E-05
0.2859996,5.373908E-05
0.2869996,5.870515E-05
0.2879996,6.364059E-05
0.2889996,6.854536E-05
0.2899996,7.409388E-05
0.2909996,7.96424E-05
0.2919996,8.568141E-05
0.2929996,9.144451E-05
0.2939996,9.779006E-05
0.2949996,0.0001044115
0.2959996,0.0001108797
0.2969996,0.0001182062
0.2979996,0.0001257473
0.2989996,0.0001331657
0.2999996,0.0001415651
0.3009996,0.0001498726
0.3019996,0.0001583333
0.3029996,0.0001679589
0.3039996,0.0001773393
0.3049996,0.0001874248
0.3059996,0.000198062
0.3069996,0.0002091284
0.3079996,0.0002208079
0.3089996,0.0002327633
0.3099996,0.0002452091
0.3109996,0.0002588812
0.3119996,0.0002724919
0.3129996,0.000287053
0.3139996,0.0003059468
0.3149996,0.0003215808
0.3159996,0.0003390541
0.3169996,0.0003568339
0.3179996,0.0003752268
0.3189996,0.0003954589
0.3199996,0.0004163042
0.3209996,0.0004383757
0.3219996,0.0004619799
0.3229996,0.0004861972
0.3239996,0.0005131735
0.3249996,0.0005401497
0.3259996,0.0005689653
0.3269996,0.0006008463
0.3279996,0.0006330339
0.3289996,0.0006679803
0.3299996,0.0007053793
0.3309996,0.0007443109
0.3319996,0.0007869211
0.3329996,0.0008307575
0.3339996,0.0008779659
0.3349996,0.0009297726
0.3359996,0.0009834185
0.3369996,0.001041663
0.3379996,0.001104505
0.3389996,0.001171333
0.3399996,0.001243985
0.3409996,0.001320315
0.3419996,0.00140339
0.3429996,0.001492902
0.3439996,0.001587932
0.3449996,0.001692771
0.3459996,0.001804968
0.3469996,0.001924828
0.3479996,0.002056644
0.3489996,0.002194897
0.3499996,0.002345106
0.3509996,0.002506657
0.3519996,0.002677404
0.3529996,0.00286072
0.3539996,0.003052619
0.3549996,0.003280183
0.3559996,0.00348557
0.3569996,0.003697089
0.3579996,0.003914738
0.3589996,0.004132387
0.3599996,0.004346971
0.3609996,0.004561555
0.3619996,0.004770007
0.3629996,0.004969264
0.3639996,0.00516852
0.3649996,0.00535858
0.3659996,0.005539444
0.3669996,0.005717242
0.3679996,0.005882777
0.3689996,0.006045248
0.3699996,0.006198522
0.3709996,0.006345665
0.3719996,0.006486678
0.3729996,0.006618494
0.3739996,0.006744178
0.3749996,0.006866798
0.3759996,0.00698022
0.3769996,0.007090578
0.3779996,0.007191739
0.3789996,0.007286769
0.3799996,0.007381798
0.3809996,0.007461501
0.3819996,0.007541204
0.3829996,0.007617841
0.3839996,0.007685281
0.3849996,0.007755788
0.3859996,0.007817097
0.3869996,0.007875342
0.3879996,0.007936651
0.3889996,0.007988765
0.3899996,0.008040877
0.3909996,0.008096056
0.3919996,0.008142038
0.3929996,0.008191085
0.3939996,0.008240134
0.3949996,0.008286116
0.3959996,0.008332099
0.3969996,0.008375015
0.3979996,0.008417931
0.3989996,0.008460849
0.3999996,0.008497634
0.4009996,0.008537485
0.4019996,0.008574272
0.4029996,0.008611057
0.4039996,0.008647843
0.4049996,0.008678498
0.4059996,0.008709153
0.4069996,0.008739808
0.4079996,0.008761265
0.4089996,0.008794987
0.4099996,0.008825641
0.4109996,0.008840969
0.4119996,0.008865492
0.4129996,0.008877754
0.4139996,0.008893081
0.4149996,0.008905343
0.4159996,0.008914541
0.4169996,0.008920671
0.4179996,0.008923736
0.4189996,0.008923736
0.4199996,0.008923736
0.4209996,0.008914541
0.4219996,0.00890841
0.4229996,0.008899212
0.4239996,0.008880819
0.4249996,0.008865492
0.4259996,0.008840969
0.4269996,0.008816444
0.4279996,0.008791921
0.4289996,0.0087582
0.4299996,0.00872448
0.4309996,0.008687695
0.4319996,0.008641711
0.4329996,0.008598795
0.4339996,0.008552813
0.4349996,0.008497634
0.4359996,0.008445522
0.4369996,0.008387277
0.4379996,0.008325968
0.4389996,0.008264658
0.4399996,0.008197217
0.4409996,0.008132842
0.4419996,0.008065402
0.4429996,0.00799183
0.4439996,0.007921323
0.4449996,0.007841621
0.4459996,0.00776805
0.4469996,0.007694478
0.4479996,0.007614775
0.4489996,0.007538138
0.4499996,0.007461501
0.4509996,0.007381798
0.4519996,0.007308227
0.4529996,0.00723159
0.4539996,0.007158018
0.4549996,0.007087512
0.4559996,0.007013941
0.4569996,0.006949566
0.4579996,0.006882125
0.4589996,0.00681775
0.4599996,0.006762571
0.4609996,0.006710458
0.4619996,0.00666141
0.4629996,0.006615428
0.4639996,0.006578642
0.4649996,0.006544922
0.4659996,0.006514267
0.4669996,0.006492809
0.4679996,0.006480547
0.4689996,0.006468285
0.4699996,0.006471351
0.4709996,0.006480547
0.4719996,0.006492809
0.4729996,0.006523463
0.4739996,0.006554118
0.4749996,0.00659397
0.4759996,0.006649148
0.4769996,0.006707393
0.4779996,0.006780964
0.4789996,0.006863732
0.4799996,0.006952631
0.4809996,0.007056858
0.4819996,0.00717028
0.4829996,0.007289834
0.4839996,0.007427781
0.4849996,0.007568793
0.4859996,0.007722067
0.4869996,0.007887604
0.4879996,0.00805927
0.4889996,0.008243199
0.4899996,0.008433259
0.4909996,0.008638646
0.4919996,0.008853231
0.4929996,0.00907088
0.4939996,0.009303857
0.4949996,0.009539898
0.4959996,0.009785137
0.4969996,0.01004264
0.4979996,0.01030014
0.4989996,0.0105699
0.4999996,0.01085192
0.5009996,0.01112782
0.5019996,0.01141597
0.5029996,0.01171639
0.5039996,0.01201068
0.5049996,0.01232029
0.5059996,0.01263604
0.5069996,0.01294871
0.5079996,0.01327672
0.5089996,0.01360166
0.5099996,0.01392967
0.5109996,0.01426994
0.5119996,0.01461021
0.5129996,0.0149566
0.5139996,0.01530607
0.5149996,0.01565247
0.5159996,0.01601113
0.5169996,0.01636673
0.5179996,0.01672846
0.5189996,0.01709325
0.5199996,0.01745804
0.5209996,0.01782896
0.5219996,0.01819989
0.5229996,0.01857387
0.5239996,0.01895399
0.5249996,0.01933412
0.5259996,0.0197173
0.5269996,0.02009742
0.5279996,0.02048367
0.5289996,0.02087299
0.5299996,0.0212623
0.5309996,0.02165469
0.5319996,0.0220532
0.5329996,0.02244251
0.5339996,0.02284409
0.5349996,0.02324261
0.5359996,0.02363805
0.5369996,0.0240427
0.5379996,0.02444734
0.5389996,0.02484892
0.5399996,0.02525969
0.5409996,0.02566434
0.5419996,0.02607205
0.5429996,0.02648589
0.5439996,0.02689666
0.5449996,0.0273105
0.5459996,0.02772434
0.5469996,0.02813818
0.5479996,0.02855815
0.5489996,0.02897199
0.5499996,0.02939503
0.5509996,0.029815
0.5519996,0.03022884
0.5529996,0.03142237
0.5539996,0.03182088
0.5549996,0.03225004
0.5559996,0.03267921
0.5569996,0.03310838
0.5579996,0.03353755
0.5589996,0.03396672
0.5599996,0.03439588
0.5609996,0.03482505
0.5619996,0.03525422
0.5629996,0.03568339
0.5639996,0.03614321
0.5649996,0.03657238
0.5659996,0.03700154
0.5669996,0.03743071
0.5679996,0.03789053
0.5689996,0.0383197
0.5699996,0.03877952
0.5709996,0.03920869
0.5719996,0.03966851
0.5729996,0.04009768
0.5739996,0.04052685
0.5749996,0.04098667
0.5759996,0.04141584
0.5769996,0.04187566
0.5779996,0.04230483
0.5789996,0.04276465
0.5799996,0.04322447
0.5809996,0.04365364
0.5819996,0.04411346
0.5829996,0.04454263
0.5839996,0.04500245
0.5849996,0.04546228
0.5859996,0.0459221
0.5869996,0.04635127
0.5879996,0.04681109
0.5889996,0.04727091
0.5899996,0.04770008
0.5909996,0.0481599
0.5919996,0.04861972
0.5929996,0.04907954
0.5939996,0.04950871
0.5949996,0.04996854
0.5959996,0.05042836
0.5969996,0.05085753
0.5979996,0.05131735
0.5989996,0.05177717
0.5999996,0.05223699
0.6009996,0.05269681
0.6019996,0.05315664
0.6029996,0.0535858
0.6039996,0.05407628
0.6049996,0.0545361
0.6059996,0.05499592
0.6069996,0.05545575
0.6079996,0.05588492
0.6089996,0.05634474
0.6099996,0.05680456
0.6109996,0.05726438
0.6119996,0.05775486
0.6129996,0.05821468
0.6139996,0.0586745
0.6149996,0.05913433
0.6159996,0.05959415
0.6169996,0.06005397
0.6179996,0.06048314
0.6189996,0.06097361
0.6199996,0.06143344
0.6209996,0.06189326
0.6219996,0.06235309
0.6229996,0.06281291
0.6239996,0.06327273
0.6249996,0.06373256
0.6259996,0.06422303
0.6269996,0.06468286
0.6279996,0.06514268
0.6289996,0.0656025
0.6299996,0.06606232
0.6309996,0.06652214
0.6319996,0.06698196
0.6329996,0.06747244
0.6339996,0.0679016
0.6349996,0.06836143
0.6359996,0.06885191
0.6369996,0.06931173
0.6379996,0.06980221
0.6389996,0.07026203
0.6399996,0.0706912
0.6409996,0.07118168
0.6419996,0.0716415
0.6429996,0.07210132
0.6439996,0.0725918
0.6449996,0.07305162
0.6459996,0.07351144
0.6469996,0.07397126
0.6479996,0.07443108
0.6489996,0.07492156
0.6499996,0.07538139
0.6509996,0.07584121
0.6519996,0.07630103
0.6529996,0.07679151
0.6539996,0.07728198
0.6549996,0.07774181
0.6559996,0.07820163
0.6569996,0.07869211
0.6579996,0.07915193
0.6589996,0.07961175
0.6599996,0.08010223
0.6609996,0.08056205
0.6619996,0.08105253
0.6629996,0.08151235
0.6639996,0.08197217
0.6649996,0.08243199
0.6659996,0.08292247
0.6669996,0.0833823
0.6679996,0.08387277
0.6689996,0.08433259
0.6699996,0.08479242
0.6709996,0.08528289
0.6719996,0.08577337
0.6729996,0.08623319
0.6739996,0.08669301
0.6749996,0.0871835
0.6759996,0.08764332
0.6769996,0.08810314
0.6779996,0.08859362
0.6789996,0.08905344
0.6799996,0.08954392
0.6809996,0.09000374
0.6819996,0.09049422
0.6829996,0.09095404
0.6839996,0.09144451
0.6849996,0.09190433
0.6859996,0.09239481
0.6869996,0.09288529
0.6879996,0.09334511
0.6889996,0.09380494
0.6899996,0.09429541
0.6909996,0.09475523
0.6919996,0.09524571
0.6929996,0.09570553
0.6939996,0.09619602
0.6949996,0.09665584
0.6959996,0.09711566
0.6969996,0.09760614
0.6979996,0.09809661
0.6989996,0.09858709
0.6999996,0.09870971
0.6990005,0.09824988
0.6980005,0.09779006
0.6970005,0.09733024
0.6960005,0.09687041
0.6950005,0.09641059
0.6940005,0.09592012
0.6930005,0.0954603
0.6920004,0.09500048
0.6910005,0.09454065
0.6900005,0.09408083
0.6890005,0.09362101
0.6880005,0.09316119
0.6870005,0.09267071
0.6860005,0.09221088
0.6850005,0.09175106
0.6840005,0.09126058
0.6830005,0.09080076
0.6820005,0.09034094
0.6810005,0.08988111
0.6800005,0.08942129
0.6790005,0.08896147
0.6780005,0.08850165
0.6770005,0.08801118
0.6760005,0.08758201
0.6750005,0.08712219
0.6740005,0.08663171
0.6730005,0.08617189
0.6720005,0.08571207
0.6710005,0.08525224
0.6700005,0.08479242
0.6690005,0.08433259
0.6680005,0.08384212
0.6670005,0.0833823
0.6660005,0.08292247
0.6650005,0.08246265
0.6640005,0.08200283
0.6630005,0.08154301
0.6620005,0.08111384
0.6610005,0.08062336
0.6600005,0.08016354
0.6590005,0.07970371
0.6580005,0.07924389
0.6570005,0.07878407
0.6560005,0.07832425
0.6550004,0.07783377
0.6540005,0.07734329
0.6530005,0.07691412
0.6520005,0.07648496
0.6510005,0.07599448
0.6500005,0.07556532
0.6490005,0.07510549
0.6480005,0.07464567
0.6470005,0.07418585
0.6460005,0.07372602
0.6450005,0.0732662
0.6440005,0.07280638
0.6430005,0.07234656
0.6420005,0.07188674
0.6410004,0.07142691
0.6400005,0.07099774
0.6390005,0.07056858
0.6380005,0.0700781
0.6370005,0.06964894
0.6360005,0.06915846
0.6350005,0.06869864
0.6340005,0.06823882
0.6330005,0.06780964
0.6320005,0.06734982
0.6310005,0.06688999
0.6300005,0.06643017
0.6290005,0.06597035
0.6280005,0.06551053
0.6270005,0.06508137
0.6260005,0.06462154
0.6250005,0.06416172
0.6240005,0.0637019
0.6230005,0.06324207
0.6220005,0.06281291
0.6210005,0.06235309
0.6200005,0.06189326
0.6190005,0.06143344
0.6180004,0.06100427
0.6170005,0.06054445
0.6160005,0.06008463
0.6150005,0.0596248
0.6140005,0.05916498
0.6130005,0.05873581
0.6120005,0.05827599
0.6110005,0.05784683
0.6100005,0.057387
0.6090005,0.05695784
0.6080005,0.05649801
0.6070005,0.05603819
0.6060005,0.05560903
0.6050005,0.0551492
0.6040004,0.05472003
0.6030005,0.05426021
0.6020005,0.05383104
0.6010005,0.05337122
0.6000005,0.0529114
0.5990005,0.05245158
0.5980005,0.05202241
0.5970005,0.05159324
0.5960005,0.05113342
0.5950005,0.05070425
0.5940005,0.05024443
0.5930005,0.04981526
0.5920005,0.0493861
0.5910005,0.04895693
0.5900005,0.0484971
0.5890005,0.04806793
0.5880005,0.04760811
0.5870005,0.04717895
0.5860005,0.04674978
0.5850005,0.04632061
0.5840005,0.04586079
0.5830005,0.04543162
0.5820005,0.04500245
0.5810004,0.04454263
0.5800005,0.04411346
0.5790005,0.0436843
0.5780005,0.04322447
0.5770005,0.0427953
0.5760005,0.04236614
0.5750005,0.04193697
0.5740005,0.0415078
0.5730005,0.04107863
0.5720005,0.04064947
0.5710005,0.0402203
0.5700005,0.03979113
0.5690005,0.03936196
0.5680005,0.0389328
0.5670004,0.03850363
0.5660005,0.03807446
0.5650005,0.0376453
0.5640005,0.03721613
0.5630005,0.03678696
0.5620005,0.03635779
0.5610005,0.03592863
0.5600005,0.03553011
0.5590005,0.03510094
0.5580005,0.03467178
0.5570005,0.03424261
0.5560005,0.03384409
0.5550005,0.03341493
0.5540005,0.03301642
0.5530005,0.03258725
0.5520005,0.03218874
0.5510005,0.03175957
0.5500005,0.0313304
0.5490005,0.03093189
0.5480005,0.03050272
0.5470005,0.03007355
0.5460005,0.02967504
0.5450005,0.02927653
0.5440005,0.02884736
0.5430005,0.02844885
0.5420005,0.02805033
0.5410005,0.02762116
0.5400005,0.02722265
0.5390005,0.02682414
0.5380005,0.02642563
0.5370005,0.02602712
0.5360005,0.0256286
0.5350005,0.02523009
0.5340005,0.02483158
0.5330005,0.02443307
0.5320005,0.02403455
0.5310005,0.02363604
0.5300004,0.02326818
0.5290005,0.02286967
0.5280005,0.02247116
0.5270005,0.02207264
0.5260005,0.02167413
0.5250005,0.02130627
0.5240005,0.02090776
0.5230005,0.0205399
0.5220005,0.02014139
0.5210005,0.01977353
0.5200005,0.01940567
0.5190005,0.01900716
0.5180005,0.0186393
0.5170005,0.0183021
0.5160004,0.01790359
0.5150005,0.01753573
0.5140005,0.01716787
0.5130005,0.01680001
0.5120005,0.01646281
0.5110005,0.01609495
0.5100005,0.01572709
0.5090005,0.01535923
0.5080005,0.01502203
0.5070005,0.01465417
0.5060005,0.01428632
0.5050005,0.01394911
0.5040005,0.01361191
0.5030005,0.01327471
0.5020005,0.01243678
0.5010005,0.01210264
0.5000005,0.01177157
0.4990005,0.01144356
0.4980005,0.01111862
0.4970005,0.01079675
0.4960005,0.01047794
0.4950005,0.01015913
0.4940005,0.009843381
0.4930005,0.009533768
0.4920005,0.009224153
0.4910005,0.008923736
0.4900005,0.008620254
0.4890005,0.008322901
0.4880005,0.008028615
0.4870005,0.007734329
0.4860005,0.007452305
0.4850005,0.007167215
0.4840005,0.00688519
0.4830005,0.006612363
0.4820005,0.006339534
0.4810005,0.006069772
0.4800005,0.005806141
0.4790005,0.005542509
0.4780005,0.005288074
0.4770005,0.005036704
0.4760005,0.004788401
0.4750005,0.004549293
0.4740005,0.00430712
0.4730005,0.004071078
0.4720005,0.003847297
0.4710005,0.003617386
0.4700005,0.003399737
0.4690005,0.003185153
0.4680005,0.002970569
0.4670005,0.002768247
0.4660005,0.002565926
0.4650005,0.0023728
0.4640005,0.00218274
0.4630005,0.00199268
0.4620005,0.001814882
0.4610005,0.001637084
0.4600005,0.001465417
0.4590005,0.001302947
0.4580005,0.001140476
0.4570005,0.0009530703
0.4560005,0.0008043944
0.4550005,0.0006554119
0.4540005,0.0005159324
0.4530005,0.0003789053
0.4520005,0.0002452503
0.4510005,0.0001214048
0.4500005,-3.360358E-06
0.4490005,-0.0001258369
0.4480005,-0.0002373898
0.4470005,-0.0003495558
0.4460005,-0.0004527601
0.4450005,-0.0005523883
0.4440005,-0.000652323
0.4430005,-0.0007418352
0.4420005,-0.0008331866
0.4410005,-0.0009208593
0.4400005,-0.001000562
0.4390005,-0.00108241
0.4380005,-0.001157515
0.4370005,-0.00123078
0.4360005,-0.001301286
0.4350005,-0.001365661
0.4340005,-0.001432489
0.4330005,-0.001493798
0.4320005,-0.001552349
0.4310005,-0.001612739
0.4300005,-0.001665159
0.4290005,-0.001719111
0.4280005,-0.001772451
0.4270005,-0.00181782
0.4260005,-0.001867787
0.4250005,-0.001913463
0.4240005,-0.001955153
0.4230005,-0.002002055
0.4220005,-0.002042826
0.4210005,-0.002081451
0.4200005,-0.002122835
0.4190005,-0.002157782
0.4180005,-0.0021961
0.4170005,-0.002232886
0.4160005,-0.002266913
0.4150005,-0.002303699
0.4140005,-0.002336499
0.4130005,-0.00236838
0.4120005,-0.00240302
0.4110005,-0.002433368
0.4100005,-0.0024723
0.4090005,-0.002508166
0.4080005,-0.002534836
0.4070005,-0.00256641
0.4060005,-0.002593387
0.4050005,-0.002623428
0.4040005,-0.002653777
0.4030005,-0.00268106
0.4020005,-0.002713247
0.4010005,-0.00274145
0.4000005,-0.002768119
0.3990005,-0.002801226
0.3980005,-0.00282759
0.3970005,-0.002857938
0.3960005,-0.002890125
0.3950005,-0.002915875
0.3940005,-0.002947144
0.3930005,-0.002976572
0.3920005,-0.003002935
0.3910005,-0.003000991
0.3900005,-0.00302858
0.3890005,-0.003056169
0.3880005,-0.003086824
0.3870005,-0.003117479
0.3860005,-0.003148134
0.3850005,-0.003178789
0.3840005,-0.003206378
0.3830005,-0.003240098
0.3820005,-0.003267688
0.3810005,-0.003301408
0.3800005,-0.003335128
0.3790005,-0.003365783
0.3780005,-0.003402569
0.3770005,-0.003433224
0.3760005,-0.003463879
0.3750005,-0.003500664
0.3740005,-0.003531319
0.3730005,-0.003565039
0.3720005,-0.00359876
0.3710005,-0.00363248
0.3700005,-0.003669266
0.3690005,-0.003702986
0.3680005,-0.003736707
0.3670005,-0.003773492
0.3660005,-0.003807213
0.3650005,-0.003843998
0.3640005,-0.003880784
0.3630005,-0.003914505
0.3620005,-0.003954356
0.3610005,-0.003991141
0.3600005,-0.004024862
0.3590005,-0.004067779
0.3580005,-0.004104564
0.3570005,-0.004144416
0.3560005,-0.004181202
0.3550005,-0.004217987
0.3540005,-0.004257839
0.3530005,-0.004294624
0.3520005,-0.004334475
0.3510005,-0.004374327
0.3500005,-0.004411113
0.3490005,-0.004450964
0.3480005,-0.004493881
0.3470005,-0.004527601
0.3460005,-0.004573583
0.3450005,-0.004613434
0.3440005,-0.00465022
0.3430005,-0.004693137
0.3420005,-0.004732988
0.3410005,-0.00477284
0.3400005,-0.004818822
0.3390005,-0.004855608
0.3380005,-0.004898524
0.3370005,-0.004938376
0.3360005,-0.004978227
0.3350005,-0.005024209
0.3340005,-0.00506406
0.3330005,-0.005103912
0.3320005,-0.005143763
0.3310005,-0.005183614
0.3300005,-0.005226531
0.3290005,-0.005266382
0.3280005,-0.005306234
0.3270005,-0.005352216
0.3260005,-0.005389001
0.3250005,-0.005428853
0.3240005,-0.005471769
0.3230005,-0.005508556
0.3220005,-0.005551472
0.3210005,-0.005591323
0.3200005,-0.005631175
0.3190005,-0.005671026
0.3180005,-0.005707812
0.3170005,-0.005747663
0.3160005,-0.005787514
0.3150005,-0.005821235
0.3140005,-0.005861086
0.3130005,-0.005897872
0.3120005,-0.005931592
0.3110005,-0.005968377
0.3100005,-0.006002098
0.3090005,-0.006035818
0.3080005,-0.006072604
0.3070005,-0.00610939
0.3060005,-0.006140045
0.3050005,-0.006170699
0.3040005,-0.006201354
0.3030005,-0.006232009
0.3020005,-0.006256533
0.3010005,-0.006287188
0.3000005,-0.006314777
0.2990005,-0.006336236
0.2980005,-0.006363825
0.2970005,-0.006385284
0.2960005,-0.006403676
0.2950005,-0.006431265
0.2940005,-0.006449659
0.2930005,-0.006464986
0.2920005,-0.006480313
0.2910005,-0.006492575
0.2900005,-0.006504837
0.2890005,-0.006517099
0.2880005,-0.006526296
0.2870005,-0.006532426
0.2860005,-0.006535492
0.2850005,-0.006535492
0.2840005,-0.006535492
0.2830005,-0.006529361
0.2820005,-0.00652323
0.2810005,-0.006514033
0.2800005,-0.006498706
0.2790005,-0.006480313
0.2780005,-0.00645579
0.2770005,-0.006431265
0.2760005,-0.006397545
0.2750005,-0.006357694
0.2740005,-0.006314777
0.2730005,-0.006256533
0.2720005,-0.006192158
0.2710005,-0.006115521
0.2700005,-0.006023556
0.2690005,-0.005916264
0.2680005,-0.00579058
0.2670005,-0.005637306
0.2660005,-0.005465638
0.2650005,-0.005278645
0.2640005,-0.005070191
0.2630005,-0.004855608
0.2620005,-0.004625696
0.2610005,-0.004408047
0.2600005,-0.004190398
0.2590005,-0.003981945
0.2580005,-0.003791885
0.2570005,-0.003614087
0.2560005,-0.003448551
0.2550005,-0.003301408
0.2540005,-0.003163461
0.2530005,-0.003037777
0.2520005,-0.002924354
0.2510005,-0.002820127
0.2500005,-0.002722032
0.2490005,-0.002633133
0.2480005,-0.002547299
0.2470005,-0.002467597
0.2460005,-0.002387894
0.2450005,-0.002317388
0.2440005,-0.002246882
0.2430005,-0.002179441
0.2420005,-0.002115066
0.2410005,-0.002050691
0.2400005,-0.001992447
0.2390005,-0.001934203
0.2380005,-0.00188209
0.2370005,-0.001836107
0.2360005,-0.001790125
0.2350005,-0.001747208
0.2340005,-0.001707357
0.2330005,-0.001670571
0.2320005,-0.001636851
0.2310005,-0.001603131
0.2300005,-0.001607221
0.2290005,-0.001577179
0.2280005,-0.00154867
0.2270005,-0.001521387
0.2260005,-0.001495024
0.2250005,-0.001469887
0.2240005,-0.00144567
0.2230005,-0.001422372
0.2220005,-0.001399994
0.2210005,-0.001378536
0.2200005,-0.001357997
0.2190005,-0.001337765
0.2180005,-0.001318453
0.2170005,-0.001299753
0.2160005,-0.001281667
0.2150005,-0.001264193
0.2140005,-0.001247027
0.2130005,-0.00123078
0.2120005,-0.001215146
0.2110005,-0.001199512
0.2100005,-0.001184491
0.2090005,-0.001169777
0.2080005,-0.001155369
0.2070005,-0.001141881
0.2060005,-0.001128393
0.2050005,-0.001115211
0.2040005,-0.001102336
0.2030005,-0.001090074
0.2020005,-0.001077812
0.2010005,-0.001066163
0.2000005,-0.001054821
0.1990005,-0.001043479
0.1980005,-0.001032443
0.1970005,-0.001021714
0.1960005,-0.001011291
0.1950005,-0.001000869
0.1940005,-0.0009910589
0.1930005,-0.0009812494
0.1920005,-0.0009714398
0.1910005,-0.0009622434
0.1900005,-0.0009530469
0.1890005,-0.000944157
0.1880005,-0.0009352671
0.1870005,-0.0009266838
0.1860005,-0.0009181004
0.1850005,-0.0009101302
0.1840005,-0.0009015468
0.1830005,-0.0008938831
0.1820005,-0.0008862194
0.1810005,-0.0008785557
0.1800005,-0.000870892
0.1790005,-0.0008635348
0.1780005,-0.0008561776
0.1770005,-0.0008488205
0.1760005,-0.0008417699
0.1750005,-0.0008350258
0.1740005,-0.0008282817
0.1730005,-0.0008218443
0.1720005,-0.0008154067
0.1710005,-0.0008086627
0.1700005,-0.0008025317
0.1690005,-0.0007964008
0.1680005,-0.0007899632
0.1670005,-0.0007841389
0.1660005,-0.0007783144
0.1650005,-0.00077249
0.1640005,-0.0007666656
0.1630005,-0.0007611477
0.1620005,-0.0007556298
0.1610005,-0.000750112
0.1600005,-0.0007449006
0.1590005,-0.0007396893
0.1580005,-0.0007344779
0.1570005,-0.0007292667
0.1560005,-0.0007243619
0.1550005,-0.0007194571
0.1540005,-0.0007145524
0.1530005,-0.0007096475
0.1520005,-0.0007050494
0.1510005,-0.0007001446
0.1500005,-0.0006955464
0.1490005,-0.0006909482
0.1480005,-0.0006866565
0.1470005,-0.0006823648
0.1460005,-0.0006780731
0.1450005,-0.0006737814
0.1440005,-0.0006694898
0.1430005,-0.0006655046
0.1420005,-0.0006615195
0.1410005,-0.0006575344
0.1400005,-0.0006535492
0.1390005,-0.0006495641
0.1380005,-0.0006458855
0.1370005,-0.0006422069
0.1360005,-0.0006382219
0.1350005,-0.0006342367
0.1340005,-0.0006308646
0.1330005,-0.0006271861
0.1320005,-0.0006238141
0.1310005,-0.0006201355
0.1300005,-0.0006167634
0.1290005,-0.0006133915
0.1280005,-0.0006100194
0.1270005,-0.0006069539
0.1260005,-0.0006035819
0.1250005,-0.0006005164
0.1240005,-0.0005974509
0.1230005,-0.0005940789
0.1220005,-0.0005910134
0.1210005,-0.000587948
0.1200005,-0.0005848824
0.1190005,-0.0005821235
0.1180005,-0.000579058
0.1170005,-0.0005762991
0.1160005,-0.0005732336
0.1150005,-0.0005704747
0.1140005,-0.0005677157
0.1130005,-0.0005649568
0.1120005,-0.0005621978
0.1110005,-0.0005594389
0.1100005,-0.00055668
0.1090005,-0.0005542276
0.1080005,-0.0005514687
0.1070005,-0.0005487097
0.1060005,-0.0005462574
0.1050005,-0.0005441115
0.1040005,-0.0005413526
0.1030005,-0.0005389001
0.1020005,-0.0005364478
0.1010005,-0.000534302
0.1000005,-0.0005318496
0.09900048,-0.0005293972
0.09800047,-0.0005269448
0.09700048,-0.0005247989
0.09600048,-0.0005223466
0.09500048,-0.0005202008
0.09400047,-0.0005180549
0.09300048,-0.0005159091
0.09200048,-0.0005137632
0.09100047,-0.0005116174
0.09000048,-0.0005094716
0.08900048,-0.0005073257
0.08800048,-0.0005051799
0.08700047,-0.000503034
0.08600048,-0.0005008882
0.08500048,-0.0004990489
0.08400048,-0.0004972096
0.08300047,-0.0004950638
0.08200048,-0.000492918
0.08100048,-0.0004910787
0.08000048,-0.0004892393
0.07900048,-0.0004874001
0.07800048,-0.0004855608
0.07700048,-0.0004834149
0.07600047,-0.0004815757
0.07500048,-0.0004797364
0.07400048,-0.0004778971
0.07300048,-0.0004760578
0.07200047,-0.0004742185
0.07100048,-0.0004723792
0.07000048,-0.0004708465
0.06900048,-0.0004690072
0.06800048,-0.0004671679
0.06700048,-0.0004656352
0.06600048,-0.0004637959
0.06500047,-0.0004622631
0.06400048,-0.0004607304
0.06300048,-0.0004591976
0.06200048,-0.0004573583
0.06100048,-0.0004558256
0.06000048,-0.0004542929
0.05900048,-0.0004527601
0.05800048,-0.0004509208
0.05700048,-0.0004496947
0.05600048,-0.0004478553
0.05500048,-0.0004463226
0.05400048,-0.0004447899
0.05300048,-0.0004432572
0.05200048,-0.0004420309
0.05100048,-0.0004404982
0.05000048,-0.0004389654
0.04900048,-0.0004377393
0.04800048,-0.0004359
0.04700048,-0.0004346738
0.04600048,-0.0004334476
0.04500048,-0.0004319148
0.04400048,-0.0004303821
0.04300048,-0.0004291559
0.04200048,-0.0004276232
0.04100048,-0.0004260904
0.04000048,-0.0004248642
0.03900048,-0.0004233315
0.03800048,-0.0004221053
0.03700048,-0.0004208791
0.03600048,-0.0004193464
0.03500048,-0.0004181202
0.03400048,-0.000416894
0.03300048,-0.0004153613
0.03200048,-0.0004141351
0.03100048,-0.0004129088
0.03000048,-0.0004116826
0.02900048,-0.0004101499
0.02800048,-0.0004089237
0.02700048,-0.0004076975
0.02600048,-0.0004061648
0.02500048,-0.0004049386
0.02400048,-0.0004037124
0.02300048,-0.0004024862
0.02200048,-0.00040126
0.02100048,-0.0004000338
0.02000048,-0.0003985011
0.01900048,-0.0003972749
0.01800048,-0.0003960487
0.01700048,-0.0003948225
0.01600048,-0.0003935963
0.01500048,-0.0003923701
0.01400048,-0.0003911439
0.01300048,-0.0003899177
0.01200048,-0.0003886915
0.01100048,-0.0003874653
0.01000048,-0.0003859326
0.009000476,-0.0003847064
0.008000477,-0.0003834802
0.007000477,-0.000382254
0.006000477,-0.0003810278
0.005000477,-0.0003798016
0.004000477,-0.0003785754
0.003000477,-0.0003773492
0.002000477,-0.0003761231
0.001000477,-0.0003748969
