EXPID. 1159
[电化学]: CV : -0.8 >> -0.8 >> -1.5 >> -0.8(V) @ 0.01(V/s) X 10(Seg)
起始电位 (V),-0.8
上限电位 (V),-0.8
下限电位 (V),-1.5
终止电位 (V),-0.8
扫速 (V/s),0.01
电解液 信息:
KOH,1
-0.8,-0.05425788
-0.801,-0.05024209
-0.802,-0.04668614
-0.803,-0.04337541
-0.804,-0.04030993
-0.805,-0.03745903
-0.806,-0.03485337
-0.807,-0.03243164
-0.808,-0.03025514
-0.809,-0.02826258
-0.81,-0.0264846
-0.811,-0.02489055
-0.812,-0.02341912
-0.813,-0.02210096
-0.814,-0.02093608
-0.815,-0.01986316
-0.816,-0.01888221
-0.817,-0.01799322
-0.818,-0.01716554
-0.819,-0.01639917
-0.82,-0.0156941
-0.821,-0.01518322
-0.822,-0.01457932
-0.823,-0.01402447
-0.824,-0.01350947
-0.825,-0.01301592
-0.826,-0.01256223
-0.827,-0.01213613
-0.828,-0.01172535
-0.829,-0.0113391
-0.83,-0.01096818
-0.831,-0.01060952
-0.832,-0.01026312
-0.833,-0.009928982
-0.834,-0.009607106
-0.835,-0.009300557
-0.836,-0.008994009
-0.837,-0.008705853
-0.838,-0.008448353
-0.839,-0.00820618
-0.84,-0.007979334
-0.841,-0.007780078
-0.842,-0.007583887
-0.843,-0.00741222
-0.844,-0.007249749
-0.845,-0.00709341
-0.846,-0.006958528
-0.847,-0.006826713
-0.848,-0.006704094
-0.849,-0.006596802
-0.85,-0.00648951
-0.851,-0.00639448
-0.852,-0.006308646
-0.853,-0.006225878
-0.854,-0.006149241
-0.855,-0.006078735
-0.856,-0.00601436
-0.857,-0.005956116
-0.858,-0.005907068
-0.859,-0.005854954
-0.86,-0.005808973
-0.861,-0.005769121
-0.862,-0.005726204
-0.863,-0.005692484
-0.864,-0.005664895
-0.865,-0.005631175
-0.866,-0.005603585
-0.867,-0.005585192
-0.868,-0.005563734
-0.869,-0.005545341
-0.87,-0.005536145
-0.871,-0.005520817
-0.872,-0.005511621
-0.873,-0.005511621
-0.874,-0.005502424
-0.875,-0.00550549
-0.876,-0.00550549
-0.877,-0.005508556
-0.878,-0.005520817
-0.879,-0.005526948
-0.88,-0.005539211
-0.881,-0.005551472
-0.882,-0.0055668
-0.883,-0.005585192
-0.884,-0.005603585
-0.885,-0.005621978
-0.886,-0.005646502
-0.887,-0.005667961
-0.888,-0.005689419
-0.889,-0.005723139
-0.89,-0.005744598
-0.891,-0.005772187
-0.892,-0.005805907
-0.893,-0.005833496
-0.894,-0.005864152
-0.895,-0.005897872
-0.896,-0.005931592
-0.897,-0.005962247
-0.898,-0.005999033
-0.899,-0.006035818
-0.9,-0.006069539
-0.901,-0.006106324
-0.902,-0.006146176
-0.903,-0.006182961
-0.904,-0.006219747
-0.905,-0.006259599
-0.906,-0.00629945
-0.907,-0.006339301
-0.908,-0.006382218
-0.909,-0.006422069
-0.91,-0.006464986
-0.911,-0.006504837
-0.912,-0.006547754
-0.913,-0.006590671
-0.914,-0.006627456
-0.915,-0.006673439
-0.916,-0.006716356
-0.917,-0.006753141
-0.918,-0.006802189
-0.919,-0.00684204
-0.92,-0.006878826
-0.921,-0.006927874
-0.922,-0.006970791
-0.923,-0.007007576
-0.924,-0.007053559
-0.925,-0.00709341
-0.926,-0.007130195
-0.927,-0.007176178
-0.928,-0.007216029
-0.929,-0.007255881
-0.93,-0.007295732
-0.931,-0.007338648
-0.932,-0.007375435
-0.933,-0.007415285
-0.934,-0.007458202
-0.935,-0.007494988
-0.936,-0.007531774
-0.937,-0.007571625
-0.938,-0.007608411
-0.939,-0.007648262
-0.94,-0.007681982
-0.941,-0.007721834
-0.942,-0.007764751
-0.943,-0.007798471
-0.944,-0.007832191
-0.945,-0.007872042
-0.946,-0.007902697
-0.947,-0.007942548
-0.948,-0.007979334
-0.949,-0.008009989
-0.95,-0.008046775
-0.951,-0.008083561
-0.952,-0.00811115
-0.953,-0.008151001
-0.954,-0.008178591
-0.955,-0.008212311
-0.956,-0.008255227
-0.957,-0.008279751
-0.958,-0.008313472
-0.959,-0.008350258
-0.96,-0.008371716
-0.961,-0.008408502
-0.962,-0.008442222
-0.963,-0.008463681
-0.964,-0.008497401
-0.965,-0.008531122
-0.966,-0.008555645
-0.967,-0.0085863
-0.968,-0.008616954
-0.969,-0.008641479
-0.97,-0.008669068
-0.971,-0.008696658
-0.972,-0.008721181
-0.973,-0.00874877
-0.974,-0.00877636
-0.975,-0.008800884
-0.976,-0.008825407
-0.977,-0.008852997
-0.978,-0.008874455
-0.979,-0.008895914
-0.98,-0.008923503
-0.981,-0.008941895
-0.982,-0.008963354
-0.983,-0.008994009
-0.984,-0.009006271
-0.985,-0.009030795
-0.986,-0.009061449
-0.987,-0.009073711
-0.988,-0.009101301
-0.989,-0.009122759
-0.99,-0.009138087
-0.991,-0.009165676
-0.992,-0.009181003
-0.993,-0.009202462
-0.994,-0.00922392
-0.995,-0.009242313
-0.996,-0.009263772
-0.997,-0.009288295
-0.998,-0.009303623
-0.999,-0.009325081
-1,-0.00934654
-1.001,-0.009364933
-1.002,-0.00938639
-1.003,-0.009410915
-1.004,-0.009426242
-1.005,-0.009450765
-1.006,-0.009472225
-1.007,-0.009484487
-1.008,-0.00950901
-1.009,-0.009533534
-1.01,-0.009548862
-1.011,-0.009570319
-1.012,-0.009594844
-1.013,-0.009607106
-1.014,-0.009625498
-1.015,-0.009646957
-1.016,-0.009659219
-1.017,-0.009686808
-1.018,-0.009702136
-1.019,-0.009711332
-1.02,-0.009738921
-1.021,-0.009748118
-1.022,-0.009763445
-1.023,-0.009784903
-1.024,-0.009803296
-1.025,-0.009815559
-1.026,-0.009827821
-1.027,-0.009837016
-1.028,-0.00985541
-1.029,-0.009861541
-1.03,-0.009867672
-1.031,-0.009886065
-1.032,-0.009892195
-1.033,-0.009898326
-1.034,-0.009916719
-1.035,-0.009919784
-1.036,-0.009916719
-1.037,-0.009935113
-1.038,-0.009928982
-1.039,-0.009935113
-1.04,-0.009944309
-1.041,-0.009941244
-1.042,-0.009941244
-1.043,-0.009944309
-1.044,-0.009938178
-1.045,-0.009941244
-1.046,-0.009941244
-1.047,-0.009928982
-1.048,-0.009932047
-1.049,-0.009925916
-1.05,-0.009910588
-1.051,-0.009913653
-1.052,-0.009901391
-1.053,-0.009882999
-1.054,-0.009879934
-1.055,-0.009864606
-1.056,-0.009843147
-1.057,-0.009837016
-1.058,-0.009815559
-1.059,-0.009791034
-1.06,-0.009778772
-1.061,-0.009754249
-1.062,-0.009726659
-1.063,-0.009708267
-1.064,-0.009677611
-1.065,-0.009646957
-1.066,-0.009622433
-1.067,-0.009588713
-1.068,-0.009548862
-1.069,-0.009521272
-1.07,-0.009484487
-1.071,-0.009441569
-1.072,-0.009417046
-1.073,-0.009371064
-1.074,-0.009331211
-1.075,-0.009303623
-1.076,-0.009245379
-1.077,-0.009211658
-1.078,-0.009174872
-1.079,-0.009122759
-1.08,-0.009085974
-1.081,-0.009043057
-1.082,-0.008984813
-1.083,-0.008948027
-1.084,-0.00890511
-1.085,-0.008846866
-1.086,-0.008807015
-1.087,-0.008764098
-1.088,-0.008705853
-1.089,-0.008662937
-1.09,-0.008616954
-1.091,-0.008564842
-1.092,-0.008521925
-1.093,-0.008469812
-1.094,-0.008417699
-1.095,-0.008377847
-1.096,-0.008325734
-1.097,-0.00827362
-1.098,-0.00823377
-1.099,-0.008184722
-1.1,-0.008129543
-1.101,-0.008092757
-1.102,-0.008037578
-1.103,-0.007988531
-1.104,-0.007945614
-1.105,-0.007890435
-1.106,-0.007850585
-1.107,-0.007804601
-1.108,-0.007755554
-1.109,-0.007712637
-1.11,-0.007663589
-1.111,-0.007614542
-1.112,-0.007574691
-1.113,-0.007528708
-1.114,-0.00747966
-1.115,-0.007442875
-1.116,-0.007387696
-1.117,-0.007344779
-1.118,-0.007314125
-1.119,-0.007258946
-1.12,-0.007216029
-1.121,-0.00718844
-1.122,-0.007130195
-1.123,-0.007096475
-1.124,-0.007053559
-1.125,-0.007007576
-1.126,-0.006970791
-1.127,-0.006934005
-1.128,-0.006884957
-1.129,-0.006851237
-1.13,-0.00680832
-1.131,-0.006765403
-1.132,-0.006734748
-1.133,-0.006688766
-1.134,-0.006658111
-1.135,-0.00661826
-1.136,-0.006575344
-1.137,-0.006541623
-1.138,-0.006510968
-1.139,-0.006468052
-1.14,-0.006443528
-1.141,-0.006400611
-1.142,-0.006363825
-1.143,-0.006339301
-1.144,-0.00629945
-1.145,-0.00626573
-1.146,-0.006241206
-1.147,-0.006201354
-1.148,-0.006170699
-1.149,-0.00614311
-1.15,-0.00610939
-1.151,-0.006078735
-1.152,-0.00604808
-1.153,-0.00601436
-1.154,-0.005992902
-1.155,-0.005959181
-1.156,-0.005928526
-1.157,-0.005907068
-1.158,-0.005876414
-1.159,-0.005845758
-1.16,-0.005821235
-1.161,-0.005793645
-1.162,-0.005762991
-1.163,-0.005741532
-1.164,-0.005717008
-1.165,-0.005683288
-1.166,-0.005661829
-1.167,-0.005637306
-1.168,-0.00560665
-1.169,-0.005591323
-1.17,-0.005560669
-1.171,-0.005530014
-1.172,-0.005517752
-1.173,-0.005490162
-1.174,-0.005465638
-1.175,-0.005447246
-1.176,-0.005422722
-1.177,-0.005398198
-1.178,-0.00538287
-1.179,-0.005352216
-1.18,-0.005336888
-1.181,-0.005312365
-1.182,-0.00528171
-1.183,-0.005269447
-1.184,-0.005244924
-1.185,-0.005226531
-1.186,-0.005214269
-1.187,-0.005189745
-1.188,-0.005159091
-1.189,-0.005152959
-1.19,-0.005128435
-1.191,-0.005106977
-1.192,-0.005097781
-1.193,-0.005076322
-1.194,-0.005051799
-1.195,-0.005042602
-1.196,-0.005011947
-1.197,-0.005005816
-1.198,-0.004987423
-1.199,-0.0049629
-1.2,-0.004950637
-1.201,-0.00493531
-1.202,-0.004910786
-1.203,-0.00490159
-1.204,-0.004883197
-1.205,-0.004864804
-1.206,-0.004846411
-1.207,-0.004837214
-1.208,-0.004818822
-1.209,-0.00480656
-1.21,-0.004791233
-1.211,-0.004769774
-1.212,-0.004757512
-1.213,-0.00474525
-1.214,-0.004729923
-1.215,-0.004720726
-1.216,-0.004702333
-1.217,-0.004690072
-1.218,-0.004680875
-1.219,-0.004665548
-1.22,-0.00465022
-1.221,-0.004641024
-1.222,-0.004625696
-1.223,-0.004613434
-1.224,-0.004607304
-1.225,-0.004595041
-1.226,-0.004582779
-1.227,-0.004570518
-1.228,-0.004558256
-1.229,-0.004545994
-1.23,-0.004533732
-1.231,-0.004524535
-1.232,-0.004512274
-1.233,-0.004506143
-1.234,-0.004493881
-1.235,-0.004481619
-1.236,-0.004475488
-1.237,-0.004457095
-1.238,-0.004454029
-1.239,-0.004441767
-1.24,-0.00442644
-1.241,-0.00442644
-1.242,-0.004417243
-1.243,-0.004404982
-1.244,-0.004398851
-1.245,-0.004389654
-1.246,-0.004374327
-1.247,-0.004371261
-1.248,-0.00436513
-1.249,-0.004352869
-1.25,-0.004346738
-1.251,-0.004340607
-1.252,-0.004325279
-1.253,-0.004319148
-1.254,-0.004309952
-1.255,-0.00430382
-1.256,-0.00430382
-1.257,-0.004285428
-1.258,-0.004282362
-1.259,-0.004279297
-1.26,-0.004267035
-1.261,-0.004257839
-1.262,-0.004257839
-1.263,-0.004242511
-1.264,-0.004239446
-1.265,-0.004239446
-1.266,-0.004224118
-1.267,-0.004224118
-1.268,-0.004221053
-1.269,-0.004205726
-1.27,-0.00420266
-1.271,-0.004199594
-1.272,-0.004187332
-1.273,-0.004187332
-1.274,-0.004181202
-1.275,-0.004168939
-1.276,-0.004165874
-1.277,-0.004162808
-1.278,-0.004150547
-1.279,-0.004150547
-1.28,-0.004144416
-1.281,-0.00414135
-1.282,-0.004138284
-1.283,-0.004126023
-1.284,-0.004126023
-1.285,-0.004122957
-1.286,-0.004113761
-1.287,-0.004110695
-1.288,-0.00410763
-1.289,-0.004098434
-1.29,-0.004098434
-1.291,-0.004095368
-1.292,-0.004086172
-1.293,-0.004083106
-1.294,-0.004083106
-1.295,-0.004073909
-1.296,-0.004070844
-1.297,-0.004070844
-1.298,-0.004061648
-1.299,-0.004061648
-1.3,-0.004058582
-1.301,-0.00404632
-1.302,-0.004052451
-1.303,-0.004043255
-1.304,-0.004040189
-1.305,-0.004043255
-1.306,-0.004034058
-1.307,-0.004030993
-1.308,-0.004034058
-1.309,-0.004024862
-1.31,-0.004024862
-1.311,-0.004021796
-1.312,-0.004015665
-1.313,-0.004015665
-1.314,-0.004018731
-1.315,-0.004006469
-1.316,-0.004009534
-1.317,-0.004009534
-1.318,-0.003997272
-1.319,-0.004003403
-1.32,-0.004000338
-1.321,-0.003997272
-1.322,-0.003997272
-1.323,-0.003997272
-1.324,-0.003991141
-1.325,-0.003994207
-1.326,-0.003991141
-1.327,-0.003991141
-1.328,-0.003988076
-1.329,-0.003981945
-1.33,-0.003981945
-1.331,-0.003985011
-1.332,-0.00397888
-1.333,-0.003981945
-1.334,-0.00397888
-1.335,-0.003975814
-1.336,-0.00397888
-1.337,-0.003975814
-1.338,-0.003975814
-1.339,-0.003975814
-1.34,-0.003975814
-1.341,-0.003972749
-1.342,-0.00397888
-1.343,-0.003975814
-1.344,-0.003972749
-1.345,-0.003975814
-1.346,-0.003975814
-1.347,-0.003975814
-1.348,-0.00397888
-1.349,-0.003975814
-1.35,-0.003975814
-1.351,-0.003981945
-1.352,-0.003975814
-1.353,-0.00397888
-1.354,-0.003985011
-1.355,-0.003981945
-1.356,-0.003985011
-1.357,-0.003985011
-1.358,-0.003985011
-1.359,-0.003991141
-1.36,-0.003994207
-1.361,-0.003991141
-1.362,-0.003997272
-1.363,-0.004000338
-1.364,-0.004003403
-1.365,-0.004006469
-1.366,-0.004009534
-1.367,-0.004009534
-1.368,-0.004018731
-1.369,-0.004018731
-1.37,-0.004021796
-1.371,-0.004030993
-1.372,-0.004030993
-1.373,-0.004034058
-1.374,-0.004040189
-1.375,-0.004043255
-1.376,-0.004049386
-1.377,-0.004055517
-1.378,-0.004061648
-1.379,-0.004064713
-1.38,-0.004076975
-1.381,-0.00408004
-1.382,-0.004086172
-1.383,-0.004095368
-1.384,-0.004101499
-1.385,-0.004110695
-1.386,-0.004119892
-1.387,-0.004126023
-1.388,-0.004138284
-1.389,-0.004147481
-1.39,-0.004153612
-1.391,-0.004168939
-1.392,-0.004178136
-1.393,-0.004187332
-1.394,-0.00420266
-1.395,-0.004214922
-1.396,-0.004221053
-1.397,-0.00423638
-1.398,-0.004251707
-1.399,-0.00426397
-1.4,-0.004279297
-1.401,-0.004294624
-1.402,-0.004313017
-1.403,-0.004328344
-1.404,-0.004343672
-1.405,-0.00436513
-1.406,-0.004383523
-1.407,-0.004401916
-1.408,-0.004423374
-1.409,-0.004447898
-1.41,-0.004463226
-1.411,-0.004493881
-1.412,-0.004518405
-1.413,-0.004539863
-1.414,-0.004573583
-1.415,-0.004598107
-1.416,-0.004625696
-1.417,-0.004662482
-1.418,-0.004693137
-1.419,-0.004726857
-1.42,-0.004766709
-1.421,-0.004800429
-1.422,-0.00484028
-1.423,-0.004886262
-1.424,-0.004926114
-1.425,-0.004972096
-1.426,-0.005027275
-1.427,-0.005070191
-1.428,-0.00512537
-1.429,-0.005189745
-1.43,-0.005241858
-1.431,-0.005303168
-1.432,-0.005370609
-1.433,-0.005441115
-1.434,-0.005511621
-1.435,-0.005588258
-1.436,-0.005671026
-1.437,-0.005753794
-1.438,-0.005842693
-1.439,-0.005937723
-1.44,-0.006035818
-1.441,-0.006136979
-1.442,-0.006247337
-1.443,-0.006363825
-1.444,-0.006483379
-1.445,-0.006605998
-1.446,-0.006743945
-1.447,-0.006878826
-1.448,-0.007022904
-1.449,-0.007182309
-1.45,-0.007338648
-1.451,-0.00750725
-1.452,-0.007678917
-1.453,-0.00785978
-1.454,-0.008055971
-1.455,-0.008252162
-1.456,-0.008460615
-1.457,-0.008678264
-1.458,-0.008902045
-1.459,-0.009138087
-1.46,-0.00938026
-1.461,-0.009631629
-1.462,-0.009898326
-1.463,-0.01016809
-1.464,-0.01044705
-1.465,-0.01074134
-1.466,-0.01103562
-1.467,-0.01134523
-1.468,-0.01166711
-1.469,-0.01199512
-1.47,-0.01232926
-1.471,-0.01268179
-1.472,-0.01303432
-1.473,-0.01340217
-1.474,-0.01377616
-1.475,-0.01415628
-1.476,-0.01454866
-1.477,-0.01494718
-1.478,-0.01535795
-1.479,-0.01577486
-1.48,-0.01620096
-1.481,-0.01663319
-1.482,-0.01707156
-1.483,-0.01752218
-1.484,-0.01797587
-1.485,-0.01843876
-1.486,-0.01891085
-1.487,-0.01937987
-1.488,-0.01986421
-1.489,-0.02035775
-1.49,-0.02084517
-1.491,-0.0213479
-1.492,-0.02185984
-1.493,-0.02236564
-1.494,-0.02288371
-1.495,-0.02340484
-1.496,-0.02392904
-1.497,-0.02446243
-1.498,-0.02500196
-1.499,-0.02553842
-1.5,-0.02590934
-1.499,-0.02595226
-1.498,-0.02597371
-1.497,-0.02598598
-1.496,-0.02599824
-1.495,-0.02599211
-1.494,-0.02597985
-1.493,-0.02596452
-1.492,-0.02593387
-1.491,-0.02590934
-1.49,-0.02587255
-1.489,-0.02582657
-1.488,-0.02577753
-1.487,-0.02572541
-1.486,-0.0256641
-1.485,-0.02560279
-1.484,-0.02553842
-1.483,-0.02546178
-1.482,-0.02538514
-1.481,-0.02530238
-1.48,-0.02521348
-1.479,-0.02512458
-1.478,-0.02503261
-1.477,-0.02493145
-1.476,-0.02483642
-1.475,-0.02472913
-1.474,-0.02461571
-1.473,-0.02451148
-1.472,-0.02440112
-1.471,-0.02428157
-1.47,-0.02416201
-1.469,-0.02404246
-1.468,-0.02391065
-1.467,-0.02379416
-1.466,-0.02366234
-1.465,-0.02351826
-1.464,-0.02338951
-1.463,-0.02324237
-1.462,-0.02310442
-1.461,-0.02296648
-1.46,-0.0228132
-1.459,-0.02267832
-1.458,-0.02252198
-1.457,-0.02237177
-1.456,-0.0222277
-1.455,-0.02206829
-1.454,-0.02190889
-1.453,-0.02175255
-1.452,-0.02159007
-1.451,-0.02143067
-1.45,-0.0212682
-1.449,-0.0210996
-1.448,-0.02094019
-1.447,-0.02077466
-1.446,-0.02059993
-1.445,-0.02043132
-1.444,-0.02025966
-1.443,-0.02009105
-1.442,-0.01991939
-1.441,-0.01974772
-1.44,-0.01957606
-1.439,-0.01940132
-1.438,-0.01922352
-1.437,-0.01904879
-1.436,-0.01887099
-1.435,-0.01869626
-1.434,-0.01851846
-1.433,-0.01834067
-1.432,-0.01816287
-1.431,-0.01797894
-1.43,-0.01780114
-1.429,-0.01762028
-1.428,-0.01744555
-1.427,-0.01726775
-1.426,-0.01708688
-1.425,-0.01690602
-1.424,-0.01673129
-1.423,-0.01654736
-1.422,-0.01637262
-1.421,-0.01619176
-1.42,-0.01600783
-1.419,-0.0158331
-1.418,-0.01565224
-1.417,-0.01547751
-1.416,-0.01530277
-1.415,-0.01512497
-1.414,-0.01495024
-1.413,-0.01477244
-1.412,-0.01459465
-1.411,-0.01442605
-1.41,-0.01425438
-1.409,-0.01407658
-1.408,-0.01390798
-1.407,-0.01373631
-1.406,-0.01356464
-1.405,-0.01339604
-1.404,-0.01322744
-1.403,-0.0130619
-1.402,-0.01289637
-1.401,-0.01273083
-1.4,-0.01256223
-1.399,-0.01239976
-1.398,-0.01224036
-1.397,-0.01207482
-1.396,-0.01191541
-1.395,-0.01175601
-1.394,-0.0115966
-1.393,-0.01144026
-1.392,-0.01128699
-1.391,-0.01113065
-1.39,-0.01098044
-1.389,-0.01083023
-1.388,-0.01067389
-1.387,-0.01052982
-1.386,-0.01038574
-1.385,-0.01023247
-1.384,-0.01009452
-1.383,-0.009950439
-1.382,-0.009809428
-1.381,-0.00967148
-1.38,-0.009527403
-1.379,-0.009392521
-1.378,-0.009257641
-1.377,-0.009122759
-1.376,-0.008997074
-1.375,-0.008865259
-1.374,-0.008733443
-1.373,-0.008607758
-1.372,-0.008482073
-1.371,-0.008359454
-1.37,-0.008239901
-1.369,-0.008120347
-1.368,-0.008000793
-1.367,-0.00788737
-1.366,-0.007770882
-1.365,-0.007657459
-1.364,-0.007553232
-1.363,-0.007439809
-1.362,-0.007332517
-1.361,-0.007231356
-1.36,-0.007124064
-1.359,-0.007019838
-1.358,-0.006924808
-1.357,-0.006826713
-1.356,-0.006728617
-1.355,-0.006636653
-1.354,-0.006541623
-1.353,-0.006449659
-1.352,-0.006363825
-1.351,-0.006271861
-1.35,-0.006189092
-1.349,-0.006103259
-1.348,-0.006017426
-1.347,-0.005940788
-1.346,-0.005861086
-1.345,-0.005781383
-1.344,-0.005707812
-1.343,-0.00563424
-1.342,-0.005554538
-1.341,-0.005487097
-1.34,-0.005416591
-1.339,-0.00534915
-1.338,-0.00528171
-1.337,-0.005214269
-1.336,-0.005152959
-1.335,-0.00509165
-1.334,-0.005027275
-1.333,-0.004972096
-1.332,-0.004910786
-1.331,-0.004852542
-1.33,-0.004797364
-1.329,-0.00474525
-1.328,-0.004690072
-1.327,-0.004637958
-1.326,-0.00458891
-1.325,-0.004536797
-1.324,-0.004490815
-1.323,-0.004441767
-1.322,-0.004395785
-1.321,-0.004355934
-1.32,-0.004309952
-1.319,-0.00426397
-1.318,-0.004227184
-1.317,-0.004184267
-1.316,-0.004144416
-1.315,-0.00410763
-1.314,-0.004067779
-1.313,-0.004034058
-1.312,-0.003997272
-1.311,-0.003960487
-1.31,-0.003926767
-1.309,-0.003896111
-1.308,-0.003859326
-1.307,-0.003828671
-1.306,-0.003798016
-1.305,-0.003764296
-1.304,-0.003736707
-1.303,-0.003706052
-1.302,-0.003678462
-1.301,-0.003653938
-1.3,-0.003623284
-1.299,-0.003595694
-1.298,-0.003574236
-1.297,-0.003546647
-1.296,-0.003522123
-1.295,-0.003500664
-1.294,-0.003470009
-1.293,-0.003451617
-1.292,-0.003427093
-1.291,-0.003402569
-1.29,-0.003384176
-1.289,-0.003362718
-1.288,-0.003338194
-1.287,-0.003322866
-1.286,-0.003298342
-1.285,-0.00327995
-1.284,-0.003261557
-1.283,-0.003240098
-1.282,-0.003221706
-1.281,-0.003206378
-1.28,-0.003184919
-1.279,-0.003169592
-1.278,-0.003154265
-1.277,-0.003132806
-1.276,-0.003120545
-1.275,-0.003105217
-1.274,-0.003083759
-1.273,-0.003071497
-1.272,-0.003056169
-1.271,-0.003037777
-1.27,-0.003025514
-1.269,-0.003010187
-1.268,-0.002991794
-1.267,-0.002982598
-1.266,-0.00296727
-1.265,-0.002951943
-1.264,-0.002939681
-1.263,-0.002927419
-1.262,-0.002912092
-1.261,-0.00289983
-1.26,-0.002884502
-1.259,-0.00287224
-1.258,-0.002863044
-1.257,-0.002844651
-1.256,-0.002835455
-1.255,-0.002823193
-1.254,-0.002810931
-1.253,-0.002798669
-1.252,-0.002789472
-1.251,-0.002774145
-1.25,-0.002761883
-1.249,-0.002752687
-1.248,-0.002740425
-1.247,-0.002728163
-1.246,-0.002718966
-1.245,-0.002703639
-1.244,-0.002694442
-1.243,-0.002685246
-1.242,-0.002672984
-1.241,-0.002663787
-1.24,-0.002651526
-1.239,-0.002642329
-1.238,-0.002633133
-1.237,-0.002620871
-1.236,-0.002611674
-1.235,-0.002602478
-1.234,-0.002590216
-1.233,-0.00258102
-1.232,-0.002574889
-1.231,-0.002559561
-1.23,-0.002550365
-1.229,-0.002544234
-1.228,-0.002528906
-1.227,-0.002525841
-1.226,-0.002516645
-1.225,-0.002501317
-1.224,-0.002495186
-1.223,-0.002482924
-1.222,-0.002473728
-1.221,-0.002467597
-1.22,-0.002455335
-1.219,-0.002449204
-1.218,-0.002440007
-1.217,-0.002427745
-1.216,-0.00242468
-1.215,-0.002412418
-1.214,-0.002403222
-1.213,-0.002397091
-1.212,-0.002384829
-1.211,-0.002378698
-1.21,-0.002372567
-1.209,-0.00236337
-1.208,-0.002354174
-1.207,-0.002344977
-1.206,-0.002335781
-1.205,-0.00232965
-1.204,-0.002320454
-1.203,-0.002311257
-1.202,-0.002305126
-1.201,-0.00229593
-1.2,-0.002289799
-1.199,-0.002280602
-1.198,-0.002274471
-1.197,-0.002265275
-1.196,-0.002259144
-1.195,-0.002249948
-1.194,-0.002243817
-1.193,-0.002237685
-1.192,-0.002225423
-1.191,-0.002222358
-1.19,-0.002213162
-1.189,-0.002203965
-1.188,-0.0022009
-1.187,-0.002191703
-1.186,-0.002182507
-1.185,-0.002179441
-1.184,-0.002170245
-1.183,-0.002161048
-1.182,-0.002157983
-1.181,-0.002148786
-1.18,-0.002142655
-1.179,-0.00213959
-1.178,-0.002127328
-1.177,-0.002124263
-1.176,-0.002118132
-1.175,-0.002108935
-1.174,-0.00210587
-1.173,-0.002096673
-1.172,-0.002087477
-1.171,-0.002084411
-1.17,-0.002075215
-1.169,-0.002069084
-1.168,-0.002066019
-1.167,-0.002056822
-1.166,-0.002047626
-1.165,-0.00204456
-1.164,-0.002038429
-1.163,-0.002032298
-1.162,-0.002026167
-1.161,-0.002016971
-1.16,-0.002013905
-1.159,-0.002007774
-1.158,-0.001998578
-1.157,-0.001995512
-1.156,-0.001989381
-1.155,-0.001980185
-1.154,-0.00197712
-1.153,-0.001967923
-1.152,-0.001961792
-1.151,-0.001958727
-1.15,-0.001952596
-1.149,-0.001946465
-1.148,-0.001940334
-1.147,-0.001934203
-1.146,-0.001925006
-1.145,-0.001925006
-1.144,-0.00191581
-1.143,-0.001909679
-1.142,-0.001903548
-1.141,-0.001897417
-1.14,-0.001891286
-1.139,-0.00188822
-1.138,-0.001875959
-1.137,-0.001872893
-1.136,-0.001869828
-1.135,-0.001863697
-1.134,-0.001857566
-1.133,-0.001848369
-1.132,-0.001842238
-1.131,-0.001839173
-1.13,-0.001829976
-1.129,-0.001823845
-1.128,-0.00182078
-1.127,-0.001811583
-1.126,-0.001805453
-1.125,-0.001802387
-1.124,-0.00179319
-1.123,-0.001790125
-1.122,-0.001783994
-1.121,-0.001771732
-1.12,-0.001771732
-1.119,-0.001762536
-1.118,-0.001756405
-1.117,-0.001753339
-1.116,-0.001744143
-1.115,-0.001738012
-1.114,-0.001734946
-1.113,-0.00172575
-1.112,-0.001719619
-1.111,-0.001716554
-1.11,-0.001704292
-1.109,-0.001704292
-1.108,-0.001695095
-1.107,-0.001688964
-1.106,-0.001682833
-1.105,-0.001676702
-1.104,-0.001667506
-1.103,-0.00166444
-1.102,-0.001655244
-1.101,-0.001652178
-1.1,-0.001646047
-1.099,-0.001636851
-1.098,-0.001633785
-1.097,-0.001627655
-1.096,-0.001618458
-1.095,-0.001612327
-1.094,-0.001606196
-1.093,-0.001634504
-1.092,-0.001628679
-1.091,-0.001624081
-1.09,-0.001616724
-1.089,-0.001612126
-1.088,-0.001605995
-1.087,-0.001598638
-1.086,-0.001594959
-1.085,-0.001586376
-1.084,-0.001581778
-1.083,-0.001576873
-1.082,-0.001570435
-1.081,-0.001564611
-1.08,-0.00155848
-1.079,-0.001552349
-1.078,-0.001548057
-1.077,-0.001541006
-1.076,-0.001534569
-1.075,-0.001531504
-1.074,-0.001523533
-1.073,-0.001519548
-1.072,-0.001514643
-1.071,-0.001504834
-1.07,-0.001502995
-1.069,-0.001496557
-1.068,-0.001487361
-1.067,-0.001484908
-1.066,-0.00148031
-1.065,-0.001471727
-1.064,-0.0014705
-1.063,-0.001463756
-1.062,-0.001455173
-1.061,-0.001453027
-1.06,-0.001447203
-1.059,-0.001441378
-1.058,-0.00143586
-1.057,-0.001431875
-1.056,-0.001424825
-1.055,-0.001421453
-1.054,-0.001415322
-1.053,-0.001408578
-1.052,-0.001405819
-1.051,-0.001398462
-1.05,-0.001395396
-1.049,-0.001391104
-1.048,-0.001384667
-1.047,-0.001379456
-1.046,-0.001373938
-1.045,-0.001367194
-1.044,-0.001364128
-1.043,-0.001357691
-1.042,-0.001353399
-1.041,-0.001348188
-1.04,-0.001343283
-1.039,-0.001336232
-1.038,-0.001331941
-1.037,-0.001327342
-1.036,-0.001321211
-1.035,-0.001318146
-1.034,-0.001311402
-1.033,-0.001305577
-1.032,-0.001301899
-1.031,-0.001295768
-1.03,-0.001290863
-1.029,-0.001286878
-1.028,-0.001280134
-1.027,-0.001276149
-1.026,-0.001271857
-1.025,-0.00126542
-1.024,-0.001261128
-1.023,-0.001256836
-1.022,-0.001249479
-1.021,-0.00124672
-1.02,-0.001241815
-1.019,-0.001234765
-1.018,-0.00122986
-1.017,-0.001226488
-1.016,-0.001220051
-1.015,-0.001214839
-1.014,-0.001210241
-1.013,-0.001205336
-1.012,-0.001198286
-1.011,-0.0011943
-1.01,-0.001190009
-1.009,-0.001183878
-1.008,-0.00117928
-1.007,-0.001174375
-1.006,-0.001168857
-1.005,-0.001162726
-1.004,-0.001159047
-1.003,-0.001153223
-1.002,-0.001147705
-1.001,-0.001143107
-1,-0.001137282
-0.9990003,-0.001132071
-0.9980002,-0.001128086
-0.9970002,-0.001123181
-0.9960002,-0.001116744
-0.9950002,-0.001112452
-0.9940003,-0.001106934
-0.9930002,-0.001100803
-0.9920002,-0.001098044
-0.9910002,-0.0010913
-0.9900002,-0.001085782
-0.9890002,-0.001082717
-0.9880002,-0.001075666
-0.9870002,-0.001071375
-0.9860002,-0.00106555
-0.9850003,-0.001060952
-0.9840002,-0.001055741
-0.9830002,-0.001050529
-0.9820002,-0.001044398
-0.9810002,-0.001040413
-0.9800002,-0.001033976
-0.9790002,-0.001028764
-0.9780002,-0.001023553
-0.9770002,-0.001018035
-0.9760002,-0.001012211
-0.9750002,-0.001008839
-0.9740002,-0.001002401
-0.9730002,-0.0009965767
-0.9720002,-0.0009922851
-0.9710003,-0.0009867672
-0.9700002,-0.0009812494
-0.9690002,-0.0009763446
-0.9680002,-0.0009702136
-0.9670002,-0.0009643892
-0.9660002,-0.000959791
-0.9650002,-0.0009548862
-0.9640002,-0.0009478356
-0.9630002,-0.0009447701
-0.9620003,-0.0009383326
-0.9610002,-0.0009315885
-0.9600002,-0.00092791
-0.9590002,-0.0009202462
-0.9580002,-0.0009171807
-0.9570003,-0.0009125826
-0.9560002,-0.0009043057
-0.9550002,-0.0009009338
-0.9540002,-0.0008957224
-0.9530002,-0.0008883653
-0.9520002,-0.0008849932
-0.9510002,-0.0008785557
-0.9500002,-0.0008718116
-0.9490002,-0.0008690527
-0.9480003,-0.0008616955
-0.9470002,-0.0008564842
-0.9460002,-0.0008521925
-0.9450002,-0.0008454485
-0.9440002,-0.0008408502
-0.9430002,-0.0008365586
-0.9420002,-0.0008276686
-0.9410002,-0.0008236835
-0.9400002,-0.0008178591
-0.9390002,-0.0008111151
-0.9380002,-0.00080713
-0.9370002,-0.0008022251
-0.9360002,-0.000794868
-0.9350002,-0.0007902698
-0.9340003,-0.0007847519
-0.9330002,-0.0007780078
-0.9320002,-0.0007727966
-0.9310002,-0.000766359
-0.9300002,-0.0007608412
-0.9290002,-0.0007562429
-0.9280002,-0.0007498054
-0.9270002,-0.000743981
-0.9260002,-0.0007399959
-0.9250003,-0.0007329452
-0.9240002,-0.0007280405
-0.9230002,-0.0007225226
-0.9220002,-0.000715472
-0.9210002,-0.0007105672
-0.9200003,-0.0007050494
-0.9190002,-0.0006970791
-0.9180002,-0.000693094
-0.9170002,-0.0006878827
-0.9160002,-0.0006796059
-0.9150002,-0.0006747011
-0.9140002,-0.0006704094
-0.9130002,-0.0006621326
-0.9120002,-0.0006575344
-0.9110003,-0.0006507903
-0.9100002,-0.0006452725
-0.9090002,-0.000639448
-0.9080002,-0.0006323974
-0.9070002,-0.000626573
-0.9060002,-0.0006213617
-0.9050002,-0.0006143111
-0.9040002,-0.0006097128
-0.9030002,-0.0006032753
-0.9020002,-0.0005965313
-0.9010002,-0.0005916265
-0.9000002,-0.0005858021
-0.8990002,-0.0005778318
-0.8980002,-0.0005732336
-0.8970003,-0.0005677157
-0.8960002,-0.0005597455
-0.8950002,-0.0005551472
-0.8940002,-0.0005493228
-0.8930002,-0.0005425788
-0.8920002,-0.0005367543
-0.8910002,-0.0005297037
-0.8900002,-0.0005235728
-0.8890002,-0.0005174418
-0.8880002,-0.0005113108
-0.8870002,-0.0005045668
-0.8860002,-0.0004990489
-0.8850002,-0.0004926114
-0.8840002,-0.0004849477
-0.8830003,-0.0004800429
-0.8820002,-0.0004736054
-0.8810002,-0.0004653286
-0.8800002,-0.0004595042
-0.8790002,-0.0004542929
-0.8780002,-0.0004472423
-0.8770002,-0.0004404982
-0.8760002,-0.0004343672
-0.8750002,-0.0004276232
-0.8740003,-0.0004211857
-0.8730002,-0.0004150547
-0.8720002,-0.0004086172
-0.8710002,-0.0004018731
-0.8700002,-0.0003951291
-0.8690003,-0.0003893046
-0.8680002,-0.000382254
-0.8670002,-0.0003758165
-0.8660002,-0.0003712183
-0.8650002,-0.0003617153
-0.8640002,-0.0003571171
-0.8630002,-0.0003497599
-0.8620002,-0.0003411766
-0.8610002,-0.0003368849
-0.8600003,-0.0003292212
-0.8590002,-0.0003224771
-0.8580002,-0.0003172658
-0.8570002,-0.0003096021
-0.8560002,-0.0003013253
-0.8550002,-0.0002973401
-0.8540002,-0.0002890633
-0.8530002,-0.0002823193
-0.8520002,-0.0002761883
-0.8510002,-0.0002697508
-0.8500002,-0.0002620871
-0.8490002,-0.0002559561
-0.8480002,-0.0002479859
-0.8470002,-0.0002430811
-0.8460003,-0.0002348043
-0.8450002,-0.0002274471
-0.8440002,-0.0002213162
-0.8430002,-0.0002136525
-0.8420002,-0.0002062953
-0.8410002,-0.0002004709
-0.8400002,-0.0001925007
-0.8390002,-0.0001851435
-0.8380002,-0.000178706
-0.8370003,-0.0001716554
-0.8360002,-0.0001642982
-0.8350002,-0.0001584738
-0.8340002,-0.0001498904
-0.8330002,-0.0001457319
-0.8320003,-0.0001393557
-0.8310002,-0.0001305884
-0.8300002,-0.0001244574
-0.8290002,-0.0001178666
-0.8280002,-0.0001092526
-0.8270002,-0.0001035202
-0.8260002,-9.597909E-05
-0.8250002,-8.708919E-05
-0.8240002,-8.126477E-05
-0.8230003,-7.280405E-05
-0.8220002,-6.471117E-05
-0.8210002,-5.940788E-05
-0.8200002,-5.011947E-05
-0.8190002,-4.254773E-05
-0.8180002,-3.730575E-05
-0.8170002,-2.737359E-05
-0.8160002,-2.142655E-05
-0.8150002,-1.357892E-05
-0.8140002,-4.167889E-06
-0.8130002,3.26179E-06
-0.8120002,1.03216E-05
-0.8110002,1.878233E-05
-0.8100002,2.584318E-05
-0.8090003,3.218873E-05
-0.8080002,4.107863E-05
-0.8070002,4.819056E-05
-0.8060002,5.625277E-05
-0.8050002,6.517333E-05
-0.8040002,7.283704E-05
-0.8030002,7.997961E-05
-0.8020002,8.890016E-05
-0.8010002,9.656387E-05
-0.8000003,5.720307E-05
-0.8009998,4.476772E-06
-0.8019998,-3.059235E-05
-0.8029998,-6.023556E-05
-0.8039998,-8.598562E-05
-0.8049998,-0.0001107547
-0.8059998,-0.0001318759
-0.8069998,-0.0001529664
-0.8079998,-0.0001724935
-0.8089998,-0.0001909171
-0.8099998,-0.0002097698
-0.8109998,-0.0002273963
-0.8119998,-0.0002437047
-0.8129998,-0.0002606568
-0.8139998,-0.0002751565
-0.8149998,-0.0002909744
-0.8159998,-0.0003031646
-0.8169998,-0.0003166527
-0.8179998,-0.0003310605
-0.8189998,-0.0003466944
-0.8199998,-0.0003589563
-0.8209998,-0.0003712183
-0.8219998,-0.0003847064
-0.8229998,-0.0003963552
-0.8239998,-0.0004098434
-0.8249998,-0.0004230249
-0.8259998,-0.000433141
-0.8269998,-0.0004450964
-0.8279998,-0.0004576649
-0.8289998,-0.0004671679
-0.8299998,-0.0004791233
-0.8309998,-0.000490159
-0.8319998,-0.0004999685
-0.8329998,-0.0005119239
-0.8339998,-0.0005226531
-0.8349998,-0.0005312365
-0.8359998,-0.0005425788
-0.8369998,-0.0005536145
-0.8379998,-0.0005612782
-0.8389998,-0.0005723139
-0.8399998,-0.0005827366
-0.8409998,-0.0005922396
-0.8419998,-0.0006014361
-0.8429998,-0.0006112456
-0.8439998,-0.000620442
-0.8449998,-0.0006290254
-0.8459998,-0.0006385284
-0.8469998,-0.000648951
-0.8479998,-0.0006560017
-0.8489998,-0.0006661177
-0.8499998,-0.0006743945
-0.8509998,-0.000683591
-0.8519998,-0.0006927875
-0.8529998,-0.0007013708
-0.8539998,-0.000709341
-0.8549998,-0.0007170048
-0.8559998,-0.0007265077
-0.8569998,-0.0007347845
-0.8579998,-0.0007424483
-0.8589998,-0.0007516447
-0.8599998,-0.0007593084
-0.8609998,-0.0007672787
-0.8619998,-0.000775862
-0.8629998,-0.0007838323
-0.8639998,-0.0007918025
-0.8649998,-0.0007994662
-0.8659998,-0.0008086627
-0.8669998,-0.0008147936
-0.8679998,-0.000823377
-0.8689998,-0.0008304276
-0.8699998,-0.0008383978
-0.8709998,-0.0008472878
-0.8719998,-0.0008515794
-0.8729998,-0.0008623086
-0.8739998,-0.0008690527
-0.8749998,-0.0008757967
-0.8759998,-0.0008846867
-0.8769998,-0.0008908176
-0.8779998,-0.0008972551
-0.8789998,-0.0009067581
-0.8799998,-0.0009119695
-0.8809998,-0.0009196331
-0.8819998,-0.0009272969
-0.8829998,-0.0009328147
-0.8839998,-0.0009417046
-0.8849998,-0.0009481421
-0.8859998,-0.0009542731
-0.8869998,-0.0009628565
-0.8879998,-0.0009683743
-0.8889998,-0.0009751184
-0.8899998,-0.0009833951
-0.8909998,-0.000988913
-0.8919998,-0.0009962702
-0.8929998,-0.001003321
-0.8939998,-0.001008839
-0.8949998,-0.001015276
-0.8959998,-0.001022634
-0.8969998,-0.001027232
-0.8979998,-0.001034895
-0.8989998,-0.001042866
-0.8999998,-0.001045931
-0.9009998,-0.001056047
-0.9019998,-0.001061872
-0.9029998,-0.001066163
-0.9039998,-0.001074134
-0.9049998,-0.001079958
-0.9059998,-0.001084863
-0.9069998,-0.00109222
-0.9079998,-0.001098044
-0.9089998,-0.001103256
-0.9099998,-0.001109693
-0.9109998,-0.001113985
-0.9119998,-0.001121035
-0.9129998,-0.001126553
-0.9139998,-0.001130845
-0.9149998,-0.001139122
-0.9159998,-0.001144027
-0.9169998,-0.001147398
-0.9179998,-0.001155982
-0.9189998,-0.001161806
-0.9199998,-0.001164565
-0.9209998,-0.001172536
-0.9219998,-0.001176214
-0.9229998,-0.001182345
-0.9239998,-0.001189702
-0.9249998,-0.001192768
-0.9259998,-0.001199818
-0.9269998,-0.001206562
-0.9279998,-0.001208402
-0.9289998,-0.001216985
-0.9299998,-0.00122189
-0.9309998,-0.001225262
-0.9319998,-0.001233232
-0.9329998,-0.00123783
-0.9339998,-0.001240896
-0.9349998,-0.001248253
-0.9359998,-0.001252238
-0.9369998,-0.00125653
-0.9379998,-0.00126358
-0.9389998,-0.001266033
-0.9399998,-0.001272777
-0.9409998,-0.001278908
-0.9419998,-0.0012832
-0.9429998,-0.001287491
-0.9439998,-0.001292396
-0.9449998,-0.001297914
-0.9459998,-0.001301286
-0.9469998,-0.00130895
-0.9479998,-0.001312628
-0.9489998,-0.001315694
-0.9499998,-0.001322131
-0.9509998,-0.00132581
-0.9519998,-0.001331021
-0.9529998,-0.001337459
-0.9539998,-0.001339911
-0.9549998,-0.001346042
-0.9559998,-0.001350334
-0.9569998,-0.001355238
-0.9579998,-0.00136045
-0.9589998,-0.001365048
-0.9599998,-0.00136842
-0.9609998,-0.001374857
-0.9619998,-0.00137639
-0.9629998,-0.001382521
-0.9639998,-0.001389878
-0.9649998,-0.001390185
-0.9659998,-0.001398462
-0.9669998,-0.001403673
-0.9679998,-0.001405206
-0.9689998,-0.001412869
-0.9699998,-0.001416548
-0.9709998,-0.001418387
-0.9719998,-0.001424518
-0.9729998,-0.001431569
-0.9739998,-0.001433408
-0.9749998,-0.001438926
-0.9759998,-0.00144475
-0.9769998,-0.001447816
-0.9779998,-0.001453947
-0.9789998,-0.001457319
-0.9799998,-0.00146253
-0.9809998,-0.001466515
-0.9819998,-0.0014705
-0.9829998,-0.001475712
-0.9839998,-0.001480923
-0.9849998,-0.001484295
-0.9859998,-0.001491039
-0.9869998,-0.001493798
-0.9879998,-0.001499009
-0.9889998,-0.001503914
-0.9899998,-0.00150698
-0.9909998,-0.001511885
-0.9919998,-0.001518629
-0.9929998,-0.001522001
-0.9939998,-0.001525373
-0.9949998,-0.00153089
-0.9959998,-0.001533036
-0.9969998,-0.001540087
-0.9979998,-0.001546218
-0.9989998,-0.001546524
-0.9999998,-0.001554495
-1.001,-0.001559399
-1.002,-0.001560932
-1.003,-0.001567676
-1.004,-0.001572581
-1.005,-0.001575033
-1.006,-0.001583004
-1.007,-0.001585456
-1.008,-0.001588828
-1.009,-0.001594959
-1.01,-0.001597411
-1.011,-0.001603236
-1.012,-0.001609367
-1.013,-0.001610593
-1.014,-0.001616724
-1.015,-0.001623161
-1.016,-0.001625001
-1.017,-0.001630519
-1.018,-0.00163573
-1.019,-0.001640022
-1.02,-0.00164462
-1.021,-0.001649525
-1.022,-0.001652897
-1.023,-0.00166056
-1.024,-0.001663013
-1.025,-0.001668224
-1.026,-0.001674048
-1.027,-0.001676808
-1.028,-0.001685391
-1.029,-0.001689069
-1.03,-0.001690909
-1.031,-0.001698266
-1.032,-0.001702864
-1.033,-0.001702864
-1.034,-0.001711447
-1.035,-0.001716046
-1.036,-0.001717578
-1.037,-0.001725549
-1.038,-0.00173076
-1.039,-0.001730453
-1.04,-0.00173873
-1.041,-0.001743022
-1.042,-0.001743328
-1.043,-0.001753138
-1.044,-0.001755897
-1.045,-0.001759882
-1.046,-0.001766626
-1.047,-0.001769692
-1.048,-0.00177337
-1.049,-0.001778888
-1.05,-0.00178318
-1.051,-0.001788085
-1.052,-0.001794215
-1.053,-0.001796361
-1.054,-0.001801879
-1.055,-0.001807397
-1.056,-0.001810462
-1.057,-0.001815674
-1.058,-0.001820272
-1.059,-0.001823644
-1.06,-0.001830695
-1.061,-0.001835293
-1.062,-0.001837745
-1.063,-0.001844796
-1.064,-0.001849088
-1.065,-0.001852153
-1.066,-0.001858591
-1.067,-0.001862882
-1.068,-0.001865335
-1.069,-0.001872385
-1.07,-0.001876677
-1.071,-0.001878823
-1.072,-0.001884034
-1.073,-0.001889552
-1.074,-0.001893537
-1.075,-0.001899668
-1.076,-0.00190212
-1.077,-0.001907945
-1.078,-0.001913769
-1.079,-0.001916222
-1.08,-0.00192174
-1.081,-0.001927564
-1.082,-0.001929403
-1.083,-0.001936454
-1.084,-0.001939519
-1.085,-0.001942891
-1.086,-0.001947183
-1.087,-0.001953927
-1.088,-0.00195546
-1.089,-0.001961284
-1.09,-0.001968335
-1.091,-0.001967722
-1.092,-0.001977531
-1.093,-0.001981516
-1.094,-0.001983356
-1.095,-0.001991633
-1.096,-0.001993472
-1.097,-0.001998377
-1.098,-0.002005734
-1.099,-0.002007573
-1.1,-0.002014623
-1.101,-0.002019835
-1.102,-0.0020229
-1.103,-0.002028725
-1.104,-0.002033629
-1.105,-0.002037921
-1.106,-0.002042519
-1.107,-0.002051103
-1.108,-0.002053555
-1.109,-0.002060299
-1.11,-0.002064897
-1.111,-0.00206735
-1.112,-0.002076853
-1.113,-0.002080532
-1.114,-0.002086049
-1.115,-0.002094019
-1.116,-0.002098005
-1.117,-0.00210199
-1.118,-0.00210996
-1.119,-0.002113638
-1.12,-0.002120076
-1.121,-0.002126514
-1.122,-0.002131112
-1.123,-0.002136017
-1.124,-0.0021446
-1.125,-0.002148892
-1.126,-0.002154716
-1.127,-0.002160234
-1.128,-0.002165445
-1.129,-0.002171576
-1.13,-0.002177707
-1.131,-0.002182612
-1.132,-0.002190276
-1.133,-0.002196407
-1.134,-0.002200392
-1.135,-0.002207749
-1.136,-0.002213267
-1.137,-0.002218785
-1.138,-0.002227981
-1.139,-0.002229514
-1.14,-0.002236564
-1.141,-0.002243309
-1.142,-0.002246987
-1.143,-0.002253118
-1.144,-0.002259862
-1.145,-0.002262008
-1.146,-0.002269365
-1.147,-0.002274883
-1.148,-0.002275803
-1.149,-0.002280401
-1.15,-0.002288065
-1.151,-0.002287758
-1.152,-0.002293276
-1.153,-0.002297261
-1.154,-0.002298181
-1.155,-0.002303086
-1.156,-0.002307683
-1.157,-0.002308603
-1.158,-0.002315347
-1.159,-0.002317187
-1.16,-0.002318413
-1.161,-0.002323318
-1.162,-0.00232669
-1.163,-0.002329448
-1.164,-0.002332514
-1.165,-0.00233558
-1.166,-0.002336806
-1.167,-0.002343856
-1.168,-0.002345083
-1.169,-0.002347535
-1.17,-0.002354586
-1.171,-0.002352746
-1.172,-0.002358877
-1.173,-0.002364702
-1.174,-0.002366847
-1.175,-0.002368993
-1.176,-0.002375737
-1.177,-0.002374818
-1.178,-0.002381868
-1.179,-0.002389226
-1.18,-0.002386467
-1.181,-0.00239505
-1.182,-0.002400568
-1.183,-0.002401181
-1.184,-0.002407925
-1.185,-0.002412217
-1.186,-0.00241191
-1.187,-0.002421413
-1.188,-0.002422946
-1.189,-0.002426318
-1.19,-0.002433368
-1.191,-0.002437354
-1.192,-0.002442565
-1.193,-0.002449922
-1.194,-0.002448389
-1.195,-0.002456666
-1.196,-0.002460651
-1.197,-0.002462184
-1.198,-0.002470461
-1.199,-0.002476898
-1.2,-0.002478738
-1.201,-0.002486095
-1.202,-0.002493145
-1.203,-0.002495904
-1.204,-0.002501729
-1.205,-0.00250878
-1.206,-0.002511845
-1.207,-0.002517976
-1.208,-0.002528705
-1.209,-0.002528398
-1.21,-0.002537288
-1.211,-0.002543419
-1.212,-0.002546178
-1.213,-0.002554761
-1.214,-0.002558134
-1.215,-0.002565797
-1.216,-0.002572848
-1.217,-0.00257714
-1.218,-0.002584497
-1.219,-0.002591854
-1.22,-0.002596145
-1.221,-0.002604729
-1.222,-0.002610247
-1.223,-0.002616378
-1.224,-0.002624655
-1.225,-0.002630786
-1.226,-0.002636916
-1.227,-0.002646726
-1.228,-0.002652857
-1.229,-0.002657149
-1.23,-0.002668184
-1.231,-0.002675235
-1.232,-0.00268014
-1.233,-0.002690256
-1.234,-0.002699146
-1.235,-0.00270589
-1.236,-0.002715393
-1.237,-0.002721831
-1.238,-0.002732253
-1.239,-0.00273961
-1.24,-0.002748806
-1.241,-0.00275739
-1.242,-0.002765974
-1.243,-0.002774557
-1.244,-0.002783753
-1.245,-0.002793869
-1.246,-0.002801533
-1.247,-0.002812262
-1.248,-0.002823605
-1.249,-0.002829735
-1.25,-0.002841691
-1.251,-0.002854259
-1.252,-0.002862536
-1.253,-0.002874798
-1.254,-0.002883381
-1.255,-0.002892884
-1.256,-0.002907905
-1.257,-0.002919248
-1.258,-0.00292967
-1.259,-0.002942852
-1.26,-0.002954807
-1.261,-0.002966763
-1.262,-0.002980864
-1.263,-0.002994352
-1.264,-0.003005081
-1.265,-0.002985663
-1.266,-0.002997925
-1.267,-0.003010187
-1.268,-0.003025514
-1.269,-0.003040842
-1.27,-0.003053104
-1.271,-0.003068431
-1.272,-0.003086824
-1.273,-0.003099086
-1.274,-0.003117479
-1.275,-0.003132806
-1.276,-0.003148134
-1.277,-0.003166527
-1.278,-0.003184919
-1.279,-0.003200247
-1.28,-0.003221706
-1.281,-0.003240098
-1.282,-0.003258491
-1.283,-0.00327995
-1.284,-0.003298342
-1.285,-0.003319801
-1.286,-0.003341259
-1.287,-0.003362718
-1.288,-0.003378045
-1.289,-0.0034087
-1.29,-0.003430158
-1.291,-0.003451617
-1.292,-0.003479206
-1.293,-0.00350373
-1.294,-0.003525188
-1.295,-0.003552777
-1.296,-0.003580367
-1.297,-0.003604891
-1.298,-0.003638611
-1.299,-0.0036662
-1.3,-0.00369379
-1.301,-0.00372751
-1.302,-0.003758165
-1.303,-0.00378882
-1.304,-0.003825605
-1.305,-0.003859326
-1.306,-0.003893046
-1.307,-0.003932897
-1.308,-0.003969683
-1.309,-0.004006469
-1.31,-0.004049386
-1.311,-0.004092303
-1.312,-0.004135219
-1.313,-0.004178136
-1.314,-0.004224118
-1.315,-0.004270101
-1.316,-0.004322214
-1.317,-0.004368196
-1.318,-0.004423374
-1.319,-0.004478553
-1.32,-0.004530666
-1.321,-0.004591976
-1.322,-0.00465022
-1.323,-0.004708464
-1.324,-0.004775905
-1.325,-0.004843346
-1.326,-0.004910786
-1.327,-0.004984358
-1.328,-0.00505793
-1.329,-0.005131501
-1.33,-0.005214269
-1.331,-0.005300103
-1.332,-0.005379805
-1.333,-0.005471769
-1.334,-0.005563734
-1.335,-0.005652633
-1.336,-0.00575686
-1.337,-0.005858021
-1.338,-0.005962247
-1.339,-0.006072604
-1.34,-0.006179896
-1.341,-0.006296384
-1.342,-0.006419003
-1.343,-0.006541623
-1.344,-0.006670373
-1.345,-0.006805255
-1.346,-0.006940136
-1.347,-0.007078082
-1.348,-0.007228291
-1.349,-0.007375435
-1.35,-0.007528708
-1.351,-0.007688113
-1.352,-0.007850585
-1.353,-0.008019186
-1.354,-0.008190853
-1.355,-0.008365585
-1.356,-0.00855258
-1.357,-0.008736508
-1.358,-0.008929634
-1.359,-0.00912889
-1.36,-0.009331211
-1.361,-0.009539665
-1.362,-0.009748118
-1.363,-0.009962701
-1.364,-0.01018648
-1.365,-0.01041333
-1.366,-0.01064324
-1.367,-0.01087928
-1.368,-0.01112145
-1.369,-0.01136976
-1.37,-0.01162113
-1.371,-0.0118725
-1.372,-0.01213306
-1.373,-0.0123967
-1.374,-0.01266339
-1.375,-0.01293622
-1.376,-0.01321824
-1.377,-0.01350027
-1.378,-0.01378229
-1.379,-0.01407045
-1.38,-0.01437087
-1.381,-0.01466515
-1.382,-0.0149717
-1.383,-0.01528131
-1.384,-0.0155848
-1.385,-0.01590361
-1.386,-0.01621629
-1.387,-0.01653203
-1.388,-0.01686004
-1.389,-0.01717578
-1.39,-0.01750685
-1.391,-0.01784406
-1.392,-0.01817819
-1.393,-0.01852153
-1.394,-0.01885873
-1.395,-0.019199
-1.396,-0.0195546
-1.397,-0.01989793
-1.398,-0.02024433
-1.399,-0.02060299
-1.4,-0.02096165
-1.401,-0.02131725
-1.402,-0.02168204
-1.403,-0.02204377
-1.404,-0.02240856
-1.405,-0.02277642
-1.406,-0.02315041
-1.407,-0.02351826
-1.408,-0.02389532
-1.409,-0.02426931
-1.41,-0.02464636
-1.411,-0.02502648
-1.412,-0.02540354
-1.413,-0.02578365
-1.414,-0.02617297
-1.415,-0.02654696
-1.416,-0.02693321
-1.417,-0.02732559
-1.418,-0.02771184
-1.419,-0.02810116
-1.42,-0.02849967
-1.421,-0.02888592
-1.422,-0.02927831
-1.423,-0.02967682
-1.424,-0.03006613
-1.425,-0.03047078
-1.426,-0.03099086
-1.427,-0.03135872
-1.428,-0.03178789
-1.429,-0.0321864
-1.43,-0.03261557
-1.431,-0.03301408
-1.432,-0.03341259
-1.433,-0.03384176
-1.434,-0.03424027
-1.435,-0.03466944
-1.436,-0.03506796
-1.437,-0.03549712
-1.438,-0.03589563
-1.439,-0.03629415
-1.44,-0.03672331
-1.441,-0.03712183
-1.442,-0.037551
-1.443,-0.03798017
-1.444,-0.03837867
-1.445,-0.03877719
-1.446,-0.03920636
-1.447,-0.03960487
-1.448,-0.04003404
-1.449,-0.04046321
-1.45,-0.04086172
-1.451,-0.04129088
-1.452,-0.0416894
-1.453,-0.04208791
-1.454,-0.04251708
-1.455,-0.04294625
-1.456,-0.04334476
-1.457,-0.04377393
-1.458,-0.04417244
-1.459,-0.04457095
-1.46,-0.04500012
-1.461,-0.04539863
-1.462,-0.0458278
-1.463,-0.04622631
-1.464,-0.04665548
-1.465,-0.04705399
-1.466,-0.04748316
-1.467,-0.04788167
-1.468,-0.04831084
-1.469,-0.04874001
-1.47,-0.04913852
-1.471,-0.04956769
-1.472,-0.0499662
-1.473,-0.05036471
-1.474,-0.05079388
-1.475,-0.05119239
-1.476,-0.05162156
-1.477,-0.05202007
-1.478,-0.05244924
-1.479,-0.05284775
-1.48,-0.05327692
-1.481,-0.05367543
-1.482,-0.05407395
-1.483,-0.05450311
-1.484,-0.05493228
-1.485,-0.05533079
-1.486,-0.05575996
-1.487,-0.05615847
-1.488,-0.05658764
-1.489,-0.05698615
-1.49,-0.05738467
-1.491,-0.05781383
-1.492,-0.058243
-1.493,-0.05864152
-1.494,-0.05907068
-1.495,-0.05949985
-1.496,-0.05989837
-1.497,-0.06029687
-1.498,-0.06072604
-1.499,-0.06115521
-1.5,-0.06127783
-1.499,-0.06094063
-1.498,-0.06057277
-1.497,-0.06020491
-1.496,-0.05983705
-1.495,-0.05943854
-1.494,-0.05907068
-1.493,-0.05867217
-1.492,-0.05827365
-1.491,-0.0579058
-1.49,-0.05750729
-1.489,-0.05713943
-1.488,-0.05674092
-1.487,-0.0563424
-1.486,-0.05594389
-1.485,-0.05554538
-1.484,-0.05514687
-1.483,-0.05474835
-1.482,-0.0543805
-1.481,-0.05398199
-1.48,-0.05358347
-1.479,-0.05318496
-1.478,-0.05278645
-1.477,-0.05241859
-1.476,-0.05202007
-1.475001,-0.05162156
-1.474,-0.0512537
-1.473,-0.05088584
-1.472,-0.05048734
-1.471,-0.05008882
-1.47,-0.04969031
-1.469,-0.04929179
-1.468,-0.04892394
-1.467,-0.04855608
-1.466,-0.04815757
-1.465,-0.04775905
-1.464,-0.04739119
-1.463,-0.04699268
-1.462,-0.04662482
-1.461,-0.04622631
-1.46,-0.0458278
-1.459,-0.04545994
-1.458,-0.04509208
-1.457,-0.04469357
-1.456,-0.04432571
-1.455,-0.04395786
-1.454,-0.04355934
-1.453,-0.04322214
-1.452,-0.04282362
-1.451,-0.04245577
-1.45,-0.04208791
-1.449,-0.0416894
-1.448,-0.04135219
-1.447,-0.04095368
-1.446,-0.04058582
-1.445,-0.04018731
-1.444,-0.03981945
-1.443,-0.0394516
-1.442,-0.03908373
-1.441,-0.03871588
-1.44,-0.03834802
-1.439,-0.03798017
-1.438,-0.0376123
-1.437,-0.03724445
-1.436,-0.03690724
-1.435,-0.03650873
-1.434,-0.03614087
-1.433,-0.03580367
-1.432,-0.03543581
-1.431,-0.03506796
-1.43,-0.03473075
-1.429,-0.03436289
-1.428,-0.03399504
-1.427,-0.03362718
-1.426,-0.03328998
-1.425,-0.03292212
-1.424,-0.03255426
-1.423,-0.0321864
-1.422,-0.0318492
-1.421,-0.03151199
-1.42,-0.03114414
-1.419,-0.03080693
-1.418,-0.03046973
-1.417,-0.03013253
-1.416,-0.02976467
-1.415,-0.02942747
-1.414,-0.02909026
-1.413,-0.02875306
-1.412,-0.02841586
-1.411,-0.02807865
-1.41,-0.02774145
-1.409,-0.02740425
-1.408,-0.02706704
-1.407,-0.02676049
-1.406,-0.02642329
-1.405,-0.02608609
-1.404,-0.02574889
-1.403,-0.02544234
-1.402,-0.02510513
-1.401,-0.02476793
-1.4,-0.02446138
-1.399,-0.02412418
-1.398,-0.02381763
-1.397,-0.02351108
-1.396,-0.02317388
-1.395,-0.02286733
-1.394,-0.02256078
-1.393,-0.02222358
-1.392,-0.02191703
-1.391,-0.02161049
-1.39,-0.02130394
-1.389,-0.02102804
-1.388,-0.0207215
-1.387,-0.02041495
-1.386,-0.0201084
-1.385,-0.01980185
-1.384,-0.01952596
-1.383,-0.01921941
-1.382,-0.01894352
-1.381,-0.01866762
-1.38,-0.01839173
-1.379,-0.01808518
-1.378,-0.01780929
-1.377,-0.01753339
-1.376,-0.0172575
-1.375,-0.01698161
-1.374,-0.01670571
-1.373,-0.01642982
-1.372,-0.01618458
-1.371,-0.0160109
-1.37,-0.01575033
-1.369,-0.01549896
-1.368,-0.01524453
-1.367,-0.01499316
-1.366,-0.01474485
-1.365,-0.01449962
-1.364,-0.01425744
-1.363,-0.01401527
-1.362,-0.01378229
-1.361,-0.01354932
-1.36,-0.01332247
-1.359,-0.01308949
-1.358,-0.01286571
-1.357,-0.012645
-1.356,-0.01241815
-1.355,-0.0122005
-1.354,-0.01198592
-1.353,-0.01176827
-1.352,-0.01156901
-1.351,-0.01136669
-1.350001,-0.01116131
-1.349,-0.01096511
-1.348,-0.01076586
-1.347,-0.0105666
-1.346,-0.01038267
-1.345,-0.01019568
-1.344,-0.01001175
-1.343,-0.009837016
-1.342,-0.009656153
-1.341,-0.009478356
-1.34,-0.009306688
-1.339,-0.009138087
-1.338,-0.008969485
-1.337,-0.00881008
-1.336,-0.008644544
-1.335,-0.008485138
-1.334,-0.00833493
-1.333,-0.008184722
-1.332,-0.008034512
-1.331,-0.007890435
-1.33,-0.007749423
-1.329,-0.007611477
-1.328,-0.00747966
-1.327,-0.007344779
-1.326,-0.007219094
-1.325,-0.007090344
-1.324,-0.006964659
-1.323,-0.006845106
-1.322,-0.006725552
-1.321,-0.006609064
-1.32,-0.006498706
-1.319,-0.006385284
-1.318,-0.006277991
-1.317,-0.006173765
-1.316,-0.006072604
-1.315,-0.005971443
-1.314,-0.005873348
-1.313,-0.005778318
-1.312,-0.005686353
-1.311,-0.005591323
-1.31,-0.00550549
-1.309,-0.005422722
-1.308,-0.005336888
-1.307,-0.005257186
-1.306,-0.005183614
-1.305,-0.005103912
-1.304,-0.00503034
-1.303,-0.0049629
-1.302,-0.004889328
-1.301,-0.004821887
-1.3,-0.004757512
-1.299,-0.004693137
-1.298,-0.004631828
-1.297,-0.004570518
-1.296,-0.004512274
-1.295,-0.004450964
-1.294,-0.004401916
-1.293,-0.004343672
-1.292,-0.004291559
-1.291,-0.004242511
-1.29,-0.004187332
-1.289,-0.00414135
-1.288,-0.004092303
-1.287,-0.004049386
-1.286,-0.004003403
-1.285,-0.003960487
-1.284,-0.00391757
-1.283,-0.003877719
-1.282,-0.003834802
-1.281,-0.003798016
-1.28,-0.00376123
-1.279,-0.003721379
-1.278,-0.003687659
-1.277,-0.003653938
-1.276,-0.003614087
-1.275,-0.003586498
-1.274,-0.003552777
-1.273,-0.003519057
-1.272,-0.003491468
-1.271,-0.003460813
-1.27,-0.003430158
-1.269,-0.003405634
-1.268,-0.003374979
-1.267,-0.003350456
-1.266,-0.003322866
-1.265,-0.003292212
-1.264,-0.003270753
-1.263,-0.003246229
-1.262,-0.00321864
-1.261,-0.003197182
-1.26,-0.003175723
-1.259,-0.003148134
-1.258,-0.003129741
-1.257,-0.003111348
-1.256,-0.003083759
-1.255,-0.003065366
-1.254,-0.003050038
-1.253,-0.00302858
-1.252,-0.003007122
-1.251,-0.002988729
-1.25,-0.00296727
-1.249,-0.002948877
-1.248,-0.002930485
-1.247,-0.002915157
-1.246,-0.002896764
-1.245,-0.002878371
-1.244,-0.002863044
-1.243,-0.002844651
-1.242,-0.002826258
-1.241,-0.002813996
-1.24,-0.002795603
-1.239,-0.002780276
-1.238,-0.002768014
-1.237,-0.002749621
-1.236,-0.002734293
-1.235,-0.002718966
-1.234,-0.002703639
-1.233,-0.002688312
-1.232,-0.002676049
-1.231,-0.002660722
-1.23,-0.00264846
-1.229,-0.002636198
-1.228,-0.002617805
-1.227,-0.002608609
-1.226,-0.002593281
-1.225001,-0.002577954
-1.224,-0.002568757
-1.223,-0.002556496
-1.222,-0.002538103
-1.221,-0.002531972
-1.22,-0.002516645
-1.219,-0.002504382
-1.218,-0.002495186
-1.217,-0.002479859
-1.216,-0.002467597
-1.215,-0.0024584
-1.214,-0.002443073
-1.213,-0.002433876
-1.212,-0.00242468
-1.211,-0.002409352
-1.21,-0.002400156
-1.209,-0.002387894
-1.208,-0.002378698
-1.207,-0.002369501
-1.206,-0.002357239
-1.205,-0.002348043
-1.204,-0.002335781
-1.203,-0.002323519
-1.202,-0.002314323
-1.201,-0.002305126
-1.2,-0.00229593
-1.199,-0.002286733
-1.198,-0.002277537
-1.197,-0.002265275
-1.196,-0.002256078
-1.195,-0.002249948
-1.194,-0.002240751
-1.193,-0.002228489
-1.192,-0.002222358
-1.191,-0.002213162
-1.19,-0.0022009
-1.189,-0.002194769
-1.188,-0.002185572
-1.187,-0.002179441
-1.186,-0.002167179
-1.185,-0.002161048
-1.184,-0.002151852
-1.183,-0.002142655
-1.182,-0.002133459
-1.181,-0.002127328
-1.18,-0.002118132
-1.179,-0.002112001
-1.178,-0.002102804
-1.177,-0.002093608
-1.176,-0.002087477
-1.175,-0.00207828
-1.174,-0.002069084
-1.173,-0.002062953
-1.172,-0.002056822
-1.171,-0.002047626
-1.17,-0.002038429
-1.169,-0.002032298
-1.168,-0.002026167
-1.167,-0.002016971
-1.166,-0.00201084
-1.165,-0.002004709
-1.164,-0.001995512
-1.163,-0.001989381
-1.162,-0.00198325
-1.161,-0.001970988
-1.16,-0.001967923
-1.159,-0.001961792
-1.158,-0.001952596
-1.157,-0.00194953
-1.156,-0.001940334
-1.155,-0.001934203
-1.154,-0.001928072
-1.153,-0.001918875
-1.152,-0.001912744
-1.151,-0.001906613
-1.15,-0.001900482
-1.149,-0.001894351
-1.148,-0.001885155
-1.147,-0.001879024
-1.146,-0.001872893
-1.145,-0.001863697
-1.144,-0.001860631
-1.143,-0.0018545
-1.142,-0.001845304
-1.141,-0.001842238
-1.14,-0.001833042
-1.139,-0.001826911
-1.138,-0.00182078
-1.137,-0.001814649
-1.136,-0.001805453
-1.135,-0.001802387
-1.134,-0.00179319
-1.133,-0.00178706
-1.132,-0.001780929
-1.131,-0.001774798
-1.13,-0.001768667
-1.129,-0.001762536
-1.128,-0.001756405
-1.127,-0.001747208
-1.126,-0.001741077
-1.125,-0.001738012
-1.124,-0.001728815
-1.123,-0.001722684
-1.122,-0.001716554
-1.121,-0.001710422
-1.12,-0.001704292
-1.119,-0.001698161
-1.118,-0.00169203
-1.117,-0.001688964
-1.116,-0.001679768
-1.115,-0.001673637
-1.114,-0.001667506
-1.113,-0.001658309
-1.112,-0.001655244
-1.111,-0.001649113
-1.11,-0.001639916
-1.109,-0.001633785
-1.108,-0.001627655
-1.107,-0.001621523
-1.106,-0.001648298
-1.105,-0.001643087
-1.104,-0.001634504
-1.103,-0.001628373
-1.102,-0.001619789
-1.101,-0.001613965
-1.100001,-0.001607528
-1.099,-0.001599251
-1.098,-0.001591281
-1.097,-0.001585763
-1.096,-0.001576566
-1.095,-0.001570435
-1.094,-0.001563385
-1.093,-0.001555414
-1.092,-0.001549896
-1.091,-0.001542233
-1.09,-0.001533343
-1.089,-0.001528745
-1.088,-0.001521694
-1.087,-0.001513111
-1.086,-0.001507286
-1.085,-0.001499622
-1.084,-0.001491652
-1.083,-0.001487667
-1.082,-0.001479697
-1.081,-0.001471727
-1.08,-0.001468355
-1.079,-0.001459465
-1.078,-0.001453027
-1.077,-0.001449042
-1.076,-0.001439846
-1.075,-0.001434021
-1.074,-0.001428503
-1.073,-0.00142084
-1.072,-0.001415015
-1.071,-0.00141103
-1.07,-0.001402753
-1.069,-0.001396929
-1.068,-0.001393557
-1.067,-0.00138436
-1.066,-0.001380682
-1.065,-0.001375777
-1.064,-0.001368726
-1.063,-0.001362902
-1.062,-0.001356771
-1.061,-0.00135156
-1.06,-0.001347575
-1.059,-0.001341137
-1.058,-0.001336232
-1.057,-0.001331021
-1.056,-0.001323664
-1.055,-0.001319985
-1.054,-0.001316307
-1.053,-0.001309256
-1.052,-0.001304964
-1.051,-0.001300673
-1.05,-0.001292396
-1.049,-0.00129117
-1.048,-0.001285345
-1.047,-0.001277375
-1.046,-0.001274616
-1.045,-0.001269711
-1.044,-0.001262661
-1.043,-0.001260208
-1.042,-0.001254997
-1.041,-0.001249173
-1.04,-0.001245494
-1.039,-0.001239057
-1.038,-0.001235684
-1.037,-0.001230473
-1.036,-0.001224036
-1.035,-0.001220664
-1.034,-0.001216678
-1.033,-0.001211467
-1.032,-0.001208402
-1.031,-0.001202271
-1.03,-0.001196446
-1.029,-0.001193994
-1.028,-0.00118633
-1.027,-0.001182345
-1.026,-0.001179586
-1.025,-0.001172229
-1.024,-0.001167937
-1.023,-0.001164565
-1.022,-0.001157821
-1.021,-0.001155675
-1.02,-0.001150158
-1.019,-0.00114372
-1.018,-0.001142187
-1.017,-0.001136363
-1.016,-0.001130538
-1.015,-0.001128393
-1.014,-0.001120729
-1.013,-0.001116744
-1.012,-0.001114904
-1.011,-0.00110816
-1.01,-0.001103256
-1.009,-0.00110111
-1.008,-0.001093446
-1.007,-0.001091913
-1.006,-0.001087315
-1.005,-0.001080878
-1.004,-0.001077812
-1.003,-0.001073827
-1.002,-0.001067083
-1.001,-0.001064324
-1,-0.001059726
-0.9990004,-0.001055128
-0.9980004,-0.001050529
-0.9970005,-0.001046238
-0.9960005,-0.00104072
-0.9950004,-0.001037041
-0.9940004,-0.001032136
-0.9930004,-0.001028764
-0.9920005,-0.00102386
-0.9910004,-0.001017729
-0.9900004,-0.001014663
-0.9890004,-0.001010371
-0.9880005,-0.001003934
-0.9870005,-0.001000255
-0.9860004,-0.0009941244
-0.9850004,-0.0009907524
-0.9840004,-0.0009876869
-0.9830005,-0.0009818624
-0.9820005,-0.0009763446
-0.9810004,-0.0009735856
-0.9800004,-0.0009671481
-0.9790004,-0.0009616303
-0.9780005,-0.0009585648
-0.9770004,-0.0009524338
-0.9760004,-0.000947529
-0.9750004,-0.000944157
-0.9740005,-0.0009380261
-0.9730005,-0.0009325081
-0.9720004,-0.0009285231
-0.9710004,-0.0009239248
-0.9700004,-0.0009177938
-0.9690005,-0.0009138088
-0.9680004,-0.0009085974
-0.9670004,-0.0009033861
-0.9660004,-0.0008990944
-0.9650005,-0.0008935765
-0.9640005,-0.0008880587
-0.9630004,-0.0008843801
-0.9620004,-0.0008785557
-0.9610004,-0.0008736509
-0.9600005,-0.0008696658
-0.9590005,-0.0008635348
-0.9580004,-0.0008583235
-0.9570004,-0.000855258
-0.9560004,-0.0008472878
-0.9550005,-0.0008433026
-0.9540004,-0.0008405437
-0.9530004,-0.0008319604
-0.9520004,-0.0008304276
-0.9510005,-0.0008249097
-0.9500005,-0.0008181657
-0.9490004,-0.0008151002
-0.9480004,-0.0008086627
-0.9470004,-0.0008025317
-0.9460005,-0.0007994662
-0.9450005,-0.0007930287
-0.9440004,-0.0007878174
-0.9430004,-0.0007847519
-0.9420004,-0.0007780078
-0.9410005,-0.0007727966
-0.9400004,-0.000769731
-0.9390004,-0.0007617608
-0.9380004,-0.0007583887
-0.9370005,-0.0007525643
-0.9360005,-0.0007458202
-0.9350004,-0.0007418352
-0.9340004,-0.0007372369
-0.9330004,-0.0007317191
-0.9320005,-0.0007265077
-0.9310004,-0.0007228291
-0.9300004,-0.000715472
-0.9290004,-0.0007102606
-0.9280005,-0.0007062756
-0.9270005,-0.0006989184
-0.9260004,-0.0006949333
-0.9250004,-0.0006894154
-0.9240004,-0.0006829779
-0.9230005,-0.0006796059
-0.9220005,-0.0006722487
-0.9210004,-0.0006676505
-0.9200004,-0.0006639719
-0.9190004,-0.0006569213
-0.9180005,-0.000652323
-0.9170004,-0.0006480314
-0.9160004,-0.0006400611
-0.9150004,-0.0006354629
-0.9140005,-0.0006317843
-0.9130005,-0.0006238141
-0.9120004,-0.0006189093
-0.9110004,-0.0006146176
-0.9100004,-0.0006069539
-0.9090005,-0.0006026622
-0.9080005,-0.000598064
-0.9070004,-0.0005904003
-0.9060004,-0.0005861087
-0.9050004,-0.0005802842
-0.9040005,-0.0005744598
-0.9030004,-0.0005701681
-0.9020004,-0.000562811
-0.9010004,-0.0005582127
-0.9000005,-0.0005520818
-0.8990005,-0.0005453377
-0.8980004,-0.0005404329
-0.8970004,-0.0005346085
-0.8960004,-0.0005284776
-0.8950005,-0.0005241859
-0.8940005,-0.0005180549
-0.8930004,-0.0005119239
-0.8920004,-0.0005070192
-0.8910004,-0.0005008882
-0.8900005,-0.0004956769
-0.8890004,-0.0004895459
-0.8880004,-0.0004828018
-0.8870004,-0.0004769774
-0.8860005,-0.0004723792
-0.8850005,-0.0004659417
-0.8840004,-0.0004601173
-0.8830004,-0.0004542929
-0.8820004,-0.0004481619
-0.8810005,-0.0004420309
-0.8800004,-0.0004368196
-0.8790004,-0.0004300755
-0.8780004,-0.0004251708
-0.8770005,-0.0004193464
-0.8760005,-0.000410763
-0.8750004,-0.0004070844
-0.8740004,-0.0004009535
-0.8730004,-0.0003929832
-0.8720005,-0.0003889981
-0.8710005,-0.000382254
-0.8700004,-0.0003758165
-0.8690004,-0.0003715248
-0.8680004,-0.0003629415
-0.8670005,-0.0003574236
-0.8660004,-0.0003525188
-0.8650004,-0.000344242
-0.8640004,-0.0003393373
-0.8630005,-0.0003338194
-0.8620005,-0.0003261557
-0.8610004,-0.0003221706
-0.8600004,-0.0003148134
-0.8590004,-0.0003077628
-0.8580005,-0.0003034711
-0.8570005,-0.0002964205
-0.8560004,-0.0002893699
-0.8550004,-0.0002850782
-0.8540004,-0.0002783342
-0.8530005,-0.000270977
-0.8520004,-0.0002654591
-0.8510004,-0.0002574889
-0.8500004,-0.0002522776
-0.8490005,-0.0002470662
-0.8480005,-0.0002394025
-0.8470004,-0.0002332716
-0.8460004,-0.0002286733
-0.8450004,-0.00022009
-0.8440005,-0.0002148787
-0.8430004,-0.0002090542
-0.8420004,-0.0002013905
-0.8410004,-0.0001955661
-0.8400005,-0.0001897417
-0.8390005,-0.0001808518
-0.8380004,-0.0001762536
-0.8370004,-0.0001701226
-0.8360004,-0.0001615393
-0.8350005,-0.0001566345
-0.8340005,-0.0001511166
-0.8330004,-0.0001448429
-0.8320004,-0.0001397235
-0.8310004,-0.0001326423
-0.8300005,-0.0001249786
-0.8290004,-0.0001205336
-0.8280004,-0.0001124101
-0.8270004,-0.0001058193
-0.8260005,-0.0001002708
-0.8250005,-9.174873E-05
-0.8240004,-8.55871E-05
-0.8230004,-7.942548E-05
-0.8220004,-7.166981E-05
-0.8210005,-6.627457E-05
-0.8200005,-5.873348E-05
-0.8190004,-4.993554E-05
-0.8180004,-4.536797E-05
-0.8170004,-3.78882E-05
-0.8160005,-3.0623E-05
-0.8150004,-2.430811E-05
-0.8140004,-1.799321E-05
-0.8130004,-9.992305E-06
-0.8120005,-3.125625E-06
-0.8110005,2.821411E-06
-0.8100004,1.027053E-05
-0.8090004,1.658543E-05
-0.8080004,2.378931E-05
-0.8070005,3.096254E-05
-0.8060004,3.663368E-05
-0.8050004,4.512507E-05
-0.8040004,5.147062E-05
-0.8030005,5.772421E-05
-0.8020005,6.538791E-05
-0.8010004,7.179477E-05
-0.8000004,3.154498E-05
-0.8009996,-1.983251E-05
-0.8019996,-5.554538E-05
-0.8029996,-8.580169E-05
-0.8039996,-0.0001101416
-0.8049996,-0.0001336845
-0.8059996,-0.0001558786
-0.8069996,-0.0001759882
-0.8079996,-0.0001947183
-0.8089996,-0.0002143987
-0.8099996,-0.0002296341
-0.8109996,-0.0002478124
-0.8119996,-0.0002647645
-0.8129996,-0.0002787125
-0.8139996,-0.0002946837
-0.8149996,-0.0003059235
-0.8159996,-0.0003178789
-0.8169996,-0.0003332063
-0.8179996,-0.0003463879
-0.8189996,-0.0003592629
-0.8199996,-0.0003733641
-0.8209996,-0.0003847064
-0.8219996,-0.000394516
-0.8229996,-0.0004095368
-0.8239996,-0.0004184267
-0.8249996,-0.0004300755
-0.8259996,-0.000442644
-0.8269996,-0.0004515339
-0.8279996,-0.0004625697
-0.8289996,-0.000473912
-0.8299996,-0.0004828018
-0.8309996,-0.0004938376
-0.8319996,-0.0005045668
-0.8329996,-0.0005119239
-0.8339996,-0.0005235728
-0.8349996,-0.0005324627
-0.8359996,-0.0005398199
-0.8369996,-0.0005508556
-0.8379996,-0.0005606651
-0.8389996,-0.0005683288
-0.8399996,-0.000579058
-0.8409996,-0.0005870283
-0.8419996,-0.0005959182
-0.8429996,-0.0006051146
-0.8439996,-0.0006130849
-0.8449996,-0.0006210551
-0.8459996,-0.0006308646
-0.8469996,-0.0006388349
-0.8479996,-0.0006461921
-0.8489996,-0.0006556951
-0.8499996,-0.0006615195
-0.8509996,-0.0006719421
-0.8519996,-0.0006808321
-0.8529996,-0.0006872696
-0.8539996,-0.0006949333
-0.8549996,-0.0007035166
-0.8559996,-0.0007096475
-0.8569996,-0.0007185375
-0.8579996,-0.0007262012
-0.8589996,-0.0007329452
-0.8599996,-0.0007427548
-0.8609996,-0.0007498054
-0.8619996,-0.0007547102
-0.8629996,-0.0007636001
-0.8639996,-0.0007703441
-0.8649996,-0.0007773947
-0.8659996,-0.000785365
-0.8669996,-0.0007924156
-0.8679996,-0.0007985466
-0.8689996,-0.0008059037
-0.8699996,-0.000813874
-0.8709996,-0.0008196984
-0.8719996,-0.0008261359
-0.8729996,-0.0008344128
-0.8739996,-0.0008402371
-0.8749996,-0.0008469812
-0.8759996,-0.0008546449
-0.8769996,-0.0008604693
-0.8779996,-0.0008669068
-0.8789996,-0.0008751836
-0.8799996,-0.0008797819
-0.8809996,-0.0008868325
-0.8819996,-0.0008938831
-0.8829996,-0.0008997075
-0.8839996,-0.0009067581
-0.8849996,-0.0009138088
-0.8859996,-0.0009174873
-0.8869996,-0.0009269903
-0.8879996,-0.0009312819
-0.8889996,-0.0009364933
-0.8899996,-0.0009444635
-0.8909996,-0.0009499814
-0.8919996,-0.0009551927
-0.8929996,-0.0009628565
-0.8939996,-0.0009683743
-0.8949996,-0.0009732791
-0.8959996,-0.0009797165
-0.8969996,-0.0009864607
-0.8979996,-0.0009916719
-0.8989996,-0.0009971899
-0.8999996,-0.001003934
-0.9009996,-0.001009758
-0.9019996,-0.001015889
-0.9029996,-0.001020794
-0.9039996,-0.001026005
-0.9049996,-0.001033669
-0.9059996,-0.001036735
-0.9069996,-0.001043172
-0.9079996,-0.001050836
-0.9089996,-0.001053901
-0.9099996,-0.001059726
-0.9109996,-0.001066776
-0.9119996,-0.001069535
-0.9129996,-0.001076586
-0.9139996,-0.001082717
-0.9149996,-0.001085169
-0.9159996,-0.001092526
-0.9169996,-0.001098964
-0.9179996,-0.001102336
-0.9189996,-0.001109387
-0.9199996,-0.001113985
-0.9209996,-0.001117663
-0.9219996,-0.00112594
-0.9229996,-0.001130538
-0.9239996,-0.001133604
-0.9249996,-0.001140348
-0.9259996,-0.001145559
-0.9269996,-0.001149851
-0.9279996,-0.001155369
-0.9289996,-0.00116058
-0.9299996,-0.001164872
-0.9309996,-0.001169777
-0.9319996,-0.001175294
-0.9329996,-0.00117928
-0.9339996,-0.001185717
-0.9349996,-0.001190622
-0.9359996,-0.001193074
-0.9369996,-0.001201045
-0.9379996,-0.001203497
-0.9389996,-0.001208708
-0.9399996,-0.001215452
-0.9409996,-0.001218824
-0.9419996,-0.001223116
-0.9429996,-0.00122894
-0.9439996,-0.001232619
-0.9449996,-0.001236604
-0.9459996,-0.001241815
-0.9469996,-0.001247333
-0.9479996,-0.001250092
-0.9489996,-0.00125653
-0.9499996,-0.001259902
-0.9509996,-0.001264193
-0.9519996,-0.001270938
-0.9529996,-0.001273696
-0.9539996,-0.001279214
-0.9549996,-0.001284119
-0.9559996,-0.001286878
-0.9569996,-0.001292396
-0.9579996,-0.001297301
-0.9589996,-0.001300673
-0.9599996,-0.001306804
-0.9609996,-0.001310176
-0.9619996,-0.001313854
-0.9629996,-0.001319985
-0.9639996,-0.00132397
-0.9649996,-0.001326116
-0.9659996,-0.001333167
-0.9669996,-0.001337459
-0.9679996,-0.001340217
-0.9689996,-0.001346348
-0.9699996,-0.001350334
-0.9709996,-0.001353399
-0.9719996,-0.001361369
-0.9729996,-0.001363209
-0.9739996,-0.001366887
-0.9749996,-0.001373018
-0.9759996,-0.001375164
-0.9769996,-0.001380375
-0.9779996,-0.001385587
-0.9789996,-0.001388959
-0.9799996,-0.001394477
-0.9809996,-0.001400301
-0.9819996,-0.001401834
-0.9829996,-0.001407045
-0.9839996,-0.001412256
-0.9849996,-0.001413789
-0.9859996,-0.001421146
-0.9869996,-0.001425131
-0.9879996,-0.001427277
-0.9889996,-0.001435247
-0.9899996,-0.001438006
-0.9909996,-0.001443218
-0.9919996,-0.001448429
-0.9929996,-0.00145364
-0.9939996,-0.001456093
-0.9949996,-0.001461304
-0.9959996,-0.001466209
-0.9969996,-0.001468968
-0.9979996,-0.001475099
-0.9989996,-0.001480003
-0.9999996,-0.001483069
-1.001,-0.001488893
-1.002,-0.001492879
-1.003,-0.001496251
-1.004,-0.001503301
-1.005,-0.001507286
-1.006,-0.001510045
-1.007,-0.001517096
-1.008,-0.001517709
-1.009,-0.001526292
-1.01,-0.001532117
-1.011,-0.001534569
-1.012,-0.00153978
-1.013,-0.001546831
-1.014,-0.001547444
-1.015,-0.001553575
-1.016,-0.001559706
-1.017,-0.001563385
-1.018,-0.001569209
-1.019,-0.001573501
-1.02,-0.001578405
-1.021,-0.001583923
-1.022,-0.001588828
-1.023,-0.001591894
-1.024,-0.001598331
-1.025,-0.001601396
-1.026,-0.00160906
-1.027,-0.001613659
-1.028,-0.001617031
-1.029,-0.001621629
-1.03,-0.00162776
-1.031,-0.001631438
-1.032,-0.001636343
-1.033,-0.001642781
-1.034,-0.001647379
-1.035,-0.001651364
-1.036,-0.001658415
-1.037,-0.001662706
-1.038,-0.001665772
-1.039,-0.001673129
-1.04,-0.001677421
-1.041,-0.001680793
-1.042,-0.00168815
-1.043,-0.001693055
-1.044,-0.001696733
-1.045,-0.001703784
-1.046,-0.001708075
-1.047,-0.001711447
-1.048,-0.001717885
-1.049,-0.001722177
-1.05,-0.001728308
-1.051,-0.001734132
-1.052,-0.001735665
-1.053,-0.001742409
-1.054,-0.001747314
-1.055,-0.001751605
-1.056,-0.00175651
-1.057,-0.001763254
-1.058,-0.00176632
-1.059,-0.001771837
-1.06,-0.001777049
-1.061,-0.001782873
-1.062,-0.001786858
-1.063,-0.001793909
-1.064,-0.001797587
-1.065,-0.001801573
-1.066,-0.00180709
-1.067,-0.001810156
-1.068,-0.0018169
-1.069,-0.001823338
-1.07,-0.001825483
-1.071,-0.001831614
-1.072,-0.001838052
-1.073,-0.001840504
-1.074,-0.001845102
-1.075,-0.001852153
-1.076,-0.001858284
-1.077,-0.001859817
-1.078,-0.001868094
-1.079,-0.001869933
-1.08,-0.001876064
-1.081,-0.001881275
-1.082,-0.001883114
-1.083,-0.001890472
-1.084,-0.00189507
-1.085,-0.001899668
-1.086,-0.001907638
-1.087,-0.001910397
-1.088,-0.001915915
-1.089,-0.001923579
-1.09,-0.001925725
-1.091,-0.001934001
-1.092,-0.001940132
-1.093,-0.001942585
-1.094,-0.001952088
-1.095,-0.001957606
-1.096,-0.001960671
-1.097,-0.001970481
-1.098,-0.001975692
-1.099,-0.001979677
-1.1,-0.001988567
-1.101,-0.001992859
-1.102,-0.001997764
-1.103,-0.002006347
-1.104,-0.002010025
-1.105,-0.002017995
-1.106,-0.002025659
-1.107,-0.002028725
-1.108,-0.002036695
-1.109,-0.002045278
-1.11,-0.002049877
-1.111,-0.002056927
-1.112,-0.002063058
-1.113,-0.002071028
-1.114,-0.002078079
-1.115,-0.002084823
-1.116,-0.002090341
-1.117,-0.00210107
-1.118,-0.002105362
-1.119,-0.002111799
-1.12,-0.002120383
-1.121,-0.002125901
-1.122,-0.002133258
-1.123,-0.002141534
-1.124,-0.002147052
-1.125,-0.00215257
-1.126,-0.002163913
-1.127,-0.002167284
-1.128,-0.002173109
-1.129,-0.002181386
-1.13,-0.002186597
-1.131,-0.002189969
-1.132,-0.002200085
-1.133,-0.002203151
-1.134,-0.002208975
-1.135,-0.002216945
-1.136,-0.002217252
-1.137,-0.002223996
-1.138,-0.002230434
-1.139,-0.002231047
-1.14,-0.002236871
-1.141,-0.002242082
-1.142,-0.002242389
-1.143,-0.002248826
-1.144,-0.002250972
-1.145,-0.00224852
-1.146,-0.002258636
-1.147,-0.00225741
-1.148,-0.002259556
-1.149,-0.002263541
-1.15,-0.002262928
-1.151,-0.002264767
-1.152,-0.002267832
-1.153,-0.002268752
-1.154,-0.002273044
-1.155,-0.002277029
-1.156,-0.002275496
-1.157,-0.002278255
-1.158,-0.002284386
-1.159,-0.002284693
-1.16,-0.002287451
-1.161,-0.00229021
-1.162,-0.002294809
-1.163,-0.002299407
-1.164,-0.002302472
-1.165,-0.002305231
-1.166,-0.002310136
-1.167,-0.002313508
-1.168,-0.002316573
-1.169,-0.002323011
-1.17,-0.002326383
-1.171,-0.002329755
-1.172,-0.002335886
-1.173,-0.002339871
-1.174,-0.002342324
-1.175,-0.002349068
-1.176,-0.002353973
-1.177,-0.002357038
-1.178,-0.002363476
-1.179,-0.002368993
-1.18,-0.002372672
-1.181,-0.002380336
-1.182,-0.002385241
-1.183,-0.002389532
-1.184,-0.002395357
-1.185,-0.0024021
-1.186,-0.002405779
-1.187,-0.002413749
-1.188,-0.00242172
-1.189,-0.002426011
-1.19,-0.002433368
-1.191,-0.002442258
-1.192,-0.002445324
-1.193,-0.002453294
-1.194,-0.002460651
-1.195,-0.002465556
-1.196,-0.002472606
-1.197,-0.002482723
-1.198,-0.002487934
-1.199,-0.002496517
-1.2,-0.002504794
-1.201,-0.002510925
-1.202,-0.002520122
-1.203,-0.002529625
-1.204,-0.002536982
-1.205,-0.002543419
-1.206,-0.002554761
-1.207,-0.002562425
-1.208,-0.002569476
-1.209,-0.002582045
-1.21,-0.002590015
-1.211,-0.002597678
-1.212,-0.002610553
-1.213,-0.002617604
-1.214,-0.002626494
-1.215,-0.002639676
-1.216,-0.002648565
-1.217,-0.002657149
-1.218,-0.002669104
-1.219,-0.002678914
-1.22,-0.002688417
-1.221,-0.002700985
-1.222,-0.002712021
-1.223,-0.002720604
-1.224,-0.002736238
-1.225,-0.002745741
-1.226,-0.002758616
-1.227,-0.002770572
-1.228,-0.002779768
-1.229,-0.002793869
-1.23,-0.002806438
-1.231,-0.002818086
-1.232,-0.002831575
-1.233,-0.002845369
-1.234,-0.002857938
-1.235,-0.002872346
-1.236,-0.002883994
-1.237,-0.002899628
-1.238,-0.002914343
-1.239,-0.002926911
-1.24,-0.002941319
-1.241,-0.002957873
-1.242,-0.002968908
-1.243,-0.002986995
-1.244,-0.003006001
-1.245,-0.002979532
-1.246,-0.003000991
-1.247,-0.003016318
-1.248,-0.00302858
-1.249,-0.003050038
-1.25,-0.003065366
-1.251,-0.003080693
-1.252,-0.003102152
-1.253,-0.003117479
-1.254,-0.003132806
-1.255,-0.003154265
-1.256,-0.003169592
-1.257,-0.003191051
-1.258,-0.003212509
-1.259,-0.003230902
-1.26,-0.00325236
-1.261,-0.003276884
-1.262,-0.003295277
-1.263,-0.003316735
-1.264,-0.003344325
-1.265,-0.003359652
-1.266,-0.003384176
-1.267,-0.003411765
-1.268,-0.003433224
-1.269,-0.003457748
-1.27,-0.003485337
-1.271,-0.003506796
-1.272,-0.003531319
-1.273,-0.003565039
-1.274,-0.003586498
-1.275,-0.003614087
-1.276,-0.003647808
-1.277,-0.003672331
-1.278,-0.003706052
-1.279,-0.003736707
-1.28,-0.003764296
-1.281,-0.003801082
-1.282,-0.003831736
-1.283,-0.003865457
-1.284,-0.003905308
-1.285,-0.003939028
-1.286,-0.00397888
-1.287,-0.004015665
-1.288,-0.004052451
-1.289,-0.004098434
-1.29,-0.00414135
-1.291,-0.004181202
-1.292,-0.004227184
-1.293,-0.004273166
-1.294,-0.004316083
-1.295,-0.00436513
-1.296,-0.004420309
-1.297,-0.004469357
-1.298,-0.004524535
-1.299,-0.004579714
-1.3,-0.004631828
-1.301,-0.004696202
-1.302,-0.004757512
-1.303,-0.004818822
-1.304,-0.004886262
-1.305,-0.004953703
-1.306,-0.005024209
-1.307,-0.005097781
-1.308,-0.005171353
-1.309,-0.005251055
-1.31,-0.005330757
-1.311,-0.005413526
-1.312,-0.005499359
-1.313,-0.005591323
-1.314,-0.005680223
-1.315,-0.005778318
-1.316,-0.005876414
-1.317,-0.005974509
-1.318,-0.006084866
-1.319,-0.006192158
-1.32,-0.006302515
-1.321,-0.006425134
-1.322,-0.006541623
-1.323,-0.006667308
-1.324,-0.006799124
-1.325,-0.006927874
-1.326,-0.00705969
-1.327,-0.007206833
-1.328,-0.007347845
-1.329,-0.007498054
-1.33,-0.007657459
-1.331,-0.007807667
-1.332,-0.007979334
-1.333,-0.008147935
-1.334,-0.008313472
-1.335,-0.008494335
-1.336,-0.008678264
-1.337,-0.008859128
-1.338,-0.009055318
-1.339,-0.009254575
-1.34,-0.009450765
-1.341,-0.009659219
-1.342,-0.009867672
-1.343,-0.01007919
-1.344,-0.01030297
-1.345,-0.01052982
-1.346,-0.0107536
-1.347,-0.01098964
-1.348,-0.01122875
-1.349,-0.01146785
-1.35,-0.01171922
-1.351,-0.01197672
-1.352,-0.01223116
-1.353,-0.01249786
-1.354,-0.01275842
-1.355,-0.01302818
-1.356,-0.01330408
-1.357,-0.01357997
-1.358,-0.01386506
-1.359,-0.01415322
-1.36,-0.01443524
-1.361,-0.01473566
-1.362,-0.01503301
-1.363,-0.01533343
-1.364,-0.01563998
-1.365,-0.01594346
-1.366,-0.01625614
-1.367,-0.01657801
-1.368,-0.01689376
-1.369,-0.0172095
-1.37,-0.01754057
-1.371,-0.01786858
-1.372,-0.01820272
-1.373,-0.01853686
-1.374,-0.01887713
-1.375,-0.0192082
-1.376,-0.01955153
-1.377,-0.01989486
-1.378,-0.020229
-1.379,-0.02058153
-1.38,-0.02093406
-1.381,-0.02128046
-1.382,-0.02164219
-1.383,-0.02199779
-1.384,-0.02235645
-1.385,-0.0227243
-1.386,-0.0230799
-1.387,-0.02345083
-1.388,-0.02381868
-1.389,-0.02418041
-1.39,-0.02456053
-1.391,-0.02493145
-1.392,-0.02529318
-1.393,-0.02567636
-1.394,-0.02605342
-1.395,-0.02643047
-1.396,-0.02681672
-1.397,-0.02719071
-1.398,-0.02757083
-1.399,-0.02796015
-1.4,-0.02834946
-1.401,-0.02872652
-1.402,-0.02912503
-1.403,-0.02951128
-1.404,-0.02988834
-1.405,-0.03028992
-1.406,-0.03080693
-1.407,-0.03117479
-1.408,-0.03157331
-1.409,-0.03197182
-1.41,-0.03237033
-1.411,-0.03276884
-1.412,-0.03319801
-1.413,-0.03356587
-1.414,-0.03399504
-1.415,-0.03439355
-1.416,-0.03479206
-1.417,-0.03522123
-1.418,-0.03561974
-1.419,-0.03604891
-1.42,-0.03644742
-1.421,-0.03684593
-1.422,-0.0372751
-1.423,-0.03767361
-1.424,-0.03807213
-1.425,-0.03850129
-1.426,-0.03889981
-1.427,-0.03932897
-1.428,-0.03975814
-1.429,-0.04015666
-1.43,-0.04055517
-1.431,-0.04098434
-1.432,-0.0414135
-1.433,-0.04181201
-1.434,-0.04224118
-1.435,-0.0426397
-1.436,-0.04306886
-1.437,-0.04349803
-1.438,-0.0439272
-1.439,-0.04432571
-1.44,-0.04472422
-1.441,-0.04515339
-1.442,-0.04558256
-1.443,-0.04598107
-1.444,-0.04641024
-1.445,-0.04683941
-1.446,-0.04723792
-1.447,-0.04766709
-1.448,-0.04809625
-1.449,-0.04852542
-1.45,-0.04895459
-1.451,-0.04938376
-1.452,-0.04981292
-1.453,-0.05021144
-1.454,-0.05067126
-1.455,-0.05110043
-1.456,-0.05149894
-1.457,-0.05192811
-1.458,-0.05235728
-1.459,-0.05278645
-1.46,-0.05321561
-1.461,-0.05364478
-1.462,-0.05407395
-1.463,-0.05450311
-1.464,-0.05493228
-1.465,-0.05536145
-1.466,-0.05579061
-1.467,-0.05621978
-1.468,-0.05664895
-1.469,-0.05707812
-1.47,-0.05750729
-1.471,-0.05796711
-1.472,-0.05839628
-1.473,-0.05882544
-1.474,-0.05925461
-1.475,-0.05968378
-1.476,-0.06011295
-1.477,-0.06054211
-1.478,-0.06097129
-1.479,-0.06140045
-1.48,-0.06182962
-1.481,-0.06225879
-1.482,-0.06268796
-1.483,-0.06314778
-1.484,-0.06354629
-1.485,-0.06400611
-1.486,-0.06443528
-1.487,-0.06486445
-1.488,-0.06529361
-1.489,-0.06575344
-1.49,-0.06618261
-1.491,-0.06661177
-1.492,-0.06704094
-1.493,-0.0674701
-1.494,-0.06789928
-1.495,-0.06832844
-1.496,-0.06878826
-1.497,-0.06918678
-1.498,-0.0696466
-1.499,-0.07007577
-1.5,-0.07022905
-1.499001,-0.06983053
-1.498001,-0.06946267
-1.497001,-0.06906416
-1.496001,-0.06866565
-1.495001,-0.06823648
-1.494001,-0.06786862
-1.493001,-0.06743945
-1.492001,-0.06701028
-1.491001,-0.06661177
-1.490001,-0.06618261
-1.489001,-0.06578409
-1.488001,-0.06538557
-1.487001,-0.06495641
-1.486001,-0.06458855
-1.485001,-0.06412873
-1.484001,-0.06369957
-1.483001,-0.06330105
-1.482001,-0.06284123
-1.481001,-0.06244272
-1.480001,-0.06201354
-1.479001,-0.06158438
-1.478001,-0.06115521
-1.477001,-0.06072604
-1.476001,-0.06032753
-1.475001,-0.05989837
-1.474001,-0.05949985
-1.473001,-0.05907068
-1.472001,-0.05867217
-1.471001,-0.05821235
-1.470001,-0.05781383
-1.469001,-0.05741533
-1.468001,-0.05698615
-1.467001,-0.05658764
-1.466001,-0.05615847
-1.465001,-0.05575996
-1.464001,-0.05533079
-1.463001,-0.05490163
-1.462001,-0.05450311
-1.461001,-0.0541046
-1.460001,-0.05367543
-1.459001,-0.05327692
-1.458001,-0.05284775
-1.457001,-0.05244924
-1.456001,-0.05202007
-1.455001,-0.05162156
-1.454001,-0.05122305
-1.453001,-0.05079388
-1.452001,-0.05039537
-1.451001,-0.0499662
-1.450001,-0.04956769
-1.449001,-0.04916918
-1.448001,-0.04877066
-1.447001,-0.04834149
-1.446001,-0.04791233
-1.445001,-0.04754447
-1.444001,-0.0471153
-1.443001,-0.04671679
-1.442001,-0.04631827
-1.441001,-0.04591976
-1.440001,-0.04552125
-1.439001,-0.04512274
-1.438001,-0.04469357
-1.437001,-0.04432571
-1.436001,-0.0439272
-1.435001,-0.04352869
-1.434001,-0.04313017
-1.433001,-0.04273166
-1.432001,-0.04233315
-1.431001,-0.04193464
-1.430001,-0.04153612
-1.429001,-0.04116827
-1.428001,-0.0407391
-1.427001,-0.04037124
-1.426001,-0.03997273
-1.425001,-0.03957421
-1.424001,-0.0391757
-1.423001,-0.03880784
-1.422001,-0.03840933
-1.421001,-0.03804147
-1.420001,-0.03764296
-1.419001,-0.0372751
-1.418001,-0.03687659
-1.417001,-0.03650873
-1.416001,-0.03611022
-1.415001,-0.03574236
-1.414001,-0.03534385
-1.413001,-0.03497599
-1.412001,-0.03460813
-1.411001,-0.03424027
-1.410001,-0.03384176
-1.409001,-0.03347391
-1.408001,-0.03310604
-1.407001,-0.03273819
-1.406001,-0.03237033
-1.405001,-0.03200247
-1.404001,-0.03163461
-1.403001,-0.03126676
-1.402001,-0.0308989
-1.401001,-0.03053104
-1.400001,-0.03019384
-1.399001,-0.02982598
-1.398001,-0.02945812
-1.397001,-0.02912092
-1.396001,-0.02875306
-1.395001,-0.0283852
-1.394001,-0.028048
-1.393001,-0.02768014
-1.392001,-0.02734294
-1.391001,-0.02700574
-1.390001,-0.02663788
-1.389001,-0.02630067
-1.388001,-0.02596347
-1.387001,-0.02562627
-1.386001,-0.02528906
-1.385001,-0.02492121
-1.384001,-0.02461466
-1.383001,-0.02427745
-1.382001,-0.02394025
-1.381001,-0.02360305
-1.380001,-0.02326585
-1.379001,-0.02292864
-1.378001,-0.02262209
-1.377001,-0.02228489
-1.376001,-0.02197834
-1.375001,-0.02164114
-1.374001,-0.02133459
-1.373001,-0.02102804
-1.372001,-0.0207215
-1.371001,-0.02041495
-1.370001,-0.0201084
-1.369001,-0.0197712
-1.368001,-0.0194953
-1.367001,-0.01918875
-1.366001,-0.01888221
-1.365001,-0.01857566
-1.364001,-0.01829976
-1.363001,-0.01799322
-1.362001,-0.01771732
-1.361001,-0.01741077
-1.360001,-0.01713488
-1.359001,-0.01682833
-1.358001,-0.01655244
-1.357001,-0.0163072
-1.356001,-0.01600065
-1.355001,-0.01584843
-1.354001,-0.0155848
-1.353001,-0.01532117
-1.352001,-0.0150606
-1.351001,-0.01480003
-1.350001,-0.01453947
-1.349001,-0.01429423
-1.348001,-0.01405206
-1.347001,-0.01380375
-1.346001,-0.01356158
-1.345001,-0.01332247
-1.344001,-0.01307723
-1.343001,-0.01284732
-1.342001,-0.01261434
-1.341001,-0.01238443
-1.340001,-0.01216065
-1.339001,-0.01194913
-1.338001,-0.01172842
-1.337001,-0.01151384
-1.336001,-0.01129925
-1.335001,-0.01108773
-1.334001,-0.01088235
-1.333001,-0.01068309
-1.332001,-0.01048383
-1.331001,-0.01028764
-1.330001,-0.01009452
-1.329001,-0.009904457
-1.328001,-0.009723594
-1.327001,-0.0095366
-1.326001,-0.009358802
-1.325001,-0.009177938
-1.324001,-0.009006271
-1.323001,-0.0088438
-1.322001,-0.008675199
-1.321001,-0.008512728
-1.320001,-0.008359454
-1.319001,-0.008196983
-1.318001,-0.008046775
-1.317001,-0.007896566
-1.316001,-0.007746358
-1.315001,-0.007605345
-1.314001,-0.007470464
-1.313001,-0.007332517
-1.312001,-0.007194571
-1.311001,-0.007065821
-1.310001,-0.00693707
-1.309001,-0.006814451
-1.308001,-0.006694897
-1.307001,-0.006572278
-1.306001,-0.006458855
-1.305001,-0.006345432
-1.304001,-0.006232009
-1.303001,-0.006127783
-1.302001,-0.006020491
-1.301001,-0.00591933
-1.300001,-0.0058243
-1.299001,-0.005726204
-1.298001,-0.005631175
-1.297001,-0.005542276
-1.296001,-0.005450311
-1.295001,-0.005367543
-1.294001,-0.005284776
-1.293001,-0.005198942
-1.292001,-0.005122304
-1.291001,-0.005045668
-1.290001,-0.004965965
-1.289001,-0.004898524
-1.288001,-0.004824953
-1.287001,-0.004754446
-1.286001,-0.004690072
-1.285001,-0.004628762
-1.284001,-0.004561321
-1.283001,-0.004506143
-1.282001,-0.004447898
-1.281001,-0.004386589
-1.280001,-0.00433141
-1.279001,-0.004279297
-1.278001,-0.004224118
-1.277001,-0.00417507
-1.276001,-0.004126023
-1.275001,-0.004073909
-1.274001,-0.004030993
-1.273001,-0.003981945
-1.272001,-0.003939028
-1.271001,-0.003896111
-1.270001,-0.003853195
-1.269001,-0.003813344
-1.268001,-0.003773492
-1.267001,-0.003736707
-1.266001,-0.003696855
-1.265001,-0.003663135
-1.264001,-0.003626349
-1.263001,-0.003589563
-1.262001,-0.003558908
-1.261001,-0.003525188
-1.260001,-0.003491468
-1.259001,-0.003460813
-1.258001,-0.003430158
-1.257001,-0.003399503
-1.256001,-0.003371914
-1.255001,-0.003341259
-1.254001,-0.003316735
-1.253001,-0.003292212
-1.252001,-0.003258491
-1.251001,-0.003233967
-1.250001,-0.003212509
-1.249001,-0.003181854
-1.248001,-0.003160396
-1.247001,-0.003135872
-1.246001,-0.003111348
-1.245001,-0.003089889
-1.244001,-0.003068431
-1.243001,-0.003046973
-1.242001,-0.003022449
-1.241001,-0.003000991
-1.240001,-0.002985663
-1.239001,-0.002961139
-1.238001,-0.002942747
-1.237001,-0.002924354
-1.236001,-0.00289983
-1.235001,-0.002884502
-1.234001,-0.00286611
-1.233001,-0.002847716
-1.232001,-0.002832389
-1.231001,-0.002810931
-1.230001,-0.002795603
-1.229001,-0.00277721
-1.228001,-0.002758818
-1.227001,-0.00274349
-1.226001,-0.002728163
-1.225001,-0.00270977
-1.224001,-0.002691377
-1.223001,-0.00268218
-1.222001,-0.002660722
-1.221001,-0.00264846
-1.220001,-0.002636198
-1.219001,-0.002617805
-1.218001,-0.002605543
-1.217001,-0.002590216
-1.216001,-0.002574889
-1.215001,-0.002562626
-1.214001,-0.002547299
-1.213001,-0.002531972
-1.212001,-0.00251971
-1.211001,-0.002507448
-1.210001,-0.00249212
-1.209001,-0.002479859
-1.208001,-0.002467597
-1.207001,-0.002455335
-1.206001,-0.002443073
-1.205001,-0.002430811
-1.204001,-0.002418549
-1.203001,-0.002406287
-1.202001,-0.002394025
-1.201001,-0.002381763
-1.200001,-0.002372567
-1.199001,-0.002357239
-1.198001,-0.002348043
-1.197001,-0.002335781
-1.196001,-0.002326585
-1.195001,-0.002317388
-1.194001,-0.002305126
-1.193001,-0.002292864
-1.192001,-0.002283668
-1.191001,-0.002271406
-1.190001,-0.002259144
-1.189001,-0.002253013
-1.188001,-0.002240751
-1.187001,-0.002231555
-1.186001,-0.002222358
-1.185001,-0.002213162
-1.184001,-0.0022009
-1.183001,-0.002191703
-1.182001,-0.002182507
-1.181001,-0.00217331
-1.180001,-0.002164114
-1.179001,-0.002154917
-1.178001,-0.002145721
-1.177001,-0.002136525
-1.176001,-0.002127328
-1.175001,-0.002118132
-1.174001,-0.002108935
-1.173001,-0.002099739
-1.172001,-0.002090542
-1.171001,-0.002084411
-1.170001,-0.002075215
-1.169001,-0.002066019
-1.168001,-0.002059887
-1.167001,-0.002050691
-1.166001,-0.002041495
-1.165001,-0.002032298
-1.164001,-0.002023102
-1.163001,-0.002016971
-1.162001,-0.002007774
-1.161001,-0.001998578
-1.160001,-0.001992447
-1.159001,-0.001986316
-1.158001,-0.001974054
-1.157001,-0.001970988
-1.156001,-0.001958727
-1.155001,-0.001952596
-1.154001,-0.001946465
-1.153001,-0.001937268
-1.152001,-0.001928072
-1.151001,-0.001921941
-1.150001,-0.00191581
-1.149001,-0.001906613
-1.148001,-0.001900482
-1.147001,-0.001894351
-1.146001,-0.001885155
-1.145001,-0.001879024
-1.144001,-0.001869828
-1.143001,-0.001863697
-1.142001,-0.001857566
-1.141001,-0.001848369
-1.140001,-0.001842238
-1.139001,-0.001836107
-1.138001,-0.001823845
-1.137001,-0.001817714
-1.136001,-0.001814649
-1.135001,-0.001805453
-1.134001,-0.001799321
-1.133001,-0.00179319
-1.132001,-0.001783994
-1.131001,-0.001777863
-1.130001,-0.001771732
-1.129001,-0.001762536
-1.128001,-0.00175947
-1.127001,-0.001753339
-1.126001,-0.001741077
-1.125001,-0.001738012
-1.124001,-0.001731881
-1.123001,-0.001722684
-1.122001,-0.001716554
-1.121001,-0.001710422
-1.120001,-0.001704292
-1.119001,-0.001698161
-1.118001,-0.001688964
-1.117001,-0.001685899
-1.116001,-0.001679768
-1.115001,-0.001670571
-1.114001,-0.001661375
-1.113001,-0.001658309
-1.112001,-0.001649113
-1.111001,-0.001642982
-1.110001,-0.001636851
-1.109001,-0.001627655
-1.108001,-0.001621523
-1.107001,-0.001618458
-1.106001,-0.001640941
-1.105001,-0.001636343
-1.104001,-0.001629906
-1.103001,-0.001620403
-1.102001,-0.001613352
-1.101001,-0.001607221
-1.100001,-0.001598638
-1.099001,-0.001590361
-1.098001,-0.001585149
-1.097001,-0.001575953
-1.096001,-0.001568289
-1.095001,-0.001562158
-1.094001,-0.001552042
-1.093001,-0.001545911
-1.092001,-0.001539474
-1.091001,-0.001529358
-1.090001,-0.001522307
-1.089001,-0.001515256
-1.088001,-0.001506367
-1.087001,-0.001498703
-1.086001,-0.001494718
-1.085001,-0.001484295
-1.084001,-0.001476631
-1.083001,-0.00147142
-1.082001,-0.00146253
-1.081001,-0.001454866
-1.080001,-0.001449655
-1.079001,-0.001440765
-1.078001,-0.001433102
-1.077001,-0.001428197
-1.076001,-0.001419307
-1.075001,-0.001412563
-1.074001,-0.001407658
-1.073001,-0.001399075
-1.072001,-0.001392637
-1.071001,-0.001388345
-1.070001,-0.001379762
-1.069001,-0.001373325
-1.068001,-0.001368113
-1.067001,-0.00135861
-1.066001,-0.001357078
-1.065001,-0.00135064
-1.064001,-0.001340524
-1.063001,-0.001337152
-1.062001,-0.001331634
-1.061001,-0.001323664
-1.060001,-0.001319679
-1.059001,-0.001314161
-1.058001,-0.001305577
-1.057001,-0.001301592
-1.056001,-0.001297301
-1.055001,-0.001288104
-1.054001,-0.001285345
-1.053001,-0.00128228
-1.052001,-0.001271551
-1.051001,-0.001270631
-1.050001,-0.001265113
-1.049001,-0.001256836
-1.048001,-0.001254077
-1.047001,-0.001248253
-1.046001,-0.001241202
-1.045001,-0.00123967
-1.044001,-0.001231699
-1.043001,-0.001228021
-1.042001,-0.001224036
-1.041001,-0.001216678
-1.040001,-0.001213613
-1.039001,-0.001210241
-1.038001,-0.001201658
-1.037001,-0.001197673
-1.036001,-0.001193381
-1.035001,-0.001186943
-1.034001,-0.001183571
-1.033001,-0.001179586
-1.032001,-0.001172536
-1.031001,-0.001168857
-1.030001,-0.001164565
-1.029001,-0.001158434
-1.028001,-0.001154756
-1.027001,-0.001149851
-1.026001,-0.001144333
-1.025001,-0.001139428
-1.024001,-0.001135443
-1.023001,-0.001129925
-1.022001,-0.001125634
-1.021001,-0.001121035
-1.020001,-0.001113985
-1.019001,-0.001111532
-1.018001,-0.001106934
-1.017001,-0.001100497
-1.016001,-0.001098657
-1.015001,-0.001091607
-1.014001,-0.001087622
-1.013001,-0.001084556
-1.012001,-0.001076892
-1.011001,-0.00107444
-1.010001,-0.001071068
-1.009001,-0.001062485
-1.008001,-0.001060645
-1.007001,-0.001057273
-1.006001,-0.001050223
-1.005001,-0.001046851
-1.004001,-0.001041026
-1.003001,-0.001034895
-1.002001,-0.001033056
-1.001001,-0.001027538
-1.000001,-0.001022327
-0.9990007,-0.001019261
-0.9980007,-0.001013437
-0.9970006,-0.001008226
-0.9960006,-0.001003627
-0.9950007,-0.0009987226
-0.9940007,-0.0009947375
-0.9930006,-0.0009907524
-0.9920006,-0.0009852345
-0.9910007,-0.0009806362
-0.9900007,-0.000976038
-0.9890007,-0.0009711333
-0.9880006,-0.0009656154
-0.9870006,-0.0009622434
-0.9860007,-0.000957032
-0.9850007,-0.0009527404
-0.9840007,-0.0009481421
-0.9830006,-0.000940785
-0.9820006,-0.0009380261
-0.9810007,-0.0009334278
-0.9800007,-0.0009263772
-0.9790006,-0.0009239248
-0.9780006,-0.00091902
-0.9770007,-0.0009131957
-0.9760007,-0.0009101302
-0.9750007,-0.0009046123
-0.9740006,-0.0008981748
-0.9730006,-0.0008960289
-0.9720007,-0.0008902045
-0.9710007,-0.0008846867
-0.9700007,-0.0008816211
-0.9690006,-0.0008767164
-0.9680007,-0.000870892
-0.9670007,-0.0008659872
-0.9660007,-0.000861389
-0.9650006,-0.0008561776
-0.9640006,-0.0008515794
-0.9630007,-0.0008463681
-0.9620007,-0.0008429961
-0.9610007,-0.0008365586
-0.9600006,-0.0008316538
-0.9590006,-0.0008273621
-0.9580007,-0.0008221508
-0.9570007,-0.0008166329
-0.9560006,-0.0008129543
-0.9550006,-0.0008083562
-0.9540007,-0.0008031448
-0.9530007,-0.0007991597
-0.9520007,-0.0007930287
-0.9510006,-0.0007884305
-0.9500006,-0.0007835258
-0.9490007,-0.0007773947
-0.9480007,-0.0007727966
-0.9470007,-0.000769731
-0.9460006,-0.000762987
-0.9450006,-0.0007583887
-0.9440007,-0.0007547102
-0.9430007,-0.0007485792
-0.9420006,-0.0007430614
-0.9410006,-0.0007396893
-0.9400007,-0.0007329452
-0.9390007,-0.0007289601
-0.9380007,-0.000724975
-0.9370006,-0.000718231
-0.9360006,-0.0007148589
-0.9350007,-0.000709341
-0.9340007,-0.0007029035
-0.9330007,-0.0006989184
-0.9320006,-0.0006924809
-0.9310006,-0.0006884958
-0.9300007,-0.0006832844
-0.9290007,-0.0006768469
-0.9280006,-0.0006725552
-0.9270006,-0.0006670374
-0.9260007,-0.0006618261
-0.9250007,-0.0006563082
-0.9240007,-0.0006510969
-0.9230006,-0.0006458855
-0.9220006,-0.0006400611
-0.9210007,-0.0006363826
-0.9200007,-0.0006287188
-0.9190007,-0.0006253468
-0.9180006,-0.0006198289
-0.9170007,-0.0006133915
-0.9160007,-0.0006084866
-0.9150007,-0.0006032753
-0.9140006,-0.0005962247
-0.9130006,-0.0005922396
-0.9120007,-0.0005876414
-0.9110007,-0.0005799776
-0.9100007,-0.0005750729
-0.9090006,-0.0005713943
-0.9080006,-0.0005625045
-0.9070007,-0.000560052
-0.9060007,-0.0005542276
-0.9050006,-0.0005474835
-0.9040006,-0.0005431919
-0.9030007,-0.0005364478
-0.9020007,-0.0005306234
-0.9010007,-0.0005260251
-0.9000006,-0.0005198942
-0.8990006,-0.0005152959
-0.8980007,-0.0005103912
-0.8970007,-0.0005021144
-0.8960007,-0.0004978227
-0.8950006,-0.0004923049
-0.8940006,-0.0004858673
-0.8930007,-0.000480656
-0.8920007,-0.0004745251
-0.8910006,-0.0004680876
-0.8900006,-0.0004625697
-0.8890007,-0.0004570518
-0.8880007,-0.0004503077
-0.8870007,-0.0004447899
-0.8860006,-0.000439272
-0.8850006,-0.000433141
-0.8840007,-0.0004270101
-0.8830007,-0.0004211857
-0.8820007,-0.0004147482
-0.8810006,-0.0004089237
-0.8800007,-0.0004030993
-0.8790007,-0.0003966618
-0.8780007,-0.0003911439
-0.8770006,-0.0003850129
-0.8760006,-0.0003776558
-0.8750007,-0.0003733641
-0.8740007,-0.0003672332
-0.8730007,-0.0003595694
-0.8720006,-0.0003552778
-0.8710006,-0.0003482272
-0.8700007,-0.0003411766
-0.8690007,-0.0003368849
-0.8680006,-0.0003295277
-0.8670006,-0.0003230902
-0.8660007,-0.000318492
-0.8650007,-0.0003117479
-0.8640007,-0.0003046973
-0.8630006,-0.0002997925
-0.8620006,-0.0002927419
-0.8610007,-0.0002859978
-0.8600007,-0.0002810931
-0.8590007,-0.0002737359
-0.8580006,-0.0002679115
-0.8570006,-0.0002636198
-0.8560007,-0.0002559561
-0.8550007,-0.0002510514
-0.8540006,-0.0002443073
-0.8530006,-0.0002378698
-0.8520007,-0.0002320454
-0.8510007,-0.0002256079
-0.8500007,-0.0002185573
-0.8490006,-0.0002133459
-0.8480006,-0.000207215
-0.8470007,-0.0002001643
-0.8460007,-0.0001955661
-0.8450007,-0.0001891286
-0.8440006,-0.0001808518
-0.8430007,-0.0001768667
-0.8420007,-0.0001698161
-0.8410007,-0.0001636851
-0.8400006,-0.0001584738
-0.8390006,-0.0001505035
-0.8380007,-0.0001462119
-0.8370007,-0.0001400809
-0.8360007,-0.0001334699
-0.8350006,-0.0001301592
-0.8340006,-0.0001245494
-0.8330007,-0.0001158128
-0.8320007,-0.0001122568
-0.8310006,-0.0001055434
-0.8300006,-9.778772E-05
-0.8290007,-9.423176E-05
-0.8280007,-8.708919E-05
-0.8270007,-8.040644E-05
-0.8260006,-7.56856E-05
-0.8250006,-6.820582E-05
-0.8240007,-6.287188E-05
-0.8230007,-5.717008E-05
-0.8220007,-4.962899E-05
-0.8210006,-4.524535E-05
-0.8200006,-3.853195E-05
-0.8190007,-2.988729E-05
-0.8180007,-2.617805E-05
-0.8170006,-1.955661E-05
-0.8160006,-1.173963E-05
-0.8150007,-7.080097E-06
-0.8140007,-1.041097E-06
-0.8130007,6.101478E-06
-0.8120006,1.214048E-05
-0.8110006,1.689198E-05
-0.8100007,2.519943E-05
-0.8090007,3.200481E-05
-0.8080007,3.568338E-05
-0.8070006,4.457328E-05
-0.8060006,4.935544E-05
-0.8050007,5.376973E-05
-0.8040007,6.302749E-05
-0.8030006,6.69513E-05
-0.8020006,7.305162E-05
-0.8010007,8.050074E-05
-0.8000007,3.776791E-05
-0.8009993,-1.685899E-05
-0.8019994,-5.266382E-05
-0.8029994,-8.411567E-05
-0.8039994,-0.0001112145
-0.8049994,-0.0001361063
-0.8059993,-0.0001587295
-0.8069994,-0.0001792989
-0.8079994,-0.0001994698
-0.8089994,-0.0002190582
-0.8099993,-0.0002363782
-0.8109994,-0.0002541886
-0.8119994,-0.0002717845
-0.8129994,-0.0002861616
-0.8139994,-0.0002988729
-0.8149993,-0.0003145068
-0.8159994,-0.0003258491
-0.8169994,-0.0003414831
-0.8179994,-0.0003549712
-0.8189994,-0.0003675397
-0.8199994,-0.0003816409
-0.8209994,-0.0003935963
-0.8219994,-0.0004037124
-0.8229994,-0.000416894
-0.8239993,-0.0004285428
-0.8249994,-0.0004380458
-0.8259994,-0.0004493881
-0.8269994,-0.0004601173
-0.8279994,-0.0004714596
-0.8289993,-0.0004821887
-0.8299994,-0.0004916918
-0.8309994,-0.0005015013
-0.8319994,-0.0005131501
-0.8329993,-0.000521427
-0.8339994,-0.0005312365
-0.8349994,-0.0005419657
-0.8359994,-0.0005508556
-0.8369994,-0.0005603586
-0.8379993,-0.0005692485
-0.8389994,-0.0005769122
-0.8399994,-0.0005873349
-0.8409994,-0.0005959182
-0.8419994,-0.0006029688
-0.8429993,-0.0006127784
-0.8439994,-0.0006210551
-0.8449994,-0.0006274926
-0.8459994,-0.0006373022
-0.8469993,-0.0006464986
-0.8479994,-0.000652323
-0.8489994,-0.0006624392
-0.8499994,-0.0006701029
-0.8509994,-0.0006762338
-0.8519993,-0.000686963
-0.8529994,-0.0006927875
-0.8539994,-0.0007001446
-0.8549994,-0.0007096475
-0.8559994,-0.0007157786
-0.8569994,-0.0007237488
-0.8579994,-0.0007323321
-0.8589994,-0.0007387697
-0.8599994,-0.0007458202
-0.8609993,-0.0007550167
-0.8619994,-0.0007611477
-0.8629994,-0.0007688114
-0.8639994,-0.0007770882
-0.8649994,-0.0007822995
-0.8659993,-0.0007905763
-0.8669994,-0.0007973204
-0.8679994,-0.0008022251
-0.8689994,-0.000810502
-0.8699993,-0.0008190853
-0.8709994,-0.0008242966
-0.8719994,-0.0008322669
-0.8729994,-0.0008399306
-0.8739994,-0.0008448354
-0.8749993,-0.0008515794
-0.8759994,-0.0008604693
-0.8769994,-0.0008650676
-0.8779994,-0.0008715051
-0.8789994,-0.0008800884
-0.8799993,-0.0008849932
-0.8809994,-0.0008920438
-0.8819994,-0.0008997075
-0.8829994,-0.0009046123
-0.8839993,-0.0009107432
-0.8849994,-0.0009184069
-0.8859994,-0.0009233117
-0.8869994,-0.0009300558
-0.8879994,-0.0009371064
-0.8889993,-0.0009429308
-0.8899994,-0.0009478356
-0.8909994,-0.0009561123
-0.8919994,-0.0009610172
-0.8929994,-0.0009677612
-0.8939994,-0.0009738922
-0.8949994,-0.0009778773
-0.8959994,-0.000984928
-0.8969994,-0.0009913654
-0.8979993,-0.0009959637
-0.8989994,-0.001003934
-0.8999994,-0.001009452
-0.9009994,-0.001013744
-0.9019994,-0.00102202
-0.9029993,-0.001026312
-0.9039994,-0.00103183
-0.9049994,-0.001039494
-0.9059994,-0.001045318
-0.9069993,-0.001048997
-0.9079994,-0.001056354
-0.9089994,-0.001061565
-0.9099994,-0.001065244
-0.9109994,-0.001073521
-0.9119993,-0.001077506
-0.9129994,-0.00108241
-0.9139994,-0.001089461
-0.9149994,-0.001094059
-0.9159994,-0.001098964
-0.9169993,-0.001105095
-0.9179994,-0.001109693
-0.9189994,-0.001115518
-0.9199994,-0.001121342
-0.9209993,-0.001126247
-0.9219994,-0.001131151
-0.9229994,-0.001135443
-0.9239994,-0.001141574
-0.9249994,-0.001146172
-0.9259993,-0.00115261
-0.9269994,-0.001155982
-0.9279994,-0.001161193
-0.9289994,-0.001167018
-0.9299994,-0.001171616
-0.9309993,-0.001176214
-0.9319994,-0.001181732
-0.9329994,-0.001185717
-0.9339994,-0.001190622
-0.9349993,-0.001197059
-0.9359994,-0.001201045
-0.9369994,-0.001204723
-0.9379994,-0.001211467
-0.9389994,-0.001214839
-0.9399993,-0.001219131
-0.9409994,-0.001226488
-0.9419994,-0.00122894
-0.9429994,-0.001235071
-0.9439994,-0.001241202
-0.9449994,-0.001243655
-0.9459994,-0.001249786
-0.9469994,-0.001254997
-0.9479994,-0.00125745
-0.9489993,-0.001264193
-0.9499994,-0.001268485
-0.9509994,-0.001271857
-0.9519994,-0.001277682
-0.9529994,-0.001281973
-0.9539993,-0.001285652
-0.9549994,-0.001292089
-0.9559994,-0.001296074
-0.9569994,-0.00129914
-0.9579993,-0.001304658
-0.9589994,-0.001310482
-0.9599994,-0.001311708
-0.9609994,-0.001321211
-0.9619994,-0.00132397
-0.9629993,-0.001326729
-0.9639994,-0.0013347
-0.9649994,-0.001336232
-0.9659994,-0.001341137
-0.9669994,-0.001348188
-0.9679993,-0.001350334
-0.9689994,-0.001355238
-0.9699994,-0.001361676
-0.9709994,-0.001363822
-0.9719993,-0.001368726
-0.9729994,-0.00137547
-0.9739994,-0.001378229
-0.9749994,-0.001382215
-0.9759994,-0.001387732
-0.9769993,-0.001392331
-0.9779994,-0.001396929
-0.9789994,-0.001401527
-0.9799994,-0.001405206
-0.9809994,-0.00141195
-0.9819994,-0.001415322
-0.9829994,-0.001419613
-0.9839994,-0.001425438
-0.9849994,-0.001429116
-0.9859993,-0.001434328
-0.9869994,-0.001440152
-0.9879994,-0.001443831
-0.9889994,-0.001447509
-0.9899994,-0.00145456
-0.9909993,-0.001458239
-0.9919994,-0.00146253
-0.9929994,-0.001467129
-0.9939994,-0.001473259
-0.9949993,-0.001476325
-0.9959994,-0.001482762
-0.9969994,-0.001483989
-0.9979994,-0.0014892
-0.9989994,-0.00149717
-0.9999993,-0.001498396
-1.000999,-0.001505447
-1.001999,-0.001513111
-1.002999,-0.001513417
-1.003999,-0.001520774
-1.004999,-0.001526292
-1.005999,-0.001528745
-1.006999,-0.001534876
-1.007999,-0.00154162
-1.008999,-0.001543766
-1.009999,-0.001550203
-1.010999,-0.001556641
-1.011999,-0.001559706
-1.012999,-0.00156553
-1.013999,-0.001571355
-1.014999,-0.001573807
-1.015999,-0.001580858
-1.016999,-0.001586989
-1.017999,-0.001590361
-1.018999,-0.001596492
-1.019999,-0.001603236
-1.020999,-0.001605995
-1.021999,-0.001611819
-1.022999,-0.001618563
-1.023999,-0.001623468
-1.024999,-0.001629599
-1.025999,-0.00163573
-1.026999,-0.00163665
-1.027999,-0.001646766
-1.028999,-0.001649525
-1.029999,-0.001653816
-1.030999,-0.00166148
-1.031999,-0.001664546
-1.032999,-0.001669144
-1.033999,-0.001678034
-1.034999,-0.001681406
-1.035999,-0.00168815
-1.036999,-0.001694281
-1.037999,-0.001696427
-1.038999,-0.001702864
-1.039999,-0.001709302
-1.040999,-0.001713287
-1.041999,-0.001720337
-1.042999,-0.001726162
-1.043999,-0.001730453
-1.044999,-0.001736584
-1.045999,-0.001743328
-1.046999,-0.001746394
-1.047999,-0.001751605
-1.048999,-0.001760495
-1.049999,-0.001763561
-1.050999,-0.001768772
-1.051999,-0.001775822
-1.052999,-0.001779195
-1.053999,-0.001785019
-1.054999,-0.001792376
-1.055999,-0.001796055
-1.056999,-0.001802492
-1.057999,-0.001808317
-1.058999,-0.001813528
-1.059999,-0.001818126
-1.060999,-0.001825177
-1.061999,-0.001828855
-1.062999,-0.00183468
-1.063999,-0.001840811
-1.064999,-0.001844489
-1.065999,-0.001849394
-1.066999,-0.001856445
-1.067999,-0.001859817
-1.068999,-0.001866561
-1.069999,-0.001871466
-1.070999,-0.001873611
-1.071999,-0.001883727
-1.072999,-0.001886487
-1.073999,-0.001891085
-1.074999,-0.001898442
-1.075999,-0.001903347
-1.076999,-0.001907332
-1.077999,-0.001913463
-1.078999,-0.001916222
-1.079999,-0.001923272
-1.080999,-0.00192971
-1.081999,-0.001932775
-1.082999,-0.001938293
-1.083999,-0.001944424
-1.084999,-0.001949329
-1.085999,-0.001955766
-1.086999,-0.001961897
-1.087999,-0.00196251
-1.088999,-0.00197232
-1.089999,-0.001976612
-1.090999,-0.001980597
-1.091999,-0.001988567
-1.092999,-0.001993472
-1.093999,-0.00199715
-1.094999,-0.002007266
-1.095999,-0.002009412
-1.096999,-0.002014623
-1.097999,-0.002024127
-1.098999,-0.002028418
-1.099999,-0.002033323
-1.100999,-0.002042826
-1.101999,-0.002047118
-1.102999,-0.002053248
-1.103999,-0.002063058
-1.104999,-0.002066737
-1.105999,-0.002074094
-1.106999,-0.002082371
-1.107999,-0.002087275
-1.108999,-0.002095246
-1.109999,-0.002104442
-1.110999,-0.002109654
-1.111999,-0.002116397
-1.112999,-0.002124368
-1.113999,-0.002131418
-1.114999,-0.002137549
-1.115999,-0.002147972
-1.116999,-0.00215257
-1.117999,-0.002159928
-1.118999,-0.00217035
-1.119999,-0.002176787
-1.120999,-0.002183532
-1.121999,-0.00218813
-1.122999,-0.002199166
-1.123999,-0.002203764
-1.124999,-0.002210201
-1.125999,-0.002216639
-1.126999,-0.002223689
-1.127999,-0.002228288
-1.128999,-0.002236871
-1.129999,-0.002239936
-1.130999,-0.002245454
-1.131999,-0.002250359
-1.132999,-0.002255264
-1.133999,-0.002260782
-1.134999,-0.002261395
-1.135999,-0.002267219
-1.136999,-0.002271511
-1.137999,-0.002273044
-1.138999,-0.002276416
-1.139999,-0.002279481
-1.140999,-0.002281014
-1.141999,-0.00228224
-1.142999,-0.002283467
-1.143999,-0.002286838
-1.144999,-0.002289904
-1.145999,-0.002290823
-1.146999,-0.002291437
-1.147999,-0.002295728
-1.148999,-0.002295115
-1.149999,-0.002296954
-1.150999,-0.002301553
-1.151999,-0.002300633
-1.152999,-0.002303086
-1.153999,-0.002307377
-1.154999,-0.002308297
-1.155999,-0.002310136
-1.156999,-0.002315347
-1.157999,-0.002316267
-1.158999,-0.002319026
-1.159999,-0.002324237
-1.160999,-0.002326383
-1.161999,-0.002328529
-1.162999,-0.00233374
-1.163999,-0.002337112
-1.164999,-0.00234263
-1.165999,-0.002348455
-1.166999,-0.002346002
-1.167999,-0.002357038
-1.168999,-0.002359184
-1.169999,-0.002362249
-1.170999,-0.0023693
-1.171999,-0.002374205
-1.172999,-0.002376044
-1.173999,-0.002384321
-1.174999,-0.002388919
-1.175999,-0.002392597
-1.176999,-0.002400261
-1.177999,-0.002405779
-1.178999,-0.002410071
-1.179999,-0.002418041
-1.180999,-0.002424479
-1.181999,-0.002427237
-1.182999,-0.002435514
-1.183999,-0.002443178
-1.184999,-0.002447776
-1.185999,-0.00245544
-1.186999,-0.00246341
-1.187999,-0.002470767
-1.188999,-0.00248027
-1.189999,-0.002487015
-1.190999,-0.002490386
-1.191999,-0.002503568
-1.192999,-0.002508473
-1.193999,-0.002515217
-1.194999,-0.002527785
-1.195999,-0.002535449
-1.196999,-0.002543419
-1.197999,-0.002554149
-1.198999,-0.002561506
-1.199999,-0.002569782
-1.200999,-0.002582351
-1.201999,-0.002590628
-1.202999,-0.002598291
-1.203999,-0.002612699
-1.204999,-0.002621896
-1.205999,-0.002629866
-1.206999,-0.00264458
-1.207999,-0.002653164
-1.208999,-0.002663893
-1.209999,-0.002678914
-1.210999,-0.002685964
-1.211999,-0.002699759
-1.212999,-0.002711714
-1.213999,-0.002719991
-1.214999,-0.002735931
-1.215999,-0.002748194
-1.216999,-0.002759536
-1.217999,-0.002776089
-1.218999,-0.002786819
-1.219999,-0.002798468
-1.220999,-0.002815941
-1.221999,-0.002828509
-1.222999,-0.002841384
-1.223999,-0.002858244
-1.224999,-0.002872346
-1.225999,-0.002884608
-1.226999,-0.002900241
-1.227999,-0.002918021
-1.228999,-0.00292875
-1.229999,-0.002949902
-1.230999,-0.002963697
-1.231999,-0.00297412
-1.232999,-0.002996191
-1.233999,-0.002976467
-1.234999,-0.002988729
-1.235999,-0.003010187
-1.236999,-0.003025514
-1.237999,-0.003040842
-1.238999,-0.003065366
-1.239999,-0.003077628
-1.240999,-0.003096021
-1.241999,-0.003117479
-1.242999,-0.003135872
-1.243999,-0.003151199
-1.244999,-0.003175723
-1.245999,-0.003191051
-1.246999,-0.003212509
-1.247999,-0.003237033
-1.248999,-0.00325236
-1.249999,-0.003276884
-1.250999,-0.003304473
-1.251999,-0.003319801
-1.252999,-0.003344325
-1.253999,-0.003368848
-1.254999,-0.003387242
-1.255999,-0.003411765
-1.256999,-0.00344242
-1.257999,-0.003460813
-1.258999,-0.003485337
-1.259999,-0.003515992
-1.260999,-0.00353745
-1.261999,-0.003565039
-1.262999,-0.003595694
-1.263999,-0.003620218
-1.264999,-0.003647808
-1.265999,-0.003684593
-1.266999,-0.003709117
-1.267999,-0.003739772
-1.268999,-0.003770427
-1.269999,-0.003804147
-1.270999,-0.003834802
-1.271999,-0.003871588
-1.272999,-0.003905308
-1.273999,-0.003939028
-1.274999,-0.003975814
-1.275999,-0.0040126
-1.276999,-0.004049386
-1.277999,-0.004092303
-1.278999,-0.004132153
-1.279999,-0.004172005
-1.280999,-0.004217987
-1.281999,-0.004257839
-1.282999,-0.00430382
-1.283999,-0.004349803
-1.284999,-0.004398851
-1.285999,-0.004447898
-1.286999,-0.004500012
-1.287999,-0.004545994
-1.288999,-0.004607304
-1.289999,-0.004659417
-1.290999,-0.00471153
-1.291999,-0.00477897
-1.292999,-0.00484028
-1.293999,-0.004898524
-1.294999,-0.004969031
-1.295999,-0.005033405
-1.296999,-0.005100846
-1.297999,-0.005177483
-1.298999,-0.005251055
-1.299999,-0.005327692
-1.300999,-0.005407395
-1.301999,-0.005490162
-1.302999,-0.00557293
-1.303999,-0.005664895
-1.304999,-0.005753794
-1.305999,-0.005848824
-1.306999,-0.005946919
-1.307999,-0.006041949
-1.308999,-0.006149241
-1.309999,-0.006256533
-1.310999,-0.00636689
-1.311999,-0.006483379
-1.312999,-0.006602933
-1.313999,-0.006719421
-1.314999,-0.006848171
-1.315999,-0.006979987
-1.316999,-0.007105672
-1.317999,-0.007249749
-1.318999,-0.007393827
-1.319999,-0.007537905
-1.320999,-0.007688113
-1.321999,-0.007838323
-1.322999,-0.007997727
-1.323999,-0.008166328
-1.324999,-0.008331865
-1.325999,-0.008500466
-1.326999,-0.008684396
-1.327999,-0.008862193
-1.328999,-0.009049187
-1.329999,-0.009242313
-1.330999,-0.009435439
-1.331999,-0.009640826
-1.332999,-0.009852344
-1.333999,-0.01005773
-1.334999,-0.01027538
-1.335999,-0.0104961
-1.336999,-0.01071681
-1.337999,-0.01094979
-1.338999,-0.0111889
-1.339999,-0.01142187
-1.340999,-0.01166711
-1.341999,-0.01191848
-1.342999,-0.01216678
-1.343999,-0.01242122
-1.344999,-0.01268485
-1.345999,-0.01294542
-1.346999,-0.01320905
-1.347999,-0.01349414
-1.348999,-0.0137639
-1.349999,-0.01403979
-1.350999,-0.01433408
-1.351999,-0.0146161
-1.352999,-0.01491039
-1.353999,-0.01521081
-1.354999,-0.01551122
-1.355999,-0.01581471
-1.356999,-0.01612126
-1.357999,-0.01642781
-1.358999,-0.01674661
-1.359999,-0.01706849
-1.360999,-0.01738423
-1.361999,-0.01770918
-1.362999,-0.01804025
-1.363999,-0.01836213
-1.364999,-0.01869626
-1.365999,-0.01903347
-1.366999,-0.01937067
-1.367999,-0.01971094
-1.368999,-0.02005121
-1.369999,-0.02040067
-1.370999,-0.02075013
-1.371999,-0.02109347
-1.372999,-0.02144906
-1.373999,-0.02180159
-1.374999,-0.02215106
-1.375999,-0.02251892
-1.376999,-0.02288371
-1.377999,-0.02324237
-1.378999,-0.02361329
-1.379999,-0.02398422
-1.380999,-0.02434901
-1.381999,-0.02472913
-1.382999,-0.02510005
-1.383999,-0.02547098
-1.384999,-0.02585416
-1.385999,-0.02621895
-1.386999,-0.02659908
-1.387999,-0.02697613
-1.388999,-0.02735931
-1.389999,-0.02774863
-1.390999,-0.02814101
-1.391999,-0.0285242
-1.392999,-0.02890432
-1.393999,-0.0292967
-1.394999,-0.02967989
-1.395999,-0.03007227
-1.396999,-0.03047078
-1.397999,-0.03099086
-1.398999,-0.03135872
-1.399999,-0.03175723
-1.400999,-0.03215575
-1.401999,-0.03258491
-1.402999,-0.03298343
-1.403999,-0.03338194
-1.404999,-0.03378045
-1.405999,-0.03420962
-1.406999,-0.03457748
-1.407999,-0.03500664
-1.408999,-0.03540516
-1.409999,-0.03580367
-1.410999,-0.03623284
-1.411999,-0.03663135
-1.412999,-0.03706052
-1.413999,-0.03745903
-1.414999,-0.0378882
-1.415999,-0.03828671
-1.416999,-0.03871588
-1.417999,-0.03911439
-1.418999,-0.03954356
-1.419999,-0.03997273
-1.420999,-0.04037124
-1.421999,-0.0408004
-1.422999,-0.04122957
-1.423999,-0.04162809
-1.424999,-0.04205726
-1.425999,-0.04248642
-1.426999,-0.04288493
-1.427999,-0.0433141
-1.428999,-0.04374327
-1.429999,-0.04414178
-1.430999,-0.0445403
-1.431999,-0.04496947
-1.432999,-0.04539863
-1.433999,-0.0458278
-1.434999,-0.04625697
-1.435999,-0.04665548
-1.436999,-0.04708464
-1.437999,-0.04751381
-1.438999,-0.04791233
-1.439999,-0.04834149
-1.440999,-0.04880131
-1.441999,-0.04919983
-1.442999,-0.049629
-1.443999,-0.05008882
-1.444999,-0.05048734
-1.445999,-0.0509165
-1.446999,-0.05134567
-1.447999,-0.05177484
-1.448999,-0.052204
-1.449999,-0.05263317
-1.450999,-0.05306234
-1.451999,-0.0534915
-1.452999,-0.05392068
-1.453999,-0.05434984
-1.454999,-0.054779
-1.455999,-0.05520818
-1.456999,-0.055668
-1.457999,-0.05609716
-1.458999,-0.05652633
-1.459999,-0.0569555
-1.460999,-0.05738467
-1.461999,-0.05781383
-1.462999,-0.058243
-1.463999,-0.05867217
-1.464999,-0.05913199
-1.465999,-0.05956116
-1.466999,-0.05995968
-1.467999,-0.0604195
-1.468999,-0.06084866
-1.469999,-0.06127783
-1.470999,-0.061707
-1.471999,-0.06216682
-1.472999,-0.06259599
-1.473999,-0.06302515
-1.474999,-0.06345432
-1.475999,-0.06388349
-1.476999,-0.06434331
-1.477999,-0.06477248
-1.478999,-0.0652323
-1.479999,-0.06563082
-1.480999,-0.06609064
-1.481999,-0.0665198
-1.482999,-0.06694897
-1.483999,-0.06740879
-1.484999,-0.06783796
-1.485999,-0.06826713
-1.486999,-0.06872695
-1.487999,-0.06915613
-1.488999,-0.06958529
-1.489999,-0.07001445
-1.490999,-0.07047428
-1.491999,-0.07090344
-1.492999,-0.07133261
-1.493999,-0.07179244
-1.494999,-0.0722216
-1.495999,-0.07268143
-1.496999,-0.0731106
-1.497999,-0.07353976
-1.498999,-0.07396893
-1.499999,-0.07412221
-1.499001,-0.07375435
-1.498001,-0.07332518
-1.497001,-0.07292666
-1.496001,-0.07252815
-1.495001,-0.07206833
-1.494001,-0.07163917
-1.493001,-0.07124065
-1.492001,-0.07078083
-1.491001,-0.07035166
-1.490001,-0.06995314
-1.489001,-0.06952398
-1.488001,-0.06909481
-1.487001,-0.06866565
-1.486001,-0.06820583
-1.485001,-0.06780731
-1.484001,-0.06737814
-1.483001,-0.06691832
-1.482001,-0.0665198
-1.481001,-0.06609064
-1.480001,-0.06563082
-1.479001,-0.0652323
-1.478001,-0.06480314
-1.477001,-0.06437397
-1.476001,-0.0639448
-1.475001,-0.06351563
-1.474001,-0.06308647
-1.473001,-0.0626573
-1.472001,-0.06222813
-1.471001,-0.06179896
-1.470001,-0.0613698
-1.469001,-0.06094063
-1.468001,-0.06051146
-1.467001,-0.06011295
-1.466001,-0.05968378
-1.465001,-0.05922396
-1.464001,-0.05882544
-1.463001,-0.05839628
-1.462001,-0.05796711
-1.461001,-0.0575686
-1.460001,-0.05710877
-1.459001,-0.05671026
-1.458001,-0.0562811
-1.457001,-0.05585193
-1.456001,-0.05542276
-1.455001,-0.05499359
-1.454001,-0.05459508
-1.453001,-0.05416591
-1.452001,-0.05373674
-1.451001,-0.05330757
-1.450001,-0.05290907
-1.449001,-0.05247989
-1.448001,-0.05205073
-1.447001,-0.05165222
-1.446001,-0.05122305
-1.445001,-0.05082453
-1.444001,-0.05039537
-1.443001,-0.0499662
-1.442001,-0.04956769
-1.441001,-0.04916918
-1.440001,-0.04874001
-1.439001,-0.04831084
-1.438001,-0.04791233
-1.437001,-0.04748316
-1.436001,-0.04708464
-1.435001,-0.04668614
-1.434001,-0.04625697
-1.433001,-0.04585845
-1.432001,-0.04545994
-1.431001,-0.04503077
-1.430001,-0.04463226
-1.429001,-0.04423375
-1.428001,-0.04383523
-1.427001,-0.04343672
-1.426001,-0.04303821
-1.425001,-0.04260904
-1.424001,-0.04224118
-1.423001,-0.04184267
-1.422001,-0.04144416
-1.421001,-0.04104565
-1.420001,-0.04064713
-1.419001,-0.04021796
-1.418001,-0.03985011
-1.417001,-0.03942094
-1.416001,-0.03902243
-1.415001,-0.03865457
-1.414001,-0.03825606
-1.413001,-0.03785754
-1.412001,-0.03748969
-1.411001,-0.03709117
-1.410001,-0.03669266
-1.409001,-0.0363248
-1.408001,-0.03592629
-1.407001,-0.03552778
-1.406001,-0.03515992
-1.405001,-0.03479206
-1.404001,-0.03439355
-1.403001,-0.03402569
-1.402001,-0.03362718
-1.401001,-0.03325932
-1.400001,-0.03289146
-1.399001,-0.0325236
-1.398001,-0.03212509
-1.397001,-0.03175723
-1.396001,-0.03138937
-1.395001,-0.03102152
-1.394001,-0.03065366
-1.393001,-0.0302858
-1.392001,-0.0299486
-1.391001,-0.02958074
-1.390001,-0.02918223
-1.389001,-0.02881437
-1.388001,-0.02847717
-1.387001,-0.02813996
-1.386001,-0.0277721
-1.385001,-0.0274349
-1.384001,-0.02703639
-1.383001,-0.02669919
-1.382001,-0.02636199
-1.381001,-0.02599413
-1.380001,-0.02565692
-1.379001,-0.02531972
-1.378001,-0.02495186
-1.377001,-0.02461466
-1.376001,-0.02427745
-1.375001,-0.02394025
-1.374001,-0.02360305
-1.373001,-0.02326585
-1.372001,-0.02292864
-1.371001,-0.02262209
-1.370001,-0.02228489
-1.369001,-0.02194769
-1.368001,-0.02164114
-1.367001,-0.02130394
-1.366001,-0.02099739
-1.365001,-0.02066019
-1.364001,-0.02035364
-1.363001,-0.02004709
-1.362001,-0.01974054
-1.361001,-0.01940334
-1.360001,-0.01912744
-1.359001,-0.01882089
-1.358001,-0.01851435
-1.357001,-0.0182078
-1.356001,-0.01790125
-1.355001,-0.01762536
-1.354001,-0.01734946
-1.353001,-0.01704292
-1.352001,-0.01676702
-1.351001,-0.01646047
-1.350001,-0.01618458
-1.349001,-0.0160109
-1.348001,-0.01573807
-1.347001,-0.01547444
-1.346001,-0.01520774
-1.345001,-0.01493798
-1.344001,-0.01468355
-1.343001,-0.01442605
-1.342001,-0.01417468
-1.341001,-0.01392637
-1.340001,-0.01368113
-1.339001,-0.01343896
-1.338001,-0.01319372
-1.337001,-0.01295461
-1.336001,-0.01271857
-1.335001,-0.01248559
-1.334001,-0.01225568
-1.333001,-0.01203497
-1.332001,-0.01180812
-1.331001,-0.01159047
-1.330001,-0.01137589
-1.329001,-0.01115824
-1.328001,-0.01094979
-1.327001,-0.0107444
-1.326001,-0.01054208
-1.325001,-0.01033976
-1.324001,-0.01014357
-1.323001,-0.009950439
-1.322001,-0.00976038
-1.321001,-0.009579516
-1.320001,-0.009392521
-1.319001,-0.009214723
-1.318001,-0.009043057
-1.317001,-0.008868324
-1.316001,-0.008702789
-1.315001,-0.008537252
-1.314001,-0.008374781
-1.313001,-0.008218442
-1.312001,-0.008062102
-1.311001,-0.007905763
-1.310001,-0.007761685
-1.309001,-0.007617608
-1.308001,-0.007473529
-1.307001,-0.007338648
-1.306001,-0.007203767
-1.305001,-0.007065821
-1.304001,-0.006940136
-1.303001,-0.006817516
-1.302001,-0.006691832
-1.301001,-0.006575344
-1.300001,-0.00645579
-1.299001,-0.006339301
-1.298001,-0.006232009
-1.297001,-0.006118587
-1.296001,-0.006017426
-1.295001,-0.005916264
-1.294001,-0.005815104
-1.293001,-0.005717008
-1.292001,-0.005625044
-1.291001,-0.005530014
-1.290001,-0.005441115
-1.289001,-0.005358347
-1.288001,-0.005272513
-1.287001,-0.005189745
-1.286001,-0.005113108
-1.285001,-0.005033405
-1.284001,-0.004956769
-1.283001,-0.004889328
-1.282001,-0.004815756
-1.281001,-0.00474525
-1.280001,-0.004680875
-1.279001,-0.004613434
-1.278001,-0.00454906
-1.277001,-0.004490815
-1.276001,-0.004429505
-1.275001,-0.004374327
-1.274001,-0.004319148
-1.273001,-0.00426397
-1.272001,-0.004208791
-1.271001,-0.004159743
-1.270001,-0.00410763
-1.269001,-0.004058582
-1.268001,-0.0040126
-1.267001,-0.003966617
-1.266001,-0.003920636
-1.265001,-0.003880784
-1.264001,-0.003837867
-1.263001,-0.003794951
-1.262001,-0.003755099
-1.261001,-0.003712183
-1.260001,-0.003681528
-1.259001,-0.003644742
-1.258001,-0.003607956
-1.257001,-0.00357117
-1.256001,-0.00353745
-1.255001,-0.00350373
-1.254001,-0.003473075
-1.253001,-0.00344242
-1.252001,-0.0034087
-1.251001,-0.00338111
-1.250001,-0.003353521
-1.249001,-0.003322866
-1.248001,-0.003292212
-1.247001,-0.003270753
-1.246001,-0.003240098
-1.245001,-0.003212509
-1.244001,-0.003191051
-1.243001,-0.003160396
-1.242001,-0.003142003
-1.241001,-0.003114413
-1.240001,-0.003089889
-1.239001,-0.003068431
-1.238001,-0.003046973
-1.237001,-0.003022449
-1.236001,-0.003000991
-1.235001,-0.002979532
-1.234001,-0.002958074
-1.233001,-0.002942747
-1.232001,-0.002918222
-1.231001,-0.002902895
-1.230001,-0.002881437
-1.229001,-0.002859978
-1.228001,-0.002841586
-1.227001,-0.002823193
-1.226001,-0.0028048
-1.225001,-0.002786407
-1.224001,-0.00277108
-1.223001,-0.002749621
-1.222001,-0.002734293
-1.221001,-0.002718966
-1.220001,-0.002697508
-1.219001,-0.002688312
-1.218001,-0.002669919
-1.217001,-0.00264846
-1.216001,-0.002639264
-1.215001,-0.002620871
-1.214001,-0.002602478
-1.213001,-0.002593281
-1.212001,-0.002574889
-1.211001,-0.002559561
-1.210001,-0.002547299
-1.209001,-0.002531972
-1.208001,-0.002516645
-1.207001,-0.002504382
-1.206001,-0.00248599
-1.205001,-0.002476793
-1.204001,-0.002461466
-1.203001,-0.002449204
-1.202001,-0.002433876
-1.201001,-0.00242468
-1.200001,-0.002409352
-1.199001,-0.002397091
-1.198001,-0.002384829
-1.197001,-0.002372567
-1.196001,-0.002360305
-1.195001,-0.002351108
-1.194001,-0.002335781
-1.193001,-0.002323519
-1.192001,-0.002314323
-1.191001,-0.002302061
-1.190001,-0.002292864
-1.189001,-0.002280602
-1.188001,-0.00226834
-1.187001,-0.002259144
-1.186001,-0.002246882
-1.185001,-0.00223462
-1.184001,-0.002228489
-1.183001,-0.002216227
-1.182001,-0.002203965
-1.181001,-0.002197834
-1.180001,-0.002182507
-1.179001,-0.002176376
-1.178001,-0.002167179
-1.177001,-0.002151852
-1.176001,-0.002145721
-1.175001,-0.00213959
-1.174001,-0.002124263
-1.173001,-0.002118132
-1.172001,-0.002108935
-1.171001,-0.002096673
-1.170001,-0.002090542
-1.169001,-0.00207828
-1.168001,-0.002069084
-1.167001,-0.002062953
-1.166001,-0.002050691
-1.165001,-0.002041495
-1.164001,-0.002035364
-1.163001,-0.002023102
-1.162001,-0.002013905
-1.161001,-0.002007774
-1.160001,-0.001998578
-1.159001,-0.001989381
-1.158001,-0.00198325
-1.157001,-0.001974054
-1.156001,-0.001964858
-1.155001,-0.001955661
-1.154001,-0.00194953
-1.153001,-0.001940334
-1.152001,-0.001931137
-1.151001,-0.001921941
-1.150001,-0.00191581
-1.149001,-0.001909679
-1.148001,-0.001897417
-1.147001,-0.001891286
-1.146001,-0.00188209
-1.145001,-0.001872893
-1.144001,-0.001866762
-1.143001,-0.001857566
-1.142001,-0.001848369
-1.141001,-0.001842238
-1.140001,-0.001836107
-1.139001,-0.001826911
-1.138001,-0.001817714
-1.137001,-0.001811583
-1.136001,-0.001802387
-1.135001,-0.00179319
-1.134001,-0.00178706
-1.133001,-0.001777863
-1.132001,-0.001771732
-1.131001,-0.001765601
-1.130001,-0.001756405
-1.129001,-0.001750274
-1.128001,-0.001744143
-1.127001,-0.001734946
-1.126001,-0.001728815
-1.125001,-0.001722684
-1.124001,-0.001713488
-1.123001,-0.001707357
-1.122001,-0.001701226
-1.121001,-0.00169203
-1.120001,-0.001688964
-1.119001,-0.001679768
-1.118001,-0.001673637
-1.117001,-0.001670571
-1.116001,-0.001658309
-1.115001,-0.001652178
-1.114001,-0.001649113
-1.113001,-0.001639916
-1.112001,-0.00163072
-1.111001,-0.001627655
-1.110001,-0.001615393
-1.109001,-0.001612327
-1.108001,-0.001638489
-1.107001,-0.001628679
-1.106001,-0.001623161
-1.105001,-0.001615191
-1.104001,-0.001607834
-1.103001,-0.00160201
-1.102001,-0.001594346
-1.101001,-0.001583004
-1.100001,-0.001579325
-1.099001,-0.001568289
-1.098001,-0.001562158
-1.097001,-0.001555414
-1.096001,-0.001545911
-1.095001,-0.001538248
-1.094001,-0.001531197
-1.093001,-0.001522307
-1.092001,-0.00151495
-1.091001,-0.001507899
-1.090001,-0.001497783
-1.089001,-0.001492572
-1.088001,-0.001484908
-1.087001,-0.001475099
-1.086001,-0.001468661
-1.085001,-0.001461917
-1.084001,-0.001451188
-1.083001,-0.001445057
-1.082001,-0.001441072
-1.081001,-0.001429423
-1.080001,-0.001424825
-1.079001,-0.001418081
-1.078001,-0.001406432
-1.077001,-0.001403366
-1.076001,-0.001393863
-1.075001,-0.001388345
-1.074001,-0.001384054
-1.073001,-0.001375164
-1.072001,-0.001369953
-1.071001,-0.001363822
-1.070001,-0.001354012
-1.069001,-0.001351253
-1.068001,-0.001342057
-1.067001,-0.001335313
-1.066001,-0.001330714
-1.065001,-0.00132397
-1.064001,-0.001318453
-1.063001,-0.001314774
-1.062001,-0.001306191
-1.061001,-0.001298833
-1.060001,-0.001295155
-1.059001,-0.001286571
-1.058001,-0.001282893
-1.057001,-0.001278295
-1.056001,-0.001270938
-1.055001,-0.001266339
-1.054001,-0.001258982
-1.053001,-0.00125561
-1.052001,-0.001250092
-1.051001,-0.001243655
-1.050001,-0.001239057
-1.049001,-0.001234765
-1.048001,-0.001227714
-1.047001,-0.001224036
-1.046001,-0.001218824
-1.045001,-0.001213
-1.044001,-0.001208095
-1.043001,-0.001202884
-1.042001,-0.001196753
-1.041001,-0.001190928
-1.040001,-0.001187863
-1.039001,-0.001180506
-1.038001,-0.001176521
-1.037001,-0.001174375
-1.036001,-0.001164259
-1.035001,-0.001162726
-1.034001,-0.001158741
-1.033001,-0.001151384
-1.032001,-0.001148625
-1.031001,-0.001143107
-1.030001,-0.001137282
-1.029001,-0.001134524
-1.028001,-0.001128086
-1.027001,-0.001123488
-1.026001,-0.001119503
-1.025001,-0.001112452
-1.024001,-0.00111
-1.023001,-0.001104788
-1.022001,-0.001098351
-1.021001,-0.001097738
-1.020001,-0.001090687
-1.019001,-0.001085782
-1.018001,-0.001083637
-1.017001,-0.001077199
-1.016001,-0.001073214
-1.015001,-0.001069535
-1.014001,-0.001063711
-1.013001,-0.001060645
-1.012001,-0.001055434
-1.011001,-0.001049303
-1.010001,-0.001046851
-1.009001,-0.001041639
-1.008001,-0.001036428
-1.007001,-0.001032443
-1.006001,-0.001027845
-1.005001,-0.001022327
-1.004001,-0.001018035
-1.003001,-0.001013131
-1.002001,-0.001010065
-1.001001,-0.001004854
-1.000001,-0.0009996422
-0.9990008,-0.0009959637
-0.9980009,-0.0009904457
-0.9970009,-0.000984928
-0.9960009,-0.0009824756
-0.9950009,-0.0009772643
-0.9940009,-0.0009714398
-0.9930009,-0.0009686808
-0.9920009,-0.0009628565
-0.9910009,-0.0009567254
-0.9900008,-0.0009545796
-0.9890009,-0.0009490618
-0.9880009,-0.0009423177
-0.9870009,-0.0009389457
-0.9860009,-0.000934654
-0.9850008,-0.0009285231
-0.9840009,-0.000925151
-0.9830009,-0.0009193266
-0.9820009,-0.0009138088
-0.9810008,-0.0009104367
-0.9800009,-0.0009043057
-0.9790009,-0.0008990944
-0.9780009,-0.0008951093
-0.9770009,-0.0008889784
-0.9760008,-0.0008849932
-0.9750009,-0.0008807015
-0.9740009,-0.000874264
-0.9730009,-0.0008699723
-0.9720009,-0.0008644544
-0.9710009,-0.0008595497
-0.9700009,-0.0008543384
-0.9690009,-0.0008497401
-0.9680009,-0.0008448354
-0.9670008,-0.0008390109
-0.9660009,-0.0008350258
-0.9650009,-0.0008295079
-0.9640009,-0.0008227639
-0.9630009,-0.0008203115
-0.9620008,-0.0008144871
-0.9610009,-0.0008083562
-0.9600009,-0.0008065169
-0.9590009,-0.0007979335
-0.9580009,-0.0007951746
-0.9570009,-0.000791496
-0.9560009,-0.0007838323
-0.9550009,-0.0007804602
-0.9540009,-0.0007755554
-0.9530008,-0.0007681983
-0.9520009,-0.0007660525
-0.9510009,-0.0007599215
-0.9500009,-0.0007550167
-0.9490009,-0.0007504185
-0.9480008,-0.0007442875
-0.9470009,-0.0007387697
-0.9460009,-0.000735091
-0.9450009,-0.0007289601
-0.9440009,-0.0007240553
-0.9430009,-0.0007194571
-0.9420009,-0.0007133262
-0.9410009,-0.0007075017
-0.9400009,-0.0007032101
-0.9390008,-0.0006976922
-0.9380009,-0.0006918678
-0.9370009,-0.0006872696
-0.9360009,-0.0006826713
-0.9350009,-0.0006762338
-0.9340008,-0.000671329
-0.9330009,-0.0006667308
-0.9320009,-0.0006590671
-0.9310009,-0.0006563082
-0.9300008,-0.0006507903
-0.9290009,-0.0006434331
-0.9280009,-0.000639448
-0.9270009,-0.0006339302
-0.9260009,-0.0006290254
-0.9250008,-0.0006238141
-0.9240009,-0.0006167634
-0.9230009,-0.0006133915
-0.9220009,-0.0006060342
-0.9210009,-0.0006014361
-0.9200009,-0.000598064
-0.9190009,-0.0005913199
-0.9180009,-0.0005861087
-0.9170009,-0.0005815104
-0.9160008,-0.0005738467
-0.9150009,-0.0005701681
-0.9140009,-0.0005646503
-0.9130009,-0.0005582127
-0.9120009,-0.0005536145
-0.9110008,-0.0005474835
-0.9100009,-0.0005419657
-0.9090009,-0.0005370609
-0.9080009,-0.0005297037
-0.9070009,-0.0005260251
-0.9060009,-0.0005205073
-0.9050009,-0.0005131501
-0.9040009,-0.0005094716
-0.9030009,-0.0005036471
-0.9020008,-0.0004969031
-0.9010009,-0.000492918
-0.9000009,-0.0004852542
-0.8990009,-0.0004797364
-0.8980009,-0.0004757512
-0.8970008,-0.0004671679
-0.8960009,-0.0004628762
-0.8950009,-0.0004585845
-0.8940009,-0.0004506143
-0.8930008,-0.000445403
-0.8920009,-0.0004411113
-0.8910009,-0.0004322214
-0.8900009,-0.0004279297
-0.8890009,-0.0004224119
-0.8880008,-0.0004156678
-0.8870009,-0.0004101499
-0.8860009,-0.0004049386
-0.8850009,-0.0003975815
-0.8840009,-0.000391757
-0.8830009,-0.0003868522
-0.8820009,-0.0003801082
-0.8810009,-0.0003739772
-0.8800009,-0.0003681528
-0.8790008,-0.0003620218
-0.8780009,-0.0003549712
-0.8770009,-0.0003506796
-0.8760009,-0.000344242
-0.8750009,-0.0003381111
-0.8740008,-0.0003319801
-0.8730009,-0.0003243164
-0.8720009,-0.0003197182
-0.8710009,-0.000312361
-0.8700009,-0.0003065366
-0.8690009,-0.0003013253
-0.8680009,-0.0002939681
-0.8670009,-0.0002881437
-0.8660009,-0.0002826258
-0.8650008,-0.0002758818
-0.8640009,-0.0002697508
-0.8630009,-0.0002648461
-0.8620009,-0.0002565692
-0.8610009,-0.0002522776
-0.8600008,-0.0002449204
-0.8590009,-0.0002384829
-0.8580009,-0.0002335781
-0.8570009,-0.0002265275
-0.8560008,-0.0002194769
-0.8550009,-0.0002164114
-0.8540009,-0.0002081346
-0.8530009,-0.0002016971
-0.8520009,-0.0001974054
-0.8510008,-0.0001900483
-0.8500009,-0.0001842238
-0.8490009,-0.000178706
-0.8480009,-0.0001719619
-0.8470009,-0.000166444
-0.8460009,-0.0001612327
-0.8450009,-0.000153569
-0.8440009,-0.0001486642
-0.8430009,-0.0001431464
-0.8420008,-0.0001383747
-0.8410009,-0.0001337459
-0.8400009,-0.0001287491
-0.8390009,-0.0001212693
-0.8380009,-0.0001166098
-0.8370008,-0.0001111839
-0.8360009,-0.0001034589
-0.8350009,-9.901392E-05
-0.8340009,-9.340408E-05
-0.8330009,-8.656806E-05
-0.8320009,-8.132608E-05
-0.8310009,-7.516446E-05
-0.8300009,-6.906415E-05
-0.8290009,-6.434331E-05
-0.8280008,-5.713943E-05
-0.8270009,-5.34915E-05
-0.8260009,-4.705399E-05
-0.8250009,-4.024862E-05
-0.8240009,-3.647808E-05
-0.8230008,-3.019383E-05
-0.8220009,-2.32965E-05
-0.8210009,-1.983251E-05
-0.8200009,-1.223011E-05
-0.8190009,-5.915213E-06
-0.8180009,-1.592884E-06
-0.8170009,5.243142E-06
-0.8160009,9.28958E-06
-0.8150009,1.401042E-05
-0.8140008,2.142889E-05
-0.8130009,2.547533E-05
-0.8120009,3.142237E-05
-0.8110009,3.807446E-05
-0.8100009,4.199828E-05
-0.8090008,4.773073E-05
-0.8080009,5.410693E-05
-0.8070009,5.855188E-05
-0.8060009,6.43763E-05
-0.8050008,7.059924E-05
-0.8040009,7.553466E-05
-0.8030009,8.132842E-05
-0.8020009,8.730611E-05
-0.8010009,9.242546E-05
-0.8000008,5.00605E-05
-0.8009992,-7.447955E-06
-0.8019992,-4.585845E-05
-0.8029991,-7.608411E-05
-0.8039991,-0.000104961
-0.8049992,-0.0001310789
-0.8059992,-0.0001533956
-0.8069991,-0.0001768465
-0.8079991,-0.0001969254
-0.8089992,-0.000216146
-0.8099992,-0.0002353666
-0.8109992,-0.0002525946
-0.8119991,-0.000269608
-0.8129991,-0.0002864682
-0.8139992,-0.0002982598
-0.8149992,-0.0003135872
-0.8159992,-0.0003283015
-0.8169991,-0.0003417897
-0.8179991,-0.0003561974
-0.8189992,-0.0003709117
-0.8199992,-0.0003819475
-0.8209991,-0.0003954356
-0.8219991,-0.0004080041
-0.8229992,-0.0004184267
-0.8239992,-0.0004309952
-0.8249992,-0.000442644
-0.8259991,-0.0004524536
-0.8269991,-0.0004644089
-0.8279992,-0.0004751382
-0.8289992,-0.0004846411
-0.8299991,-0.0004959835
-0.8309991,-0.0005051799
-0.8319992,-0.0005152959
-0.8329992,-0.0005260251
-0.8339992,-0.0005349151
-0.8349991,-0.0005434984
-0.8359991,-0.0005545341
-0.8369992,-0.0005631176
-0.8379992,-0.0005710878
-0.8389992,-0.0005830431
-0.8399991,-0.0005897872
-0.8409991,-0.0005989837
-0.8419992,-0.0006094063
-0.8429992,-0.0006152307
-0.8439991,-0.0006244272
-0.8449991,-0.0006339302
-0.8459992,-0.0006403677
-0.8469992,-0.0006495641
-0.8479992,-0.0006581475
-0.8489991,-0.0006651981
-0.8499991,-0.0006737814
-0.8509992,-0.0006820582
-0.8519992,-0.0006894154
-0.8529992,-0.0006967725
-0.8539991,-0.0007053559
-0.8549991,-0.0007127131
-0.8559992,-0.0007194571
-0.8569992,-0.0007286536
-0.8579991,-0.0007344779
-0.8589991,-0.000740609
-0.8599992,-0.0007498054
-0.8609992,-0.0007571626
-0.8619992,-0.0007639066
-0.8629991,-0.0007721835
-0.8639991,-0.0007770882
-0.8649992,-0.0007862847
-0.8659992,-0.0007918025
-0.8669991,-0.0007985466
-0.8679991,-0.0008077431
-0.8689992,-0.0008132609
-0.8699992,-0.0008212312
-0.8709992,-0.0008282817
-0.8719991,-0.0008334931
-0.8729991,-0.0008414634
-0.8739992,-0.000848514
-0.8749992,-0.0008528056
-0.8759992,-0.0008616955
-0.8769991,-0.0008687461
-0.8779991,-0.0008736509
-0.8789992,-0.0008816211
-0.8799992,-0.000887139
-0.8809991,-0.0008929634
-0.8819991,-0.0009015468
-0.8829992,-0.0009064515
-0.8839992,-0.0009131957
-0.8849992,-0.0009205528
-0.8859991,-0.0009254576
-0.8869991,-0.0009325081
-0.8879992,-0.0009395588
-0.8889992,-0.0009444635
-0.8899992,-0.0009518207
-0.8909991,-0.0009582583
-0.8919991,-0.0009637761
-0.8929992,-0.0009711333
-0.8939992,-0.0009775708
-0.8949991,-0.0009821691
-0.8959991,-0.0009895262
-0.8969992,-0.0009953505
-0.8979992,-0.001000869
-0.8989992,-0.001006386
-0.8999991,-0.001013131
-0.9009991,-0.001018648
-0.9019992,-0.001024779
-0.9029992,-0.00103091
-0.9039991,-0.001035815
-0.9049991,-0.001041333
-0.9059991,-0.00104777
-0.9069992,-0.001052675
-0.9079992,-0.001058806
-0.9089991,-0.001062791
-0.9099991,-0.001069535
-0.9109992,-0.001076279
-0.9119992,-0.001080264
-0.9129992,-0.001086089
-0.9139991,-0.001093753
-0.9149991,-0.001095592
-0.9159992,-0.001102949
-0.9169992,-0.00110908
-0.9179991,-0.001112759
-0.9189991,-0.001119809
-0.9199992,-0.001125021
-0.9209992,-0.001129006
-0.9219992,-0.001135443
-0.9229991,-0.001140961
-0.9239991,-0.001145559
-0.9249992,-0.00115169
-0.9259992,-0.001155982
-0.9269992,-0.001161806
-0.9279991,-0.001167018
-0.9289991,-0.001172842
-0.9299992,-0.001174681
-0.9309992,-0.001183571
-0.9319991,-0.00118633
-0.9329991,-0.001191235
-0.9339992,-0.001197979
-0.9349992,-0.001201964
-0.9359992,-0.001205643
-0.9369991,-0.001212693
-0.9379991,-0.001216678
-0.9389992,-0.001221277
-0.9399992,-0.001227101
-0.9409992,-0.001231393
-0.9419991,-0.001236298
-0.9429991,-0.001241202
-0.9439992,-0.001246107
-0.9449992,-0.001251625
-0.9459991,-0.00125745
-0.9469991,-0.001259289
-0.9479992,-0.001266033
-0.9489992,-0.001270324
-0.9499992,-0.00127339
-0.9509991,-0.001280747
-0.9519991,-0.001285652
-0.9529992,-0.001288104
-0.9539992,-0.001294848
-0.9549991,-0.00129822
-0.9559991,-0.001303125
-0.9569992,-0.001310176
-0.9579992,-0.001312935
-0.9589992,-0.001317533
-0.9599991,-0.00132397
-0.9609991,-0.001327036
-0.9619992,-0.001332247
-0.9629992,-0.001338685
-0.9639992,-0.001341137
-0.9649991,-0.001346042
-0.9659991,-0.001352479
-0.9669992,-0.001356158
-0.9679992,-0.001361063
-0.9689991,-0.001366887
-0.9699991,-0.001370566
-0.9709992,-0.001374244
-0.9719992,-0.001380988
-0.9729992,-0.00138528
-0.9739991,-0.001388959
-0.9749991,-0.00139509
-0.9759992,-0.001399075
-0.9769992,-0.001402753
-0.9779992,-0.001411337
-0.9789991,-0.001413176
-0.9799991,-0.001417774
-0.9809992,-0.001424518
-0.9819992,-0.001425744
-0.9829991,-0.001434328
-0.9839991,-0.001438006
-0.9849992,-0.001441992
-0.9859992,-0.001449042
-0.9869992,-0.001451801
-0.9879991,-0.001456093
-0.9889991,-0.001463143
-0.9899992,-0.001466209
-0.9909992,-0.00147234
-0.9919991,-0.001476938
-0.9929991,-0.001480617
-0.9939992,-0.001487361
-0.9949992,-0.001492265
-0.9959992,-0.001495637
-0.9969991,-0.001503301
-0.9979991,-0.00150698
-0.9989992,-0.001512191
-0.9999992,-0.001518935
-1.000999,-0.00152292
-1.001999,-0.001528132
-1.002999,-0.001535795
-1.003999,-0.001538861
-1.004999,-0.001545298
-1.005999,-0.001552042
-1.006999,-0.001555721
-1.007999,-0.001561852
-1.008999,-0.001567983
-1.009999,-0.001571355
-1.010999,-0.001579325
-1.011999,-0.001583617
-1.012999,-0.001587908
-1.013999,-0.001595266
-1.014999,-0.00160109
-1.015999,-0.001605075
-1.016999,-0.001611513
-1.017999,-0.001617644
-1.018999,-0.001621935
-1.019999,-0.001628066
-1.020999,-0.001634197
-1.021999,-0.001638182
-1.022999,-0.001644007
-1.023999,-0.001651364
-1.024999,-0.001654736
-1.025999,-0.001661787
-1.026999,-0.001666998
-1.027999,-0.001670676
-1.028999,-0.001679873
-1.029999,-0.001684471
-1.030999,-0.001690909
-1.031999,-0.001696427
-1.032999,-0.001698879
-1.033999,-0.001706236
-1.034999,-0.001712367
-1.035999,-0.001716965
-1.036999,-0.001725549
-1.037999,-0.001728921
-1.038999,-0.001735665
-1.039999,-0.001742715
-1.040999,-0.0017467
-1.041999,-0.001753445
-1.042999,-0.001760802
-1.043999,-0.001763561
-1.044999,-0.001769692
-1.045999,-0.001777355
-1.046999,-0.001781034
-1.047999,-0.001789311
-1.048999,-0.001796668
-1.049999,-0.001797894
-1.050999,-0.001806784
-1.051999,-0.001811689
-1.052999,-0.001814754
-1.053999,-0.001823338
-1.054999,-0.001829162
-1.055999,-0.001832227
-1.056999,-0.001840811
-1.057999,-0.001844183
-1.058999,-0.001851233
-1.059999,-0.001856751
-1.060999,-0.00186043
-1.061999,-0.001867174
-1.062999,-0.001874225
-1.063999,-0.001875757
-1.064999,-0.001884954
-1.065999,-0.001889859
-1.066999,-0.001893844
-1.067999,-0.00190212
-1.068999,-0.001905799
-1.069999,-0.001910091
-1.070999,-0.001918674
-1.071999,-0.001922966
-1.072999,-0.001926951
-1.073999,-0.001934001
-1.074999,-0.0019386
-1.075999,-0.001944117
-1.076999,-0.001949329
-1.077999,-0.00195454
-1.078999,-0.001958832
-1.079999,-0.00196435
-1.080999,-0.001971094
-1.081999,-0.001976305
-1.082999,-0.001981516
-1.083999,-0.001987341
-1.084999,-0.001991326
-1.085999,-0.001997457
-1.086999,-0.002004201
-1.087999,-0.002006347
-1.088999,-0.00201493
-1.089999,-0.002020142
-1.090999,-0.00202382
-1.091999,-0.002032403
-1.092999,-0.002037615
-1.093999,-0.00204068
-1.094999,-0.00204957
-1.095999,-0.002054781
-1.096999,-0.002059073
-1.097999,-0.00206735
-1.098999,-0.002073481
-1.099999,-0.002078692
-1.100999,-0.002086662
-1.101999,-0.002092793
-1.102999,-0.002097085
-1.103999,-0.002105362
-1.104999,-0.002111799
-1.105999,-0.00211793
-1.106999,-0.002127127
-1.107999,-0.002133871
-1.108999,-0.002139082
-1.109999,-0.002148892
-1.110999,-0.002154716
-1.111999,-0.00216146
-1.112999,-0.00217127
-1.113999,-0.002174948
-1.114999,-0.002182612
-1.115999,-0.002192422
-1.116999,-0.002198859
-1.117999,-0.002207136
-1.118999,-0.002213573
-1.119999,-0.002221544
-1.120999,-0.002227061
-1.121999,-0.002234725
-1.122999,-0.002242389
-1.123999,-0.00224852
-1.124999,-0.002258023
-1.125999,-0.002264767
-1.126999,-0.002267526
-1.127999,-0.002274577
-1.128999,-0.00228316
-1.129999,-0.002284999
-1.130999,-0.002292356
-1.131999,-0.002297261
-1.132999,-0.00230002
-1.133999,-0.002305538
-1.134999,-0.002309523
-1.135999,-0.002310749
-1.136999,-0.002316573
-1.137999,-0.002317493
-1.138999,-0.002319026
-1.139999,-0.002323624
-1.140999,-0.002322705
-1.141999,-0.002327303
-1.142999,-0.002330981
-1.143999,-0.002327303
-1.144999,-0.002332514
-1.145999,-0.002336499
-1.146999,-0.002334047
-1.147999,-0.002337726
-1.148999,-0.002340178
-1.149999,-0.002340484
-1.150999,-0.002343243
-1.151999,-0.002345389
-1.152999,-0.002346616
-1.153999,-0.002347842
-1.154999,-0.00235152
-1.155999,-0.002353666
-1.156999,-0.002355199
-1.157999,-0.00235949
-1.158999,-0.002363169
-1.159999,-0.002362862
-1.160999,-0.002369606
-1.161999,-0.002371752
-1.162999,-0.002373898
-1.163999,-0.002378496
-1.164999,-0.002383095
-1.165999,-0.002387999
-1.166999,-0.002391984
-1.167999,-0.002393211
-1.168999,-0.002402714
-1.169999,-0.002403327
-1.170999,-0.002409764
-1.171999,-0.002418041
-1.172999,-0.00242172
-1.173999,-0.002426931
-1.174999,-0.002431836
-1.175999,-0.002436434
-1.176999,-0.00244563
-1.177999,-0.002449922
-1.178999,-0.00245544
-1.179999,-0.002463717
-1.180999,-0.002468008
-1.181999,-0.002475366
-1.182999,-0.002483949
-1.183999,-0.002488241
-1.184999,-0.002496517
-1.185999,-0.002506633
-1.186999,-0.002512765
-1.187999,-0.002520735
-1.188999,-0.002529012
-1.189999,-0.002535142
-1.190999,-0.002547098
-1.191999,-0.002552922
-1.192999,-0.002559973
-1.193999,-0.002572541
-1.194999,-0.002581125
-1.195999,-0.002589402
-1.196999,-0.00260197
-1.197999,-0.002608408
-1.198999,-0.002620056
-1.199999,-0.002632625
-1.200999,-0.002640289
-1.201999,-0.002653777
-1.202999,-0.002666345
-1.203999,-0.002675541
-1.204999,-0.002686884
-1.205999,-0.002700372
-1.206999,-0.002711101
-1.207999,-0.002725815
-1.208999,-0.002737771
-1.209999,-0.002750646
-1.210999,-0.002761988
-1.211999,-0.002779155
-1.212999,-0.00279203
-1.213999,-0.002804599
-1.214999,-0.002818086
-1.215999,-0.002831268
-1.216999,-0.002847822
-1.217999,-0.002861923
-1.218999,-0.002874491
-1.219999,-0.002893804
-1.220999,-0.002906986
-1.221999,-0.002922926
-1.222999,-0.002940399
-1.223999,-0.0029545
-1.224999,-0.002972587
-1.225999,-0.002990673
-1.226999,-0.003006307
-1.227999,-0.002988729
-1.228999,-0.003004056
-1.229999,-0.003025514
-1.230999,-0.003040842
-1.231999,-0.003059235
-1.232999,-0.003077628
-1.233999,-0.003096021
-1.234999,-0.003114413
-1.235999,-0.003135872
-1.236999,-0.00315733
-1.237999,-0.003175723
-1.238999,-0.003197182
-1.239999,-0.003215575
-1.240999,-0.003237033
-1.241999,-0.003261557
-1.242999,-0.00327995
-1.243999,-0.003304473
-1.244999,-0.003328997
-1.245999,-0.003350456
-1.246999,-0.003371914
-1.247999,-0.003399503
-1.248999,-0.003420962
-1.249999,-0.00344242
-1.250999,-0.003470009
-1.251999,-0.003494533
-1.252999,-0.003522123
-1.253999,-0.003546647
-1.254999,-0.003574236
-1.255999,-0.003601825
-1.256999,-0.003626349
-1.257999,-0.003657004
-1.258999,-0.003687659
-1.259999,-0.003715248
-1.260999,-0.003748968
-1.261999,-0.003779623
-1.262999,-0.003807213
-1.263999,-0.003840933
-1.264999,-0.003874653
-1.265999,-0.003905308
-1.266999,-0.003945159
-1.267999,-0.00397888
-1.268999,-0.0040126
-1.269999,-0.004052451
-1.270999,-0.004086172
-1.271999,-0.004126023
-1.272999,-0.004172005
-1.273999,-0.004208791
-1.274999,-0.004248642
-1.275999,-0.00429769
-1.276999,-0.004334475
-1.277999,-0.004380458
-1.278999,-0.004429505
-1.279999,-0.004475488
-1.280999,-0.004524535
-1.281999,-0.004579714
-1.282999,-0.004628762
-1.283999,-0.004680875
-1.284999,-0.004736054
-1.285999,-0.004794298
-1.286999,-0.004852542
-1.287999,-0.004916917
-1.288999,-0.004978227
-1.289999,-0.005039536
-1.290999,-0.005106977
-1.291999,-0.005177483
-1.292999,-0.005244924
-1.293999,-0.005321561
-1.294999,-0.005398198
-1.295999,-0.005474835
-1.296999,-0.005557603
-1.297999,-0.005640371
-1.298999,-0.005726204
-1.299999,-0.005818169
-1.300999,-0.005910133
-1.301999,-0.006002098
-1.302999,-0.006100194
-1.303999,-0.00620442
-1.304999,-0.00630558
-1.305999,-0.006412873
-1.306999,-0.006526296
-1.307999,-0.006639718
-1.308999,-0.006759272
-1.309999,-0.006881891
-1.310999,-0.007004511
-1.311999,-0.007136327
-1.312999,-0.007271208
-1.313999,-0.007403024
-1.314999,-0.007550166
-1.315999,-0.007694244
-1.316999,-0.007841388
-1.317999,-0.008000793
-1.318999,-0.008157132
-1.319999,-0.008319603
-1.320999,-0.008494335
-1.321999,-0.008662937
-1.322999,-0.008837669
-1.323999,-0.009024664
-1.324999,-0.009205527
-1.325999,-0.009395587
-1.326999,-0.009591779
-1.327999,-0.009791034
-1.328999,-0.009999488
-1.329999,-0.01020487
-1.330999,-0.01042252
-1.331999,-0.01064631
-1.332999,-0.01086702
-1.333999,-0.01109693
-1.334999,-0.01132991
-1.335999,-0.01156595
-1.336999,-0.01181119
-1.337999,-0.01205643
-1.338999,-0.01230473
-1.339999,-0.01256223
-1.340999,-0.01281667
-1.341999,-0.0130803
-1.342999,-0.013347
-1.343999,-0.01361982
-1.344999,-0.01389572
-1.345999,-0.01417468
-1.346999,-0.01445363
-1.347999,-0.01474179
-1.348999,-0.01503301
-1.349999,-0.01533036
-1.350999,-0.01563078
-1.351999,-0.01592813
-1.352999,-0.01623468
-1.353999,-0.01654736
-1.354999,-0.01685391
-1.355999,-0.01716658
-1.356999,-0.01747927
-1.357999,-0.01779501
-1.358999,-0.01811689
-1.359999,-0.01844489
-1.360999,-0.0187729
-1.361999,-0.01910397
-1.362999,-0.01943811
-1.363999,-0.01978144
-1.364999,-0.02011251
-1.365999,-0.02046198
-1.366999,-0.02080531
-1.367999,-0.02114558
-1.368999,-0.02150731
-1.369999,-0.02185064
-1.370999,-0.02220624
-1.371999,-0.02257103
-1.372999,-0.02291436
-1.373999,-0.02328222
-1.374999,-0.02364701
-1.375999,-0.02399955
-1.376999,-0.02437353
-1.377999,-0.02473526
-1.378999,-0.02509699
-1.379999,-0.02547711
-1.380999,-0.02585416
-1.381999,-0.02622508
-1.382999,-0.02660521
-1.383999,-0.02698532
-1.384999,-0.02735318
-1.385999,-0.0277425
-1.386999,-0.02812262
-1.387999,-0.0285058
-1.388999,-0.02890125
-1.389999,-0.02928444
-1.390999,-0.02966456
-1.391999,-0.03005081
-1.392999,-0.03043399
-1.393999,-0.03096021
-1.394999,-0.03132806
-1.395999,-0.03172658
-1.396999,-0.03212509
-1.397999,-0.0325236
-1.398999,-0.03292212
-1.399999,-0.03335128
-1.400999,-0.0337498
-1.401999,-0.03414831
-1.402999,-0.03454682
-1.403999,-0.03494534
-1.404999,-0.0353745
-1.405999,-0.03577302
-1.406999,-0.03617153
-1.407999,-0.03660069
-1.408999,-0.03699921
-1.409999,-0.03739772
-1.410999,-0.03782689
-1.411999,-0.0382254
-1.412999,-0.03865457
-1.413999,-0.03908373
-1.414999,-0.03948225
-1.415999,-0.03988076
-1.416999,-0.04030993
-1.417999,-0.0407391
-1.418999,-0.04113761
-1.419999,-0.04156678
-1.420999,-0.04199595
-1.421999,-0.04239446
-1.422999,-0.04282362
-1.423999,-0.04322214
-1.424999,-0.04365131
-1.425999,-0.04408047
-1.426999,-0.04447899
-1.427999,-0.04490815
-1.428999,-0.04530666
-1.429999,-0.04573583
-1.430999,-0.046165
-1.431999,-0.04656351
-1.432999,-0.04702334
-1.433999,-0.04742185
-1.434999,-0.04785102
-1.435999,-0.04831084
-1.436999,-0.04870935
-1.437999,-0.04913852
-1.438999,-0.04956769
-1.439999,-0.04999685
-1.440999,-0.05039537
-1.441999,-0.05085519
-1.442999,-0.0512537
-1.443999,-0.05168287
-1.444999,-0.05211204
-1.445999,-0.0525412
-1.446999,-0.05297038
-1.447999,-0.0534302
-1.448999,-0.05382871
-1.449999,-0.05428853
-1.450999,-0.0547177
-1.451999,-0.05514687
-1.452999,-0.05557603
-1.453999,-0.0560052
-1.454999,-0.05643437
-1.455999,-0.05686354
-1.456999,-0.05732336
-1.457999,-0.05775253
-1.458999,-0.05818169
-1.459999,-0.05861086
-1.460999,-0.05904003
-1.461999,-0.05946919
-1.462999,-0.05989837
-1.463999,-0.06032753
-1.464999,-0.06078735
-1.465999,-0.06121652
-1.466999,-0.06164569
-1.467999,-0.06207486
-1.468999,-0.06253468
-1.469999,-0.06296384
-1.470999,-0.06342367
-1.471999,-0.06385284
-1.472999,-0.064282
-1.473999,-0.06474183
-1.474999,-0.065171
-1.475999,-0.06560016
-1.476999,-0.06602933
-1.477999,-0.06648915
-1.478999,-0.06691832
-1.479999,-0.06734749
-1.480999,-0.06780731
-1.481999,-0.06823648
-1.482999,-0.0686963
-1.483999,-0.06912547
-1.484999,-0.06955463
-1.485999,-0.0699838
-1.486999,-0.07047428
-1.487999,-0.07087279
-1.488999,-0.07133261
-1.489999,-0.07176178
-1.490999,-0.0722216
-1.491999,-0.07268143
-1.492999,-0.07307994
-1.493999,-0.07353976
-1.494999,-0.07396893
-1.495999,-0.07439809
-1.496999,-0.07485792
-1.497999,-0.07528709
-1.498999,-0.07571625
-1.499999,-0.07590018
-1.499001,-0.07547101
-1.498001,-0.0750725
-1.497001,-0.07467399
-1.496001,-0.07424482
-1.495001,-0.07381566
-1.494001,-0.07341714
-1.493001,-0.07295732
-1.492001,-0.07255881
-1.491001,-0.07212964
-1.490001,-0.07166982
-1.489001,-0.07124065
-1.488001,-0.07081148
-1.487001,-0.07038232
-1.486001,-0.06992249
-1.485001,-0.06952398
-1.484001,-0.06906416
-1.483001,-0.06866565
-1.482001,-0.06823648
-1.481001,-0.06777665
-1.480001,-0.06737814
-1.479001,-0.06691832
-1.478001,-0.06648915
-1.477001,-0.06605998
-1.476001,-0.06560016
-1.475001,-0.06520165
-1.474001,-0.06477248
-1.473001,-0.06434331
-1.472001,-0.06388349
-1.471001,-0.06345432
-1.470001,-0.06302515
-1.469001,-0.06259599
-1.468001,-0.06216682
-1.467001,-0.06173765
-1.466001,-0.06130848
-1.465001,-0.06087932
-1.464001,-0.06045015
-1.463001,-0.06002098
-1.462001,-0.05959181
-1.461001,-0.05916265
-1.460001,-0.05873348
-1.459001,-0.05833497
-1.458001,-0.0579058
-1.457001,-0.05747664
-1.456001,-0.05704746
-1.455001,-0.0566183
-1.454001,-0.05618913
-1.453001,-0.05575996
-1.452001,-0.05533079
-1.451001,-0.05490163
-1.450001,-0.05450311
-1.449001,-0.05407395
-1.448001,-0.05367543
-1.447001,-0.05324627
-1.446001,-0.0528171
-1.445001,-0.05238793
-1.444001,-0.05195877
-1.443001,-0.05156025
-1.442001,-0.05113108
-1.441001,-0.05073257
-1.440001,-0.0503034
-1.439001,-0.04987423
-1.438001,-0.04947572
-1.437001,-0.04904656
-1.436001,-0.04861739
-1.435001,-0.04821887
-1.434001,-0.0477897
-1.433001,-0.04739119
-1.432001,-0.04699268
-1.431001,-0.04656351
-1.430001,-0.04613435
-1.429001,-0.04573583
-1.428001,-0.04533732
-1.427001,-0.04490815
-1.426001,-0.04450964
-1.425001,-0.04411113
-1.424001,-0.04371261
-1.423001,-0.0433141
-1.422001,-0.04291559
-1.421001,-0.04251708
-1.420001,-0.04211856
-1.419001,-0.04172005
-1.418001,-0.04132154
-1.417001,-0.04089237
-1.416001,-0.04052451
-1.415001,-0.04009534
-1.414001,-0.03969683
-1.413001,-0.03929832
-1.412001,-0.03889981
-1.411001,-0.03853195
-1.410001,-0.03813344
-1.409001,-0.03773492
-1.408001,-0.03733641
-1.407001,-0.03696856
-1.406001,-0.03657004
-1.405001,-0.03617153
-1.404001,-0.03580367
-1.403001,-0.03540516
-1.402001,-0.03500664
-1.401001,-0.03463879
-1.400001,-0.03427093
-1.399001,-0.03387242
-1.398001,-0.03350456
-1.397001,-0.0331367
-1.396001,-0.03273819
-1.395001,-0.03233967
-1.394001,-0.03197182
-1.393001,-0.03160396
-1.392001,-0.0312361
-1.391001,-0.03083759
-1.390001,-0.03050039
-1.389001,-0.03010187
-1.388001,-0.02973401
-1.387001,-0.02939681
-1.386001,-0.02902895
-1.385001,-0.0286611
-1.384001,-0.02829324
-1.383001,-0.02792538
-1.382001,-0.02758818
-1.381001,-0.02722032
-1.380001,-0.02685246
-1.379001,-0.02651526
-1.378001,-0.02617805
-1.377001,-0.02584085
-1.376001,-0.02547299
-1.375001,-0.02513579
-1.374001,-0.02476793
-1.373001,-0.02443073
-1.372001,-0.02409353
-1.371001,-0.02375632
-1.370001,-0.02341912
-1.369001,-0.02305126
-1.368001,-0.02274471
-1.367001,-0.02240751
-1.366001,-0.02207031
-1.365001,-0.02176376
-1.364001,-0.02142656
-1.363001,-0.02108935
-1.362001,-0.0207828
-1.361001,-0.02047626
-1.360001,-0.02013905
-1.359001,-0.0198325
-1.358001,-0.01952596
-1.357001,-0.01921941
-1.356001,-0.01891286
-1.355001,-0.01860631
-1.354001,-0.01829976
-1.353001,-0.01799322
-1.352001,-0.01771732
-1.351001,-0.01741077
-1.350001,-0.01713488
-1.349001,-0.01682833
-1.348001,-0.01655244
-1.347001,-0.01624589
-1.346001,-0.01597
-1.345001,-0.01580858
-1.344001,-0.01554188
-1.343001,-0.01527518
-1.342001,-0.01500235
-1.341001,-0.01474485
-1.340001,-0.01448429
-1.339001,-0.01422372
-1.338001,-0.01397235
-1.337001,-0.01372098
-1.336001,-0.01347268
-1.335001,-0.01322744
-1.334001,-0.01299446
-1.333001,-0.01276149
-1.332001,-0.01252544
-1.331001,-0.01229247
-1.330001,-0.01206869
-1.329001,-0.01184184
-1.328001,-0.01162113
-1.327001,-0.01140348
-1.326001,-0.0111889
-1.325001,-0.01097738
-1.324001,-0.01076892
-1.323001,-0.01056967
-1.322001,-0.01036428
-1.321001,-0.01016809
-1.320001,-0.009978029
-1.319001,-0.009781837
-1.318001,-0.009594844
-1.317001,-0.009410915
-1.316001,-0.009230051
-1.315001,-0.009055318
-1.314001,-0.008886717
-1.313001,-0.008711984
-1.312001,-0.008543383
-1.311001,-0.008387043
-1.310001,-0.008227638
-1.309001,-0.008068234
-1.308001,-0.00792109
-1.307001,-0.007770882
-1.306001,-0.007623739
-1.305001,-0.007485792
-1.304001,-0.007347845
-1.303001,-0.007209898
-1.302001,-0.007078082
-1.301001,-0.006949332
-1.300001,-0.006820582
-1.299001,-0.006701028
-1.298001,-0.006578409
-1.297001,-0.006461921
-1.296001,-0.006348498
-1.295001,-0.006235075
-1.294001,-0.006127783
-1.293001,-0.006026622
-1.292001,-0.00591933
-1.291001,-0.005821235
-1.290001,-0.005726204
-1.289001,-0.005628109
-1.288001,-0.005539211
-1.287001,-0.005450311
-1.286001,-0.005361412
-1.285001,-0.005278645
-1.284001,-0.005195876
-1.283001,-0.005116174
-1.282001,-0.005039536
-1.281001,-0.004965965
-1.280001,-0.004892393
-1.279001,-0.004821887
-1.278001,-0.004754446
-1.277001,-0.004683941
-1.276001,-0.004622631
-1.275001,-0.004558256
-1.274001,-0.004496946
-1.273001,-0.004438702
-1.272001,-0.004383523
-1.271001,-0.004328344
-1.270001,-0.004273166
-1.269001,-0.004224118
-1.268001,-0.004172005
-1.267001,-0.004116826
-1.266001,-0.004070844
-1.265001,-0.004027927
-1.264001,-0.00397888
-1.263001,-0.003935963
-1.262001,-0.00388998
-1.261001,-0.003847064
-1.260001,-0.003810278
-1.259001,-0.003767361
-1.258001,-0.00372751
-1.257001,-0.00369379
-1.256001,-0.003650873
-1.255001,-0.003617153
-1.254001,-0.003583432
-1.253001,-0.003546647
-1.252001,-0.003515992
-1.251001,-0.003482271
-1.250001,-0.003448551
-1.249001,-0.003417896
-1.248001,-0.003390307
-1.247001,-0.003359652
-1.246001,-0.003332063
-1.245001,-0.003304473
-1.244001,-0.003273819
-1.243001,-0.003249295
-1.242001,-0.003221706
-1.241001,-0.003191051
-1.240001,-0.003169592
-1.239001,-0.003148134
-1.238001,-0.003120545
-1.237001,-0.003099086
-1.236001,-0.003074562
-1.235001,-0.003046973
-1.234001,-0.00302858
-1.233001,-0.003004056
-1.232001,-0.002976467
-1.231001,-0.002961139
-1.230001,-0.002939681
-1.229001,-0.002915157
-1.228001,-0.00289983
-1.227001,-0.002875306
-1.226001,-0.002856913
-1.225001,-0.002841586
-1.224001,-0.002820127
-1.223001,-0.002798669
-1.222001,-0.002783341
-1.221001,-0.002764949
-1.220001,-0.002746556
-1.219001,-0.002731228
-1.218001,-0.00270977
-1.217001,-0.002694442
-1.216001,-0.002679115
-1.215001,-0.002660722
-1.214001,-0.002645395
-1.213001,-0.002627002
-1.212001,-0.00261474
-1.211001,-0.002596347
-1.210001,-0.00258102
-1.209001,-0.002565692
-1.208001,-0.002550365
-1.207001,-0.002535037
-1.206001,-0.00251971
-1.205001,-0.002504382
-1.204001,-0.00249212
-1.203001,-0.002476793
-1.202001,-0.002464531
-1.201001,-0.002452269
-1.200001,-0.002433876
-1.199001,-0.00242468
-1.198001,-0.002412418
-1.197001,-0.002394025
-1.196001,-0.002384829
-1.195001,-0.002372567
-1.194001,-0.002357239
-1.193001,-0.002344977
-1.192001,-0.002335781
-1.191001,-0.002320454
-1.190001,-0.002308191
-1.189001,-0.00229593
-1.188001,-0.002283668
-1.187001,-0.002271406
-1.186001,-0.002262209
-1.185001,-0.002249948
-1.184001,-0.002237685
-1.183001,-0.002228489
-1.182001,-0.002216227
-1.181001,-0.002203965
-1.180001,-0.002194769
-1.179001,-0.002182507
-1.178001,-0.00217331
-1.177001,-0.002164114
-1.176001,-0.002148786
-1.175001,-0.002142655
-1.174001,-0.002133459
-1.173001,-0.002121197
-1.172001,-0.002112001
-1.171001,-0.002102804
-1.170001,-0.002093608
-1.169001,-0.002084411
-1.168001,-0.002069084
-1.167001,-0.002062953
-1.166001,-0.002053756
-1.165001,-0.002041495
-1.164001,-0.002032298
-1.163001,-0.002026167
-1.162001,-0.002016971
-1.161001,-0.002007774
-1.160001,-0.001998578
-1.159001,-0.001986316
-1.158001,-0.001980185
-1.157001,-0.001970988
-1.156001,-0.001958727
-1.155001,-0.00194953
-1.154001,-0.001943399
-1.153001,-0.001934203
-1.152001,-0.001925006
-1.151001,-0.001918875
-1.150001,-0.001906613
-1.149001,-0.001900482
-1.148001,-0.00188822
-1.147001,-0.00188209
-1.146001,-0.001872893
-1.145001,-0.001863697
-1.144001,-0.0018545
-1.143001,-0.001848369
-1.142001,-0.001839173
-1.141001,-0.001833042
-1.140001,-0.00182078
-1.139001,-0.001814649
-1.138001,-0.001805453
-1.137001,-0.001796256
-1.136001,-0.001790125
-1.135001,-0.001780929
-1.134001,-0.001771732
-1.133001,-0.001765601
-1.132001,-0.001756405
-1.131001,-0.001750274
-1.130001,-0.001741077
-1.129001,-0.001731881
-1.128001,-0.00172575
-1.127001,-0.001719619
-1.126001,-0.001710422
-1.125001,-0.001704292
-1.124001,-0.001695095
-1.123001,-0.001688964
-1.122001,-0.001682833
-1.121001,-0.001673637
-1.120001,-0.001667506
-1.119001,-0.001658309
-1.118001,-0.001652178
-1.117001,-0.001646047
-1.116001,-0.001636851
-1.115001,-0.00163072
-1.114001,-0.001624589
-1.113001,-0.001615393
-1.112001,-0.001609262
-1.111001,-0.001635117
-1.110001,-0.001627453
-1.109001,-0.001621016
-1.108001,-0.001613659
-1.107001,-0.001605075
-1.106001,-0.001599557
-1.105001,-0.001590667
-1.104001,-0.001581778
-1.103001,-0.00157534
-1.102001,-0.001567983
-1.101001,-0.001559093
-1.100001,-0.001551429
-1.099001,-0.001543766
-1.098001,-0.001534569
-1.097001,-0.001527518
-1.096001,-0.001520468
-1.095001,-0.001510965
-1.094001,-0.001503914
-1.093001,-0.001496251
-1.092001,-0.001486748
-1.091001,-0.001480617
-1.090001,-0.001472953
-1.089001,-0.001463143
-1.088001,-0.001456706
-1.087001,-0.001449042
-1.086001,-0.001440765
-1.085001,-0.001434634
-1.084001,-0.001425438
-1.083001,-0.001419
-1.082001,-0.001412256
-1.081001,-0.001403366
-1.080001,-0.001396316
-1.079001,-0.001389572
-1.078001,-0.001381601
-1.077001,-0.001376084
-1.076001,-0.00136842
-1.075001,-0.001359837
-1.074001,-0.001354625
-1.073001,-0.001345122
-1.072001,-0.001341137
-1.071001,-0.001335926
-1.070001,-0.00132397
-1.069001,-0.001321825
-1.068001,-0.001313854
-1.067001,-0.001306804
-1.066001,-0.001302205
-1.065001,-0.001293929
-1.064001,-0.001287798
-1.063001,-0.0012832
-1.062001,-0.00127431
-1.061001,-0.001271857
-1.060001,-0.0012645
-1.059001,-0.001257143
-1.058001,-0.001254077
-1.057001,-0.00124764
-1.056001,-0.001240896
-1.055001,-0.001238137
-1.054001,-0.001230473
-1.053001,-0.001225262
-1.052001,-0.00122097
-1.051001,-0.001216065
-1.050001,-0.001209321
-1.049001,-0.001205336
-1.048001,-0.001200431
-1.047001,-0.001193687
-1.046001,-0.001189396
-1.045001,-0.001186024
-1.044001,-0.001178053
-1.043001,-0.001174375
-1.042001,-0.001169164
-1.041001,-0.001162113
-1.040001,-0.001161193
-1.039001,-0.00115261
-1.038001,-0.001148318
-1.037001,-0.001146785
-1.036001,-0.001137896
-1.035001,-0.001134524
-1.034001,-0.001131151
-1.033001,-0.001122262
-1.032001,-0.001119503
-1.031001,-0.001116744
-1.030001,-0.00110816
-1.029001,-0.001104175
-1.028001,-0.001099271
-1.027001,-0.001092833
-1.026001,-0.001090381
-1.025001,-0.001086702
-1.024001,-0.001076892
-1.023001,-0.001076279
-1.022001,-0.001070761
-1.021001,-0.001062791
-1.020001,-0.001059726
-1.019001,-0.001056967
-1.018001,-0.00104961
-1.017001,-0.001046544
-1.016001,-0.001040413
-1.015001,-0.001035815
-1.014001,-0.001030297
-1.013001,-0.001026925
-1.012001,-0.001019874
-1.011001,-0.001016196
-1.010001,-0.001011904
-1.009001,-0.001004854
-1.008001,-0.001001788
-1.007001,-0.0009978029
-1.006001,-0.0009907524
-1.005001,-0.0009901392
-1.004001,-0.0009821691
-1.003001,-0.0009763446
-1.002001,-0.0009754249
-1.001001,-0.0009668416
-1.000001,-0.000963163
-0.9990011,-0.0009607106
-0.9980011,-0.0009530469
-0.9970011,-0.0009499814
-0.9960011,-0.000944157
-0.9950011,-0.000937413
-0.9940011,-0.0009358802
-0.9930011,-0.0009306689
-0.9920011,-0.0009245379
-0.9910011,-0.0009202462
-0.9900011,-0.0009150349
-0.9890011,-0.0009107432
-0.9880011,-0.0009058384
-0.9870011,-0.0009015468
-0.9860011,-0.0008960289
-0.9850011,-0.0008902045
-0.9840011,-0.0008868325
-0.9830011,-0.0008816211
-0.9820011,-0.000877023
-0.9810011,-0.0008718116
-0.9800011,-0.0008653741
-0.9790011,-0.0008632282
-0.9780011,-0.0008577104
-0.9770011,-0.0008503532
-0.9760011,-0.000849127
-0.9750011,-0.0008420764
-0.9740011,-0.0008365586
-0.9730011,-0.0008337997
-0.9720011,-0.0008270555
-0.9710011,-0.0008218443
-0.9700011,-0.0008190853
-0.9690011,-0.0008120347
-0.9680011,-0.0008074365
-0.9670011,-0.0008040644
-0.9660011,-0.0007979335
-0.9650011,-0.0007933353
-0.9640011,-0.0007875108
-0.9630011,-0.0007829126
-0.9620011,-0.0007786209
-0.9610011,-0.0007731031
-0.9600011,-0.0007681983
-0.9590011,-0.0007639066
-0.9580011,-0.0007580822
-0.9570011,-0.0007540971
-0.9560011,-0.0007488858
-0.9550011,-0.0007436744
-0.9540011,-0.0007390762
-0.9530011,-0.0007344779
-0.9520011,-0.0007292667
-0.9510011,-0.0007243619
-0.9500011,-0.0007194571
-0.9490011,-0.0007142458
-0.9480011,-0.0007090345
-0.9470011,-0.0007041298
-0.9460011,-0.0006992249
-0.9450011,-0.0006937071
-0.9440011,-0.0006891088
-0.9430011,-0.000683591
-0.9420011,-0.0006783796
-0.9410011,-0.0006731683
-0.9400011,-0.0006676505
-0.9390011,-0.0006627457
-0.9380011,-0.0006575344
-0.9370011,-0.0006520165
-0.9360011,-0.0006477248
-0.9350011,-0.0006415938
-0.9340011,-0.0006363826
-0.9330011,-0.0006317843
-0.9320011,-0.0006247337
-0.9310011,-0.0006201355
-0.9300011,-0.0006158438
-0.9290011,-0.0006090997
-0.9280011,-0.0006045015
-0.9270011,-0.0005992902
-0.9260011,-0.0005928527
-0.9250011,-0.000588561
-0.9240011,-0.0005827366
-0.9230011,-0.0005772187
-0.9220011,-0.0005717009
-0.9210011,-0.0005667961
-0.9200011,-0.0005606651
-0.9190011,-0.0005557603
-0.9180011,-0.0005496293
-0.9170011,-0.0005444181
-0.9160011,-0.0005385936
-0.9150011,-0.0005333824
-0.9140011,-0.0005275579
-0.9130011,-0.0005223466
-0.9120011,-0.0005165222
-0.9110011,-0.0005103912
-0.9100011,-0.0005054864
-0.9090011,-0.0004993554
-0.9080011,-0.000492918
-0.9070011,-0.0004883197
-0.9060011,-0.0004824953
-0.9050011,-0.0004760578
-0.9040011,-0.0004717661
-0.9030011,-0.0004650221
-0.9020011,-0.0004588911
-0.9010011,-0.0004539863
-0.9000011,-0.0004466292
-0.8990011,-0.0004411113
-0.8980011,-0.0004362065
-0.8970011,-0.0004294625
-0.8960011,-0.0004239446
-0.8950011,-0.0004187333
-0.8940011,-0.0004113761
-0.8930011,-0.0004061648
-0.8920011,-0.0004000338
-0.8910011,-0.0003939029
-0.8900011,-0.0003880784
-0.8890011,-0.0003810278
-0.8880011,-0.0003773492
-0.8870011,-0.0003702986
-0.8860011,-0.0003629415
-0.8850011,-0.0003595694
-0.8840011,-0.0003512927
-0.8830011,-0.0003454682
-0.8820011,-0.0003417897
-0.8810011,-0.0003338194
-0.8800011,-0.0003283015
-0.8790011,-0.0003227837
-0.8780011,-0.0003160396
-0.8770011,-0.0003102152
-0.8760011,-0.0003037777
-0.8750011,-0.0002979533
-0.8740011,-0.0002924354
-0.8730011,-0.0002859978
-0.8720011,-0.0002795603
-0.8710011,-0.0002749621
-0.8700011,-0.0002676049
-0.8690011,-0.000261474
-0.8680011,-0.000255343
-0.8670011,-0.0002492121
-0.8660011,-0.0002436942
-0.8650011,-0.0002372567
-0.8640011,-0.0002314323
-0.8630011,-0.0002246882
-0.8620011,-0.0002191703
-0.8610011,-0.0002136525
-0.8600011,-0.0002056822
-0.8590011,-0.0002001643
-0.8580011,-0.0001958727
-0.8570011,-0.0001897417
-0.8560011,-0.0001836107
-0.8550011,-0.0001768667
-0.8540011,-0.0001713488
-0.8530011,-0.0001658309
-0.8520011,-0.0001590869
-0.8510011,-0.0001529559
-0.8500011,-0.000147438
-0.8490011,-0.0001441685
-0.8480011,-0.000139325
-0.8470011,-0.0001339604
-0.8460011,-0.0001265726
-0.8450011,-0.0001217598
-0.8440011,-0.0001165791
-0.8430011,-0.00010913
-0.8420011,-0.000104777
-0.8410011,-9.879933E-05
-0.8400011,-9.168741E-05
-0.8390011,-8.779425E-05
-0.8380011,-8.046775E-05
-0.8370011,-7.596148E-05
-0.8360011,-7.12713E-05
-0.8350011,-6.464986E-05
-0.8340011,-5.937723E-05
-0.8330011,-5.361412E-05
-0.8320011,-4.687006E-05
-0.8310011,-4.196529E-05
-0.8300011,-3.715248E-05
-0.8290011,-3.126675E-05
-0.8280011,-2.495186E-05
-0.8270011,-2.023102E-05
-0.8260011,-1.431464E-05
-0.8250011,-8.3676E-06
-0.8240011,-3.646757E-06
-0.8230011,4.276465E-06
-0.8220011,8.721415E-06
-0.8210011,1.204851E-05
-0.8200011,1.955895E-05
-0.8190011,2.480092E-05
-0.8180011,2.884736E-05
-0.8170011,3.657238E-05
-0.8160011,4.098667E-05
-0.8150011,4.628995E-05
-0.8140011,5.254354E-05
-0.8130011,5.622211E-05
-0.8120011,6.198522E-05
-0.8110011,6.882125E-05
-0.8100011,7.335816E-05
-0.8090011,7.869211E-05
-0.8080011,8.417932E-05
-0.8070011,8.890016E-05
-0.8060011,9.478589E-05
-0.8050011,9.996655E-05
-0.8040011,0.0001051472
-0.8030011,0.0001098987
-0.8020011,0.0001149261
-0.8010011,0.0001207812
