EXPID. 1017
[电化学]: CV : -0.8 >> -0.8 >> -1.5 >> -0.8(V) @ 0.01(V/s) X 10(Seg)
起始电位 (V),-0.8
上限电位 (V),-0.8
下限电位 (V),-1.5
终止电位 (V),-0.8
扫速 (V/s),0.01
电解液 信息:
KOH,1
-0.8,-0.08141805
-0.801,-0.07252815
-0.802,-0.06642784
-0.803,-0.06210551
-0.804,-0.05882544
-0.805,-0.05615847
-0.806,-0.05395133
-0.807,-0.05205073
-0.808,-0.05036471
-0.809,-0.04877066
-0.81,-0.04720726
-0.811,-0.04567453
-0.812,-0.04420309
-0.813,-0.04282362
-0.814,-0.04153612
-0.815,-0.04024862
-0.816,-0.03899177
-0.817,-0.03776558
-0.818,-0.03653939
-0.819,-0.03531319
-0.82,-0.03411765
-0.821,-0.03292212
-0.822,-0.03175723
-0.823,-0.030623
-0.824,-0.02951943
-0.825,-0.02844651
-0.826,-0.02740425
-0.827,-0.02642329
-0.828,-0.02544234
-0.829,-0.02452269
-0.83,-0.0236337
-0.831,-0.02274471
-0.832,-0.02194769
-0.833,-0.02115066
-0.834,-0.02041495
-0.835,-0.01967923
-0.836,-0.01900483
-0.837,-0.01833042
-0.838,-0.01771732
-0.839,-0.01710423
-0.84,-0.01649113
-0.841,-0.01593934
-0.842,-0.0154959
-0.843,-0.01496863
-0.844,-0.01447203
-0.845,-0.01397235
-0.846,-0.01349414
-0.847,-0.01303738
-0.848,-0.01257449
-0.849,-0.01214839
-0.85,-0.01173455
-0.851,-0.01133604
-0.852,-0.01096511
-0.853,-0.01061565
-0.854,-0.01026618
-0.855,-0.009944309
-0.856,-0.009634695
-0.857,-0.009331211
-0.858,-0.009049187
-0.859,-0.008779425
-0.86,-0.008512728
-0.861,-0.00827362
-0.862,-0.008028382
-0.863,-0.007798471
-0.864,-0.007586952
-0.865,-0.007372369
-0.866,-0.007176178
-0.867,-0.006989183
-0.868,-0.006799124
-0.869,-0.006630522
-0.87,-0.006464986
-0.871,-0.00629945
-0.872,-0.006152307
-0.873,-0.006008229
-0.874,-0.005864152
-0.875,-0.005735401
-0.876,-0.00560665
-0.877,-0.005480966
-0.878,-0.005370609
-0.879,-0.005260251
-0.88,-0.005149893
-0.881,-0.005054864
-0.882,-0.004953703
-0.883,-0.004858673
-0.884,-0.004775905
-0.885,-0.004693137
-0.886,-0.004613434
-0.887,-0.004542928
-0.888,-0.004472422
-0.889,-0.004408047
-0.89,-0.004346738
-0.891,-0.004291559
-0.892,-0.00423638
-0.893,-0.004187332
-0.894,-0.00414135
-0.895,-0.004098434
-0.896,-0.004058582
-0.897,-0.004024862
-0.898,-0.003985011
-0.899,-0.003957421
-0.9,-0.003929832
-0.901,-0.003902242
-0.902,-0.00388385
-0.903,-0.003862391
-0.904,-0.003840933
-0.905,-0.003828671
-0.906,-0.003810278
-0.907,-0.003798016
-0.908,-0.003791885
-0.909,-0.003782689
-0.91,-0.003773492
-0.911,-0.003770427
-0.912,-0.003764296
-0.913,-0.003764296
-0.914,-0.00376123
-0.915,-0.00376123
-0.916,-0.003764296
-0.917,-0.003764296
-0.918,-0.003773492
-0.919,-0.003779623
-0.92,-0.003782689
-0.921,-0.003791885
-0.922,-0.003807213
-0.923,-0.003807213
-0.924,-0.003828671
-0.925,-0.003834802
-0.926,-0.003847064
-0.927,-0.003862391
-0.928,-0.003874653
-0.929,-0.00388385
-0.93,-0.003902242
-0.931,-0.003914505
-0.932,-0.003929832
-0.933,-0.003948225
-0.934,-0.003963552
-0.935,-0.003981945
-0.936,-0.004000338
-0.937,-0.004015665
-0.938,-0.004034058
-0.939,-0.004055517
-0.94,-0.004073909
-0.941,-0.004092303
-0.942,-0.004113761
-0.943,-0.004135219
-0.944,-0.004150547
-0.945,-0.00417507
-0.946,-0.004190398
-0.947,-0.004211857
-0.948,-0.004233315
-0.949,-0.004251707
-0.95,-0.004276231
-0.951,-0.004294624
-0.952,-0.004316083
-0.953,-0.004337541
-0.954,-0.004358999
-0.955,-0.004377393
-0.956,-0.004398851
-0.957,-0.004417243
-0.958,-0.004438702
-0.959,-0.004463226
-0.96,-0.004475488
-0.961,-0.004503077
-0.962,-0.004524535
-0.963,-0.004536797
-0.964,-0.004561321
-0.965,-0.004582779
-0.966,-0.004595041
-0.967,-0.0046165
-0.968,-0.004634893
-0.969,-0.004647155
-0.97,-0.004668613
-0.971,-0.004687006
-0.972,-0.004702333
-0.973,-0.004723792
-0.974,-0.004742185
-0.975,-0.004751381
-0.976,-0.004769774
-0.977,-0.004788167
-0.978,-0.004797364
-0.979,-0.004821887
-0.98,-0.00484028
-0.981,-0.004846411
-0.982,-0.004870935
-0.983,-0.004880131
-0.984,-0.004886262
-0.985,-0.004907721
-0.986,-0.004919983
-0.987,-0.004926114
-0.988,-0.004944507
-0.989,-0.004956769
-0.99,-0.004965965
-0.991,-0.004978227
-0.992,-0.004990489
-0.993,-0.00499662
-0.994,-0.005011947
-0.995,-0.005021143
-0.996,-0.00503034
-0.997,-0.005042602
-0.998,-0.005051799
-0.999,-0.00505793
-1,-0.005070191
-1.001,-0.005079388
-1.002,-0.005085519
-1.003,-0.005097781
-1.004,-0.005103912
-1.005,-0.005106977
-1.006,-0.005119239
-1.007,-0.005128435
-1.008,-0.005131501
-1.009,-0.005143763
-1.01,-0.005149893
-1.011,-0.005149893
-1.012,-0.005162156
-1.013,-0.005168287
-1.014,-0.005168287
-1.015,-0.005180549
-1.016,-0.005180549
-1.017,-0.00518668
-1.018,-0.005195876
-1.019,-0.005195876
-1.02,-0.005195876
-1.021,-0.005208138
-1.022,-0.005211203
-1.023,-0.005211203
-1.024,-0.005223466
-1.025,-0.005223466
-1.026,-0.005223466
-1.027,-0.005235727
-1.028,-0.005232662
-1.029,-0.005235727
-1.03,-0.005241858
-1.031,-0.005238793
-1.032,-0.005244924
-1.033,-0.00525412
-1.034,-0.005247989
-1.035,-0.00525412
-1.036,-0.005257186
-1.037,-0.00525412
-1.038,-0.005263316
-1.039,-0.005266382
-1.04,-0.005263316
-1.041,-0.005269447
-1.042,-0.005266382
-1.043,-0.005266382
-1.044,-0.005275579
-1.045,-0.005272513
-1.046,-0.005269447
-1.047,-0.00528171
-1.048,-0.005275579
-1.049,-0.00528171
-1.05,-0.005284776
-1.051,-0.00528171
-1.052,-0.005284776
-1.053,-0.005287841
-1.054,-0.005278645
-1.055,-0.005290906
-1.056,-0.005290906
-1.057,-0.005284776
-1.058,-0.005290906
-1.059,-0.005293972
-1.06,-0.005284776
-1.061,-0.005287841
-1.062,-0.005293972
-1.063,-0.005290906
-1.064,-0.005293972
-1.065,-0.005300103
-1.066,-0.005290906
-1.067,-0.005297037
-1.068,-0.005293972
-1.069,-0.005290906
-1.07,-0.005293972
-1.071,-0.005293972
-1.072,-0.005287841
-1.073,-0.005293972
-1.074,-0.005290906
-1.075,-0.005287841
-1.076,-0.005293972
-1.077,-0.005290906
-1.078,-0.00528171
-1.079,-0.005287841
-1.08,-0.005284776
-1.081,-0.005278645
-1.082,-0.00528171
-1.083,-0.005278645
-1.084,-0.005272513
-1.085,-0.005275579
-1.086,-0.005272513
-1.087,-0.005266382
-1.088,-0.005266382
-1.089,-0.005266382
-1.09,-0.005257186
-1.091,-0.005257186
-1.092,-0.00525412
-1.093,-0.005244924
-1.094,-0.005244924
-1.095,-0.005241858
-1.096,-0.005235727
-1.097,-0.005232662
-1.098,-0.005229597
-1.099,-0.005223466
-1.1,-0.0052204
-1.101,-0.005217335
-1.102,-0.005211203
-1.103,-0.005208138
-1.104,-0.005205072
-1.105,-0.005195876
-1.106,-0.005192811
-1.107,-0.005192811
-1.108,-0.005183614
-1.109,-0.005177483
-1.11,-0.005174418
-1.111,-0.005168287
-1.112,-0.005162156
-1.113,-0.005162156
-1.114,-0.005152959
-1.115,-0.005146828
-1.116,-0.005146828
-1.117,-0.005137632
-1.118,-0.005134566
-1.119,-0.005131501
-1.12,-0.005122304
-1.121,-0.005116174
-1.122,-0.005116174
-1.123,-0.005106977
-1.124,-0.005103912
-1.125,-0.005100846
-1.126,-0.005094715
-1.127,-0.005094715
-1.128,-0.00509165
-1.129,-0.005079388
-1.13,-0.005079388
-1.131,-0.005073257
-1.132,-0.005067126
-1.133,-0.005067126
-1.134,-0.00506406
-1.135,-0.00505793
-1.136,-0.00505793
-1.137,-0.005048733
-1.138,-0.005045668
-1.139,-0.005045668
-1.14,-0.005039536
-1.141,-0.005033405
-1.142,-0.005033405
-1.143,-0.005027275
-1.144,-0.005027275
-1.145,-0.005027275
-1.146,-0.005018078
-1.147,-0.005015012
-1.148,-0.005015012
-1.149,-0.005008881
-1.15,-0.005005816
-1.151,-0.005005816
-1.152,-0.004999685
-1.153,-0.00499662
-1.154,-0.004999685
-1.155,-0.004993554
-1.156,-0.004987423
-1.157,-0.004987423
-1.158,-0.004990489
-1.159,-0.004981292
-1.16,-0.004984358
-1.161,-0.004981292
-1.162,-0.004975162
-1.163,-0.004975162
-1.164,-0.004969031
-1.165,-0.0049629
-1.166,-0.004965965
-1.167,-0.0049629
-1.168,-0.004956769
-1.169,-0.004956769
-1.17,-0.004953703
-1.171,-0.004947572
-1.172,-0.004947572
-1.173,-0.004944507
-1.174,-0.004938376
-1.175,-0.004938376
-1.176,-0.004932245
-1.177,-0.004926114
-1.178,-0.004929179
-1.179,-0.004923048
-1.18,-0.004916917
-1.181,-0.004910786
-1.182,-0.004916917
-1.183,-0.004898524
-1.184,-0.004907721
-1.185,-0.00490159
-1.186,-0.004892393
-1.187,-0.004892393
-1.188,-0.004883197
-1.189,-0.004874
-1.19,-0.004877066
-1.191,-0.004867869
-1.192,-0.004861739
-1.193,-0.004861739
-1.194,-0.004855608
-1.195,-0.004849477
-1.196,-0.004846411
-1.197,-0.00484028
-1.198,-0.004831084
-1.199,-0.004837214
-1.2,-0.004824953
-1.201,-0.004815756
-1.202,-0.004818822
-1.203,-0.00480656
-1.204,-0.004803495
-1.205,-0.004800429
-1.206,-0.004791233
-1.207,-0.004791233
-1.208,-0.004785101
-1.209,-0.004782036
-1.21,-0.004775905
-1.211,-0.004769774
-1.212,-0.004766709
-1.213,-0.004763643
-1.214,-0.004754446
-1.215,-0.004748316
-1.216,-0.004748316
-1.217,-0.004742185
-1.218,-0.004736054
-1.219,-0.004736054
-1.22,-0.004726857
-1.221,-0.004717661
-1.222,-0.004720726
-1.223,-0.00471153
-1.224,-0.004705399
-1.225,-0.004708464
-1.226,-0.004693137
-1.227,-0.004699268
-1.228,-0.004690072
-1.229,-0.004680875
-1.23,-0.004680875
-1.231,-0.00467781
-1.232,-0.004665548
-1.233,-0.004668613
-1.234,-0.004662482
-1.235,-0.004656351
-1.236,-0.004653286
-1.237,-0.00465022
-1.238,-0.004641024
-1.239,-0.004637958
-1.24,-0.004637958
-1.241,-0.004631828
-1.242,-0.004628762
-1.243,-0.004619565
-1.244,-0.004622631
-1.245,-0.004613434
-1.246,-0.004607304
-1.247,-0.004607304
-1.248,-0.004601172
-1.249,-0.004595041
-1.25,-0.004598107
-1.251,-0.00458891
-1.252,-0.00458891
-1.253,-0.004585845
-1.254,-0.004579714
-1.255,-0.004573583
-1.256,-0.004576649
-1.257,-0.004567452
-1.258,-0.004564387
-1.259,-0.004561321
-1.26,-0.004558256
-1.261,-0.00455519
-1.262,-0.00455519
-1.263,-0.004542928
-1.264,-0.004539863
-1.265,-0.004542928
-1.266,-0.004533732
-1.267,-0.004536797
-1.268,-0.004536797
-1.269,-0.004524535
-1.27,-0.004524535
-1.271,-0.004524535
-1.272,-0.004515339
-1.273,-0.004515339
-1.274,-0.004512274
-1.275,-0.004509208
-1.276,-0.004506143
-1.277,-0.004506143
-1.278,-0.004496946
-1.279,-0.004503077
-1.28,-0.004500012
-1.281,-0.004490815
-1.282,-0.004493881
-1.283,-0.004484684
-1.284,-0.004484684
-1.285,-0.004484684
-1.286,-0.004478553
-1.287,-0.004478553
-1.288,-0.004478553
-1.289,-0.004472422
-1.29,-0.004469357
-1.291,-0.004475488
-1.292,-0.004463226
-1.293,-0.004466291
-1.294,-0.004466291
-1.295,-0.004454029
-1.296,-0.004457095
-1.297,-0.00446016
-1.298,-0.004450964
-1.299,-0.004454029
-1.3,-0.004454029
-1.301,-0.004444833
-1.302,-0.004444833
-1.303,-0.004447898
-1.304,-0.004438702
-1.305,-0.004441767
-1.306,-0.004444833
-1.307,-0.004435637
-1.308,-0.004438702
-1.309,-0.004435637
-1.31,-0.004432571
-1.311,-0.004435637
-1.312,-0.004429505
-1.313,-0.004429505
-1.314,-0.004432571
-1.315,-0.00442644
-1.316,-0.004423374
-1.317,-0.00442644
-1.318,-0.00442644
-1.319,-0.004423374
-1.32,-0.004423374
-1.321,-0.004423374
-1.322,-0.004417243
-1.323,-0.004423374
-1.324,-0.004420309
-1.325,-0.004414178
-1.326,-0.004417243
-1.327,-0.004417243
-1.328,-0.004411113
-1.329,-0.004420309
-1.33,-0.004417243
-1.331,-0.004414178
-1.332,-0.004417243
-1.333,-0.004417243
-1.334,-0.004411113
-1.335,-0.004417243
-1.336,-0.004414178
-1.337,-0.004411113
-1.338,-0.004417243
-1.339,-0.004414178
-1.34,-0.004411113
-1.341,-0.004414178
-1.342,-0.004414178
-1.343,-0.004411113
-1.344,-0.004414178
-1.345,-0.004417243
-1.346,-0.004411113
-1.347,-0.004417243
-1.348,-0.004417243
-1.349,-0.004414178
-1.35,-0.004420309
-1.351,-0.004417243
-1.352,-0.004417243
-1.353,-0.004423374
-1.354,-0.004423374
-1.355,-0.004423374
-1.356,-0.00442644
-1.357,-0.004423374
-1.358,-0.00442644
-1.359,-0.00442644
-1.36,-0.004429505
-1.361,-0.004429505
-1.362,-0.004435637
-1.363,-0.004435637
-1.364,-0.004441767
-1.365,-0.004444833
-1.366,-0.004444833
-1.367,-0.004447898
-1.368,-0.004454029
-1.369,-0.004450964
-1.37,-0.004457095
-1.371,-0.00446016
-1.372,-0.004463226
-1.373,-0.004469357
-1.374,-0.004469357
-1.375,-0.004472422
-1.376,-0.004481619
-1.377,-0.004484684
-1.378,-0.00448775
-1.379,-0.004493881
-1.38,-0.004500012
-1.381,-0.004506143
-1.382,-0.004512274
-1.383,-0.00452147
-1.384,-0.004524535
-1.385,-0.004530666
-1.386,-0.004539863
-1.387,-0.004542928
-1.388,-0.00455519
-1.389,-0.004564387
-1.39,-0.004567452
-1.391,-0.004582779
-1.392,-0.004591976
-1.393,-0.004595041
-1.394,-0.004613434
-1.395,-0.004622631
-1.396,-0.004628762
-1.397,-0.00465022
-1.398,-0.004656351
-1.399,-0.004671679
-1.4,-0.004687006
-1.401,-0.004696202
-1.402,-0.00471153
-1.403,-0.004729923
-1.404,-0.00474525
-1.405,-0.004766709
-1.406,-0.004785101
-1.407,-0.004797364
-1.408,-0.004821887
-1.409,-0.004846411
-1.41,-0.004861739
-1.411,-0.004892393
-1.412,-0.004910786
-1.413,-0.00493531
-1.414,-0.004969031
-1.415,-0.004990489
-1.416,-0.005021143
-1.417,-0.005060995
-1.418,-0.005088584
-1.419,-0.005119239
-1.42,-0.005159091
-1.421,-0.005198942
-1.422,-0.005232662
-1.423,-0.005272513
-1.424,-0.005318495
-1.425,-0.005358347
-1.426,-0.005404329
-1.427,-0.005453377
-1.428,-0.005508556
-1.429,-0.005560669
-1.43,-0.005621978
-1.431,-0.005677157
-1.432,-0.005741532
-1.433,-0.005808973
-1.434,-0.005879479
-1.435,-0.005949985
-1.436,-0.006026622
-1.437,-0.006103259
-1.438,-0.006189092
-1.439,-0.006274926
-1.44,-0.00636689
-1.441,-0.006464986
-1.442,-0.006560016
-1.443,-0.006667308
-1.444,-0.006780731
-1.445,-0.006888022
-1.446,-0.007007576
-1.447,-0.007136327
-1.448,-0.007262012
-1.449,-0.007399958
-1.45,-0.007547101
-1.451,-0.007681982
-1.452,-0.007844454
-1.453,-0.008000793
-1.454,-0.008163263
-1.455,-0.008337996
-1.456,-0.008518859
-1.457,-0.008699723
-1.458,-0.008892848
-1.459,-0.009098236
-1.46,-0.009300557
-1.461,-0.009512075
-1.462,-0.009738921
-1.463,-0.009965767
-1.464,-0.01020181
-1.465,-0.01045318
-1.466,-0.01069842
-1.467,-0.01095898
-1.468,-0.01123181
-1.469,-0.01150464
-1.47,-0.01178973
-1.471,-0.01208708
-1.472,-0.01238137
-1.473,-0.01268792
-1.474,-0.01300673
-1.475,-0.01332247
-1.476,-0.01365354
-1.477,-0.01398768
-1.478,-0.01432488
-1.479,-0.01467435
-1.48,-0.01503914
-1.481,-0.0153978
-1.482,-0.01576873
-1.483,-0.01615498
-1.484,-0.01654123
-1.485,-0.01693054
-1.486,-0.01733825
-1.487,-0.01774596
-1.488,-0.01815674
-1.489,-0.01858284
-1.49,-0.01900281
-1.491,-0.01943198
-1.492,-0.01986728
-1.493,-0.02029644
-1.494,-0.02073787
-1.495,-0.02119156
-1.496,-0.02163606
-1.497,-0.02208668
-1.498,-0.02254957
-1.499,-0.0230094
-1.5,-0.02331594
-1.499,-0.02332514
-1.498,-0.02330368
-1.497,-0.02329142
-1.496,-0.02327609
-1.495,-0.02322704
-1.494,-0.02319639
-1.493,-0.02315347
-1.492,-0.02309216
-1.491,-0.02304311
-1.49,-0.02298794
-1.489,-0.0229113
-1.488,-0.02284692
-1.487,-0.02277642
-1.486,-0.02269672
-1.485,-0.02262621
-1.484,-0.02255264
-1.483,-0.02246067
-1.482,-0.02239017
-1.481,-0.02230127
-1.48,-0.02220317
-1.479,-0.02211427
-1.478,-0.02201618
-1.477,-0.02190276
-1.476,-0.02180466
-1.475,-0.0217035
-1.474,-0.02159927
-1.473,-0.02148891
-1.472,-0.02138776
-1.471,-0.02127127
-1.47,-0.02116704
-1.469,-0.02105668
-1.468,-0.02092793
-1.467,-0.02081757
-1.466,-0.02069496
-1.465,-0.0205754
-1.464,-0.02045585
-1.463,-0.0203271
-1.462,-0.02020141
-1.461,-0.02008492
-1.46,-0.01995004
-1.459,-0.01982436
-1.458,-0.01968948
-1.457,-0.0195454
-1.456,-0.01941665
-1.455,-0.01928177
-1.454,-0.01914382
-1.453,-0.01900894
-1.452,-0.01887099
-1.451,-0.01872998
-1.45,-0.01859817
-1.449,-0.01845409
-1.448,-0.01830694
-1.447,-0.01817206
-1.446,-0.01804331
-1.445,-0.01789311
-1.444,-0.01774903
-1.443,-0.01760801
-1.442,-0.01745781
-1.441,-0.01731373
-1.44,-0.01716352
-1.439,-0.01701944
-1.438,-0.01687537
-1.437,-0.01672822
-1.436,-0.01657495
-1.435,-0.01643087
-1.434,-0.01627453
-1.433,-0.01612432
-1.432,-0.01598638
-1.431,-0.01583004
-1.43,-0.01567676
-1.429,-0.01553268
-1.428,-0.01537941
-1.427,-0.0152292
-1.426,-0.01508512
-1.425,-0.01492878
-1.424,-0.01478164
-1.423,-0.0146345
-1.422,-0.01448429
-1.421,-0.01433715
-1.42,-0.01419
-1.419,-0.01403673
-1.418,-0.01388959
-1.417,-0.01374551
-1.416,-0.01359836
-1.415,-0.01345122
-1.414,-0.01330408
-1.413,-0.01315387
-1.412,-0.01300673
-1.411,-0.01286571
-1.41,-0.01272164
-1.409,-0.01257756
-1.408,-0.01243655
-1.407,-0.0122894
-1.406,-0.01215146
-1.405,-0.01201044
-1.404,-0.01186943
-1.403,-0.01173149
-1.402,-0.01159354
-1.401,-0.01144946
-1.4,-0.01131458
-1.399,-0.01118276
-1.398,-0.01103869
-1.397,-0.010913
-1.396,-0.01077505
-1.395,-0.01064324
-1.394,-0.01051755
-1.393,-0.0103888
-1.392,-0.01025392
-1.391,-0.0101313
-1.39,-0.01000255
-1.389,-0.009873803
-1.388,-0.009748118
-1.387,-0.009631629
-1.386,-0.009505944
-1.385,-0.00938639
-1.384,-0.009269902
-1.383,-0.009147284
-1.382,-0.009030795
-1.381,-0.008914307
-1.38,-0.008800884
-1.379,-0.008690527
-1.378,-0.008577104
-1.377,-0.008466746
-1.376,-0.00836252
-1.375,-0.008249097
-1.374,-0.00814487
-1.373,-0.008043709
-1.372,-0.007933352
-1.371,-0.007835257
-1.37,-0.007737161
-1.369,-0.007632935
-1.368,-0.007537905
-1.367,-0.00744594
-1.366,-0.007344779
-1.365,-0.007255881
-1.364,-0.007166982
-1.363,-0.007068886
-1.362,-0.006986118
-1.361,-0.006894153
-1.36,-0.006811386
-1.359,-0.006725552
-1.358,-0.006645849
-1.357,-0.006563081
-1.356,-0.006483379
-1.355,-0.006406742
-1.354,-0.00632704
-1.353,-0.006250402
-1.352,-0.006182961
-1.351,-0.006106324
-1.35,-0.006035818
-1.349,-0.005968377
-1.348,-0.005900937
-1.347,-0.005833496
-1.346,-0.005766056
-1.345,-0.005701681
-1.344,-0.005640371
-1.343,-0.005575996
-1.342,-0.005514686
-1.341,-0.005456442
-1.34,-0.005398198
-1.339,-0.005339954
-1.338,-0.005287841
-1.337,-0.005232662
-1.336,-0.005174418
-1.335,-0.00512537
-1.334,-0.005073257
-1.333,-0.005021143
-1.332,-0.004975162
-1.331,-0.004929179
-1.33,-0.004877066
-1.329,-0.004834149
-1.328,-0.004788167
-1.327,-0.004739119
-1.326,-0.004699268
-1.325,-0.004659417
-1.324,-0.004613434
-1.323,-0.004579714
-1.322,-0.004539863
-1.321,-0.004496946
-1.32,-0.004463226
-1.319,-0.004423374
-1.318,-0.004389654
-1.317,-0.004355934
-1.316,-0.004316083
-1.315,-0.004285428
-1.314,-0.004257839
-1.313,-0.004221053
-1.312,-0.004190398
-1.311,-0.004162808
-1.31,-0.004132153
-1.309,-0.004098434
-1.308,-0.004067779
-1.307,-0.004040189
-1.306,-0.0040126
-1.305,-0.003985011
-1.304,-0.003957421
-1.303,-0.003929832
-1.302,-0.003908373
-1.301,-0.003880784
-1.3,-0.00385626
-1.299,-0.003834802
-1.298,-0.003807213
-1.297,-0.00378882
-1.296,-0.003767361
-1.295,-0.003739772
-1.294,-0.003724444
-1.293,-0.003699921
-1.292,-0.003675397
-1.291,-0.003657004
-1.29,-0.003635545
-1.289,-0.003614087
-1.288,-0.003595694
-1.287,-0.003574236
-1.286,-0.003555843
-1.285,-0.003540515
-1.284,-0.003515992
-1.283,-0.003500664
-1.282,-0.003485337
-1.281,-0.003466944
-1.28,-0.003448551
-1.279,-0.003436289
-1.278,-0.003414831
-1.277,-0.003402569
-1.276,-0.003387242
-1.275,-0.003365783
-1.274,-0.003353521
-1.273,-0.003335128
-1.272,-0.003319801
-1.271,-0.003307539
-1.27,-0.003292212
-1.269,-0.003273819
-1.268,-0.003261557
-1.267,-0.003246229
-1.266,-0.003233967
-1.265,-0.00321864
-1.264,-0.003206378
-1.263,-0.003187985
-1.262,-0.003178789
-1.261,-0.003163461
-1.26,-0.003148134
-1.259,-0.003142003
-1.258,-0.00312361
-1.257,-0.003114413
-1.256,-0.003102152
-1.255,-0.003089889
-1.254,-0.003077628
-1.253,-0.003065366
-1.252,-0.003046973
-1.251,-0.003037777
-1.25,-0.003025514
-1.249,-0.003013253
-1.248,-0.003004056
-1.247,-0.002988729
-1.246,-0.002979532
-1.245,-0.002970336
-1.244,-0.002955008
-1.243,-0.002945812
-1.242,-0.002936616
-1.241,-0.002921288
-1.24,-0.002912092
-1.239,-0.002905961
-1.238,-0.002887568
-1.237,-0.002881437
-1.236,-0.00287224
-1.235,-0.002853847
-1.234,-0.002844651
-1.233,-0.00283852
-1.232,-0.002826258
-1.231,-0.002817062
-1.23,-0.002807865
-1.229,-0.002792538
-1.228,-0.002783341
-1.227,-0.002774145
-1.226,-0.002764949
-1.225,-0.002755752
-1.224,-0.002746556
-1.223,-0.002731228
-1.222,-0.002728163
-1.221,-0.002715901
-1.22,-0.002706704
-1.219,-0.002700574
-1.218,-0.002688312
-1.217,-0.002672984
-1.216,-0.002669919
-1.215,-0.002657657
-1.214,-0.00264846
-1.213,-0.002639264
-1.212,-0.002630068
-1.211,-0.002617805
-1.21,-0.00261474
-1.209,-0.002602478
-1.208,-0.002590216
-1.207,-0.002587151
-1.206,-0.002574889
-1.205,-0.002562626
-1.204,-0.002556496
-1.203,-0.002544234
-1.202,-0.002538103
-1.201,-0.002531972
-1.2,-0.00251971
-1.199,-0.002513579
-1.198,-0.002507448
-1.197,-0.002495186
-1.196,-0.00248599
-1.195,-0.002479859
-1.194,-0.002470662
-1.193,-0.002461466
-1.192,-0.002455335
-1.191,-0.002443073
-1.19,-0.002436942
-1.189,-0.002433876
-1.188,-0.002418549
-1.187,-0.002415484
-1.186,-0.002406287
-1.185,-0.002397091
-1.184,-0.00239096
-1.183,-0.002384829
-1.182,-0.002369501
-1.181,-0.002369501
-1.18,-0.002357239
-1.179,-0.002351108
-1.178,-0.002344977
-1.177,-0.002332716
-1.176,-0.002326585
-1.175,-0.002323519
-1.174,-0.002311257
-1.173,-0.002308191
-1.172,-0.002302061
-1.171,-0.002289799
-1.17,-0.002286733
-1.169,-0.002280602
-1.168,-0.002271406
-1.167,-0.002265275
-1.166,-0.002262209
-1.165,-0.002249948
-1.164,-0.002243817
-1.163,-0.002237685
-1.162,-0.002225423
-1.161,-0.002222358
-1.16,-0.002216227
-1.159,-0.002210096
-1.158,-0.002207031
-1.157,-0.002194769
-1.156,-0.002188638
-1.155,-0.002182507
-1.154,-0.00217331
-1.153,-0.002170245
-1.152,-0.002164114
-1.151,-0.002154917
-1.15,-0.002151852
-1.149,-0.002145721
-1.148,-0.002133459
-1.147,-0.002130394
-1.146,-0.002124263
-1.145,-0.002115066
-1.144,-0.002112001
-1.143,-0.00210587
-1.142,-0.002096673
-1.141,-0.002090542
-1.14,-0.002081346
-1.139,-0.002075215
-1.138,-0.002072149
-1.137,-0.002062953
-1.136,-0.002059887
-1.135,-0.002053756
-1.134,-0.00204456
-1.133,-0.002038429
-1.132,-0.002035364
-1.131,-0.002026167
-1.13,-0.002020036
-1.129,-0.002016971
-1.128,-0.002007774
-1.127,-0.002001643
-1.126,-0.001998578
-1.125,-0.001986316
-1.124,-0.00198325
-1.123,-0.00197712
-1.122,-0.001970988
-1.121,-0.001967923
-1.12,-0.001961792
-1.119,-0.001952596
-1.118,-0.00194953
-1.117,-0.001940334
-1.116,-0.001934203
-1.115,-0.001928072
-1.114,-0.001918875
-1.113,-0.001912744
-1.112,-0.001912744
-1.111,-0.001900482
-1.11,-0.001900482
-1.109,-0.001894351
-1.108,-0.001885155
-1.107,-0.001879024
-1.106,-0.001872893
-1.105,-0.001863697
-1.104,-0.001860631
-1.103,-0.0018545
-1.102,-0.001845304
-1.101,-0.001842238
-1.1,-0.001833042
-1.099,-0.001826911
-1.098,-0.001823845
-1.097,-0.001814649
-1.096,-0.001808518
-1.095,-0.001805453
-1.094,-0.001796256
-1.093,-0.001790125
-1.092,-0.001783994
-1.091,-0.001777863
-1.09,-0.001768667
-1.089,-0.001765601
-1.088,-0.001756405
-1.087,-0.001750274
-1.086,-0.001744143
-1.085,-0.001738012
-1.084,-0.001728815
-1.083,-0.001728815
-1.082,-0.001716554
-1.081,-0.001713488
-1.08,-0.001707357
-1.079,-0.001698161
-1.078,-0.001695095
-1.077,-0.001685899
-1.076,-0.001679768
-1.075,-0.001676702
-1.074,-0.001667506
-1.073,-0.001661375
-1.072,-0.001658309
-1.071,-0.001649113
-1.07,-0.001646047
-1.069,-0.001636851
-1.068,-0.00163072
-1.067,-0.001627655
-1.066,-0.001618458
-1.065,-0.001646153
-1.064,-0.001644926
-1.063,-0.001637569
-1.062,-0.001630212
-1.061,-0.001628066
-1.06,-0.001617031
-1.059,-0.001614272
-1.058,-0.001608447
-1.057,-0.001598944
-1.056,-0.001594653
-1.055,-0.001590974
-1.054,-0.001581778
-1.053,-0.001579019
-1.052,-0.001573194
-1.051,-0.001565224
-1.05,-0.001560626
-1.049,-0.001556641
-1.048,-0.00154867
-1.047,-0.001543766
-1.046,-0.00153978
-1.045,-0.001530584
-1.044,-0.001527212
-1.043,-0.001522614
-1.042,-0.001515563
-1.041,-0.001510658
-1.04,-0.001504834
-1.039,-0.001496864
-1.038,-0.001493492
-1.037,-0.001487667
-1.036,-0.001480003
-1.035,-0.001476325
-1.034,-0.001468661
-1.033,-0.001463756
-1.032,-0.001460997
-1.031,-0.001451801
-1.03,-0.001447816
-1.029,-0.001445057
-1.028,-0.001434941
-1.027,-0.001433715
-1.026,-0.001427584
-1.025,-0.001419307
-1.024,-0.001416241
-1.023,-0.001410417
-1.022,-0.001402447
-1.021,-0.001400301
-1.02,-0.00139325
-1.019,-0.001387119
-1.018,-0.001383747
-1.017,-0.001376697
-1.016,-0.001371792
-1.015,-0.001367807
-1.014,-0.00135953
-1.013,-0.001355545
-1.012,-0.00135064
-1.011,-0.001343896
-1.01,-0.001339298
-1.009,-0.001334087
-1.008,-0.001327342
-1.007,-0.00132397
-1.006,-0.001317839
-1.005,-0.001310482
-1.004,-0.001307417
-1.003,-0.00129914
-1.002,-0.001293316
-1.001,-0.00129117
-1,-0.0012832
-0.9990003,-0.001278295
-0.9980002,-0.001276762
-0.9970002,-0.001267259
-0.9960002,-0.001262048
-0.9950002,-0.00125745
-0.9940003,-0.001251012
-0.9930002,-0.001244574
-0.9920002,-0.001240283
-0.9910002,-0.001235071
-0.9900002,-0.00122986
-0.9890002,-0.001224036
-0.9880002,-0.001215146
-0.9870002,-0.00121392
-0.9860002,-0.00120503
-0.9850003,-0.001199512
-0.9840002,-0.001195833
-0.9830002,-0.001187863
-0.9820002,-0.001181119
-0.9810002,-0.001178053
-0.9800002,-0.001170083
-0.9790002,-0.001164565
-0.9780002,-0.0011615
-0.9770002,-0.001151997
-0.9760002,-0.001146172
-0.9750002,-0.001144027
-0.9740002,-0.001136669
-0.9730002,-0.001130232
-0.9720002,-0.001124714
-0.9710003,-0.001118583
-0.9700002,-0.001111226
-0.9690002,-0.001106628
-0.9680002,-0.001099884
-0.9670002,-0.001094366
-0.9660002,-0.001087928
-0.9650002,-0.00108241
-0.9640002,-0.001075666
-0.9630002,-0.001070455
-0.9620003,-0.001062791
-0.9610002,-0.001058193
-0.9600002,-0.001052062
-0.9590002,-0.001044092
-0.9580002,-0.001039494
-0.9570003,-0.001034589
-0.9560002,-0.001026005
-0.9550002,-0.001021101
-0.9540002,-0.001015276
-0.9530002,-0.001005467
-0.9520002,-0.001002708
-0.9510002,-0.0009956572
-0.9500002,-0.0009876869
-0.9490002,-0.0009827821
-0.9480003,-0.0009769576
-0.9470002,-0.0009686808
-0.9460002,-0.000963163
-0.9450002,-0.000957032
-0.9440002,-0.0009493683
-0.9430002,-0.0009432373
-0.9420002,-0.0009380261
-0.9410002,-0.0009303623
-0.9400002,-0.0009239248
-0.9390002,-0.0009181004
-0.9380002,-0.0009101302
-0.9370002,-0.0009039992
-0.9360002,-0.0008981748
-0.9350002,-0.0008892849
-0.9340003,-0.0008834605
-0.9330002,-0.0008791688
-0.9320002,-0.0008693592
-0.9310002,-0.0008644544
-0.9300002,-0.000858017
-0.9290002,-0.0008482074
-0.9280002,-0.0008442223
-0.9270002,-0.0008377847
-0.9260002,-0.0008282817
-0.9250003,-0.0008236835
-0.9240002,-0.0008157133
-0.9230002,-0.0008086627
-0.9220002,-0.0008031448
-0.9210002,-0.0007939483
-0.9200003,-0.0007881239
-0.9190002,-0.000782606
-0.9180002,-0.0007731031
-0.9170002,-0.0007678918
-0.9160002,-0.0007608412
-0.9150002,-0.0007528709
-0.9140002,-0.0007461268
-0.9130002,-0.0007387697
-0.9120002,-0.0007317191
-0.9110003,-0.0007237488
-0.9100002,-0.000718231
-0.9090002,-0.0007102606
-0.9080002,-0.0007022904
-0.9070002,-0.0006961594
-0.9060002,-0.0006888023
-0.9050002,-0.0006805255
-0.9040002,-0.0006753142
-0.9030002,-0.0006667308
-0.9020002,-0.0006587606
-0.9010002,-0.0006532427
-0.9000002,-0.0006446594
-0.8990002,-0.0006369957
-0.8980002,-0.0006330105
-0.8970003,-0.0006235075
-0.8960002,-0.0006140045
-0.8950002,-0.000610326
-0.8940002,-0.0006005164
-0.8930002,-0.0005925461
-0.8920002,-0.000588561
-0.8910002,-0.0005769122
-0.8900002,-0.0005726205
-0.8890002,-0.0005658764
-0.8880002,-0.0005569865
-0.8870002,-0.0005502424
-0.8860002,-0.0005431919
-0.8850002,-0.0005339954
-0.8840002,-0.0005278645
-0.8830003,-0.0005198942
-0.8820002,-0.0005119239
-0.8810002,-0.0005045668
-0.8800002,-0.0004981293
-0.8790002,-0.0004892393
-0.8780002,-0.0004828018
-0.8770002,-0.0004757512
-0.8760002,-0.0004656352
-0.8750002,-0.0004595042
-0.8740003,-0.0004533732
-0.8730002,-0.0004441768
-0.8720002,-0.0004386589
-0.8710002,-0.0004291559
-0.8700002,-0.0004217988
-0.8690003,-0.0004144416
-0.8680002,-0.0004049386
-0.8670002,-0.0003988076
-0.8660002,-0.000391757
-0.8650002,-0.0003831737
-0.8640002,-0.0003764296
-0.8630002,-0.0003681528
-0.8620002,-0.0003601825
-0.8610002,-0.0003528254
-0.8600003,-0.0003448552
-0.8590002,-0.0003362718
-0.8580002,-0.0003289146
-0.8570002,-0.0003206378
-0.8560002,-0.0003129741
-0.8550002,-0.0003068431
-0.8540002,-0.0002973401
-0.8530002,-0.0002909026
-0.8520002,-0.0002829324
-0.8510002,-0.0002740425
-0.8500002,-0.0002672984
-0.8490002,-0.0002584085
-0.8480002,-0.0002498252
-0.8470002,-0.0002430811
-0.8460003,-0.0002338847
-0.8450002,-0.0002262209
-0.8440002,-0.0002182507
-0.8430002,-0.0002087477
-0.8420002,-0.000201084
-0.8410002,-0.0001940334
-0.8400002,-0.0001842238
-0.8390002,-0.0001768667
-0.8380002,-0.0001682833
-0.8370003,-0.0001603131
-0.8360002,-0.0001505035
-0.8350002,-0.0001443726
-0.8340002,-0.0001371485
-0.8330002,-0.0001281667
-0.8320003,-0.0001213
-0.8310002,-0.0001122262
-0.8300002,-0.0001037041
-0.8290002,-9.643891E-05
-0.8280002,-8.659872E-05
-0.8270002,-7.997728E-05
-0.8260002,-7.047428E-05
-0.8250002,-6.189093E-05
-0.8240002,-5.419656E-05
-0.8230003,-4.46016E-05
-0.8220002,-3.647808E-05
-0.8210002,-2.955008E-05
-0.8200002,-1.906613E-05
-0.8190002,-9.3179E-06
-0.8180002,-2.297945E-06
-0.8170002,7.664874E-06
-0.8160002,1.594168E-05
-0.8150002,2.366669E-05
-0.8140002,3.350689E-05
-0.8130002,4.144649E-05
-0.8120002,5.00605E-05
-0.8110002,5.96248E-05
-0.8100002,6.728851E-05
-0.8090003,7.504418E-05
-0.8080002,8.497635E-05
-0.8070002,9.3621E-05
-0.8060002,0.0001018058
-0.8050002,0.0001106038
-0.8040002,0.0001196163
-0.8030002,0.0001269428
-0.8020002,0.0001369056
-0.8010002,0.000146194
-0.8000003,9.349838E-05
-0.8009998,2.195002E-05
-0.8019998,-2.498252E-05
-0.8029998,-6.645849E-05
-0.8039998,-0.0001011904
-0.8049998,-0.0001323664
-0.8059998,-0.0001614885
-0.8069998,-0.0001900894
-0.8079998,-0.0002138776
-0.8089998,-0.0002390758
-0.8099998,-0.000262772
-0.8109998,-0.0002848435
-0.8119998,-0.0003034711
-0.8129998,-0.0003240099
-0.8139998,-0.0003433224
-0.8149998,-0.0003629415
-0.8159998,-0.0003801082
-0.8169998,-0.0004000338
-0.8179998,-0.0004172005
-0.8189998,-0.0004346738
-0.8199998,-0.000452147
-0.8209998,-0.0004662482
-0.8219998,-0.0004831084
-0.8229998,-0.0004990489
-0.8239998,-0.000512537
-0.8249998,-0.0005293972
-0.8259998,-0.0005422722
-0.8269998,-0.0005572931
-0.8279998,-0.0005723139
-0.8289998,-0.0005845759
-0.8299998,-0.0005989837
-0.8309998,-0.0006133915
-0.8319998,-0.0006241206
-0.8329998,-0.0006385284
-0.8339998,-0.0006507903
-0.8349998,-0.000661213
-0.8359998,-0.0006762338
-0.8369998,-0.0006875761
-0.8379998,-0.0006976922
-0.8389998,-0.0007111803
-0.8399998,-0.0007234422
-0.8409998,-0.0007326387
-0.8419998,-0.0007464333
-0.8429998,-0.0007565495
-0.8439998,-0.0007672787
-0.8449998,-0.0007786209
-0.8459998,-0.0007881239
-0.8469998,-0.0007997728
-0.8479998,-0.0008114216
-0.8489998,-0.0008212312
-0.8499998,-0.0008319604
-0.8509998,-0.000842383
-0.8519998,-0.0008515794
-0.8529998,-0.0008620021
-0.8539998,-0.000874264
-0.8549998,-0.0008825408
-0.8559998,-0.0008929634
-0.8569998,-0.0009046123
-0.8579998,-0.0009107432
-0.8589998,-0.0009230052
-0.8599998,-0.0009315885
-0.8609998,-0.0009417046
-0.8619998,-0.0009515142
-0.8629998,-0.0009607106
-0.8639998,-0.0009696006
-0.8649998,-0.0009809429
-0.8659998,-0.000988913
-0.8669998,-0.0009987226
-0.8679998,-0.001008226
-0.8689998,-0.001015276
-0.8699998,-0.001024779
-0.8709998,-0.001036122
-0.8719998,-0.001042559
-0.8729998,-0.001052062
-0.8739998,-0.001062178
-0.8749998,-0.001068616
-0.8759998,-0.001077812
-0.8769998,-0.001087622
-0.8779998,-0.001094672
-0.8789998,-0.001103256
-0.8799998,-0.001112759
-0.8809998,-0.001120116
-0.8819998,-0.001128086
-0.8829998,-0.001136976
-0.8839998,-0.001145866
-0.8849998,-0.001154143
-0.8859998,-0.001160887
-0.8869998,-0.001167631
-0.8879998,-0.00117744
-0.8889998,-0.001183571
-0.8899998,-0.001191848
-0.8909998,-0.001200431
-0.8919998,-0.001206869
-0.8929998,-0.00121392
-0.8939998,-0.001221583
-0.8949998,-0.001228327
-0.8959998,-0.001235378
-0.8969998,-0.001244574
-0.8979998,-0.001249479
-0.8989998,-0.00125653
-0.8999998,-0.001265726
-0.9009998,-0.001270324
-0.9019998,-0.001276455
-0.9029998,-0.001285345
-0.9039998,-0.00129117
-0.9049998,-0.001298527
-0.9059998,-0.001305577
-0.9069998,-0.001310176
-0.9079998,-0.001319372
-0.9089998,-0.001323664
-0.9099998,-0.001330714
-0.9109998,-0.001338685
-0.9119998,-0.001342976
-0.9129998,-0.001350947
-0.9139998,-0.001357384
-0.9149998,-0.001360756
-0.9159998,-0.001369646
-0.9169998,-0.001375164
-0.9179998,-0.00137731
-0.9189998,-0.00138528
-0.9199998,-0.001391717
-0.9209998,-0.001395703
-0.9219998,-0.001403366
-0.9229998,-0.001410417
-0.9239998,-0.001412563
-0.9249998,-0.001418387
-0.9259998,-0.001426664
-0.9269998,-0.001426971
-0.9279998,-0.001436474
-0.9289998,-0.001442298
-0.9299998,-0.00144567
-0.9309998,-0.001452108
-0.9319998,-0.001456706
-0.9329998,-0.001460997
-0.9339998,-0.001468048
-0.9349998,-0.00147234
-0.9359998,-0.001476938
-0.9369998,-0.001483989
-0.9379998,-0.001487054
-0.9389998,-0.001491039
-0.9399998,-0.001498703
-0.9409998,-0.001500849
-0.9419998,-0.001507286
-0.9429998,-0.001512804
-0.9439998,-0.00151495
-0.9449998,-0.00152384
-0.9459998,-0.001527518
-0.9469998,-0.001532117
-0.9479998,-0.001537941
-0.9489998,-0.001541006
-0.9499998,-0.001546218
-0.9509998,-0.001552042
-0.9519998,-0.001554495
-0.9529998,-0.001560013
-0.9539998,-0.001565224
-0.9549998,-0.001568596
-0.9559998,-0.001572888
-0.9569998,-0.001579019
-0.9579998,-0.001582084
-0.9589998,-0.001586069
-0.9599998,-0.001592507
-0.9609998,-0.001594653
-0.9619998,-0.001599557
-0.9629998,-0.001604769
-0.9639998,-0.001608754
-0.9649998,-0.001611819
-0.9659998,-0.001618563
-0.9669998,-0.001621935
-0.9679998,-0.001624388
-0.9689998,-0.001631438
-0.9699998,-0.001634504
-0.9709998,-0.001636956
-0.9719998,-0.0016437
-0.9729998,-0.001647072
-0.9739998,-0.001649831
-0.9749998,-0.001657495
-0.9759998,-0.001659947
-0.9769998,-0.001663013
-0.9779998,-0.001668837
-0.9789998,-0.001669757
-0.9799998,-0.001678034
-0.9809998,-0.001683245
-0.9819998,-0.001682019
-0.9829998,-0.001691828
-0.9839998,-0.001695507
-0.9849998,-0.001696427
-0.9859998,-0.00170409
-0.9869998,-0.001707156
-0.9879998,-0.001707462
-0.9889998,-0.001715739
-0.9899998,-0.001719724
-0.9909998,-0.00172187
-0.9919998,-0.001730147
-0.9929998,-0.001734745
-0.9939998,-0.001732906
-0.9949998,-0.001743022
-0.9959998,-0.001745168
-0.9969998,-0.00174762
-0.9979998,-0.001754977
-0.9989998,-0.001757123
-0.9999998,-0.001760495
-1.001,-0.001767852
-1.002,-0.001769692
-1.003,-0.001773983
-1.004,-0.001779808
-1.005,-0.001780727
-1.006,-0.001787778
-1.007,-0.001791457
-1.008,-0.001795135
-1.009,-0.001801573
-1.01,-0.001804945
-1.011,-0.001806784
-1.012,-0.001815061
-1.013,-0.001817513
-1.014,-0.001820579
-1.015,-0.001827016
-1.016,-0.001827323
-1.017,-0.001834986
-1.018,-0.001841424
-1.019,-0.001843263
-1.02,-0.001846942
-1.021,-0.001854605
-1.022,-0.001853992
-1.023,-0.001860736
-1.024,-0.001867174
-1.025,-0.00186932
-1.026,-0.001875144
-1.027,-0.001879742
-1.028,-0.001881275
-1.029,-0.001887713
-1.03,-0.00189323
-1.031,-0.001894457
-1.032,-0.001901201
-1.033,-0.001908251
-1.034,-0.001906412
-1.035,-0.001914382
-1.036,-0.001918981
-1.037,-0.00192174
-1.038,-0.00192787
-1.039,-0.001931243
-1.04,-0.001933388
-1.041,-0.001941972
-1.042,-0.001944424
-1.043,-0.00194749
-1.044,-0.001955153
-1.045,-0.001958525
-1.046,-0.001961591
-1.047,-0.001968948
-1.048,-0.0019714
-1.049,-0.001975692
-1.05,-0.001981823
-1.051,-0.001985501
-1.052,-0.001989487
-1.053,-0.001995618
-1.054,-0.001997764
-1.055,-0.002001749
-1.056,-0.002009719
-1.057,-0.002013397
-1.058,-0.002016156
-1.059,-0.002020754
-1.06,-0.002029644
-1.061,-0.002029031
-1.062,-0.002037615
-1.063,-0.002040987
-1.064,-0.002044665
-1.065,-0.002051103
-1.066,-0.002054168
-1.067,-0.002058154
-1.068,-0.002066124
-1.069,-0.002067656
-1.07,-0.002075013
-1.071,-0.002079918
-1.072,-0.002082064
-1.073,-0.002088195
-1.074,-0.002094633
-1.075,-0.002097698
-1.076,-0.002103216
-1.077,-0.002109654
-1.078,-0.002112412
-1.079,-0.002117624
-1.08,-0.002123755
-1.081,-0.002127127
-1.082,-0.002132644
-1.083,-0.002138776
-1.084,-0.002143374
-1.085,-0.002147972
-1.086,-0.002154409
-1.087,-0.002159008
-1.088,-0.002163606
-1.089,-0.002169737
-1.09,-0.002173416
-1.091,-0.002178933
-1.092,-0.002185984
-1.093,-0.002189356
-1.094,-0.002197633
-1.095,-0.002201924
-1.096,-0.002206216
-1.097,-0.002211121
-1.098,-0.00222185
-1.099,-0.002223077
-1.1,-0.002232886
-1.101,-0.002238097
-1.102,-0.00223871
-1.103,-0.002250359
-1.104,-0.002252505
-1.105,-0.002259862
-1.106,-0.002268446
-1.107,-0.002273044
-1.108,-0.002278562
-1.109,-0.002286532
-1.11,-0.002289904
-1.111,-0.0022991
-1.112,-0.002304005
-1.113,-0.002308297
-1.114,-0.002316267
-1.115,-0.002320559
-1.116,-0.00232669
-1.117,-0.00233558
-1.118,-0.002337726
-1.119,-0.002345389
-1.12,-0.002352746
-1.121,-0.002355812
-1.122,-0.002364702
-1.123,-0.0023693
-1.124,-0.00237022
-1.125,-0.002382175
-1.126,-0.002386773
-1.127,-0.002387386
-1.128,-0.002398116
-1.129,-0.002401487
-1.13,-0.002404246
-1.131,-0.002414363
-1.132,-0.002415895
-1.133,-0.002418961
-1.134,-0.002427851
-1.135,-0.002431836
-1.136,-0.002433675
-1.137,-0.002441339
-1.138,-0.002442565
-1.139,-0.002448696
-1.14,-0.002457892
-1.141,-0.00245544
-1.142,-0.00246341
-1.143,-0.002470154
-1.144,-0.002469848
-1.145,-0.002477818
-1.146,-0.002482723
-1.147,-0.002479964
-1.148,-0.002487934
-1.149,-0.002496211
-1.15,-0.002493758
-1.151,-0.002502035
-1.152,-0.002508473
-1.153,-0.00250694
-1.154,-0.002513684
-1.155,-0.002516443
-1.156,-0.002518896
-1.157,-0.002525946
-1.158,-0.002528705
-1.159,-0.002533916
-1.16,-0.00254066
-1.161,-0.002541273
-1.162,-0.002547098
-1.163,-0.002553842
-1.164,-0.002556294
-1.165,-0.00255936
-1.166,-0.00256825
-1.167,-0.002571009
-1.168,-0.002574994
-1.169,-0.002581125
-1.17,-0.002581431
-1.171,-0.002588482
-1.172,-0.00259308
-1.173,-0.002598291
-1.174,-0.002605649
-1.175,-0.002607794
-1.176,-0.002613619
-1.177,-0.002618524
-1.178,-0.002620976
-1.179,-0.00262864
-1.18,-0.002633851
-1.181,-0.00263661
-1.182,-0.002642435
-1.183,-0.002648259
-1.184,-0.002648259
-1.185,-0.002657455
-1.186,-0.002662667
-1.187,-0.002666345
-1.188,-0.002677381
-1.189,-0.002680446
-1.19,-0.002681673
-1.191,-0.00268903
-1.192,-0.002692708
-1.193,-0.002698839
-1.194,-0.002707729
-1.195,-0.002710795
-1.196,-0.002716925
-1.197,-0.002724589
-1.198,-0.002730414
-1.199,-0.002733479
-1.2,-0.002742063
-1.201,-0.002747274
-1.202,-0.002753405
-1.203,-0.002761682
-1.204,-0.0027672
-1.205,-0.002773024
-1.206,-0.002781914
-1.207,-0.002786205
-1.208,-0.00279203
-1.209,-0.002801533
-1.21,-0.002807051
-1.211,-0.002814101
-1.212,-0.002825444
-1.213,-0.002826976
-1.214,-0.002834947
-1.215,-0.002841078
-1.216,-0.002845983
-1.217,-0.002856712
-1.218,-0.002865908
-1.219,-0.0028702
-1.22,-0.002879703
-1.221,-0.002887366
-1.222,-0.002893497
-1.223,-0.002899935
-1.224,-0.002914343
-1.225,-0.002918021
-1.226,-0.002929364
-1.227,-0.002937027
-1.228,-0.002941319
-1.229,-0.002955727
-1.23,-0.002960938
-1.231,-0.002968602
-1.232,-0.00298117
-1.233,-0.002988221
-1.234,-0.002995271
-1.235,-0.003006307
-1.236,-0.002976467
-1.237,-0.002988729
-1.238,-0.003000991
-1.239,-0.003007122
-1.24,-0.003013253
-1.241,-0.00302858
-1.242,-0.003031645
-1.243,-0.003043907
-1.244,-0.003059235
-1.245,-0.0030623
-1.246,-0.003077628
-1.247,-0.003089889
-1.248,-0.003096021
-1.249,-0.003108283
-1.25,-0.003120545
-1.251,-0.003129741
-1.252,-0.003145068
-1.253,-0.003154265
-1.254,-0.003163461
-1.255,-0.003178789
-1.256,-0.003191051
-1.257,-0.003200247
-1.258,-0.003215575
-1.259,-0.003227836
-1.26,-0.003237033
-1.261,-0.003255426
-1.262,-0.003267688
-1.263,-0.003276884
-1.264,-0.003295277
-1.265,-0.003307539
-1.266,-0.003319801
-1.267,-0.003338194
-1.268,-0.003353521
-1.269,-0.003362718
-1.27,-0.00338111
-1.271,-0.003396438
-1.272,-0.003411765
-1.273,-0.003430158
-1.274,-0.003445486
-1.275,-0.003460813
-1.276,-0.003479206
-1.277,-0.003494533
-1.278,-0.003509861
-1.279,-0.003531319
-1.28,-0.003549712
-1.281,-0.003568105
-1.282,-0.003589563
-1.283,-0.003601825
-1.284,-0.003629415
-1.285,-0.003644742
-1.286,-0.0036662
-1.287,-0.003684593
-1.288,-0.003712183
-1.289,-0.003730575
-1.29,-0.003755099
-1.291,-0.003779623
-1.292,-0.003801082
-1.293,-0.003825605
-1.294,-0.003853195
-1.295,-0.003874653
-1.296,-0.003902242
-1.297,-0.003932897
-1.298,-0.003957421
-1.299,-0.003988076
-1.3,-0.004018731
-1.301,-0.00404632
-1.302,-0.004076975
-1.303,-0.004113761
-1.304,-0.00414135
-1.305,-0.004178136
-1.306,-0.004214922
-1.307,-0.004251707
-1.308,-0.004288493
-1.309,-0.004328344
-1.31,-0.00436513
-1.311,-0.004408047
-1.312,-0.004450964
-1.313,-0.004490815
-1.314,-0.004536797
-1.315,-0.00458891
-1.316,-0.004634893
-1.317,-0.004683941
-1.318,-0.004739119
-1.319,-0.004794298
-1.32,-0.004852542
-1.321,-0.004910786
-1.322,-0.004965965
-1.323,-0.00503034
-1.324,-0.005097781
-1.325,-0.005162156
-1.326,-0.005229597
-1.327,-0.005306234
-1.328,-0.005379805
-1.329,-0.005456442
-1.33,-0.005536145
-1.331,-0.005621978
-1.332,-0.005710877
-1.333,-0.00579671
-1.334,-0.005891741
-1.335,-0.005986771
-1.336,-0.006084866
-1.337,-0.006186027
-1.338,-0.006293319
-1.339,-0.006406742
-1.34,-0.006517099
-1.341,-0.006636653
-1.342,-0.006759272
-1.343,-0.006881891
-1.344,-0.007013707
-1.345,-0.007151654
-1.346,-0.007286535
-1.347,-0.007433678
-1.348,-0.007577756
-1.349,-0.007727965
-1.35,-0.00788737
-1.351,-0.00804984
-1.352,-0.008212311
-1.353,-0.008387043
-1.354,-0.008558711
-1.355,-0.008739574
-1.356,-0.008929634
-1.357,-0.009113563
-1.358,-0.009306688
-1.359,-0.009512075
-1.36,-0.009714398
-1.361,-0.009919784
-1.362,-0.0101405
-1.363,-0.01035508
-1.364,-0.01057886
-1.365,-0.01081491
-1.366,-0.01104175
-1.367,-0.01128086
-1.368,-0.0115261
-1.369,-0.01176827
-1.37,-0.01202271
-1.371,-0.01228327
-1.372,-0.01254384
-1.373,-0.01281053
-1.374,-0.01308336
-1.375,-0.01335006
-1.376,-0.01363209
-1.377,-0.01391104
-1.378,-0.01419307
-1.379,-0.01448735
-1.38,-0.01477858
-1.381,-0.01507593
-1.382,-0.01538248
-1.383,-0.01568289
-1.384,-0.01599251
-1.385,-0.01630825
-1.386,-0.0166148
-1.387,-0.01693974
-1.388,-0.01725855
-1.389,-0.01759269
-1.39,-0.01792376
-1.391,-0.01825177
-1.392,-0.01857977
-1.393,-0.01892617
-1.394,-0.01925724
-1.395,-0.01960671
-1.396,-0.01995924
-1.397,-0.02029951
-1.398,-0.0206551
-1.399,-0.02100457
-1.4,-0.02135403
-1.401,-0.02171576
-1.402,-0.02207442
-1.403,-0.02243002
-1.404,-0.02279788
-1.405,-0.0231596
-1.406,-0.02351826
-1.407,-0.02389225
-1.408,-0.02425705
-1.409,-0.02463103
-1.41,-0.02500502
-1.411,-0.02537901
-1.412,-0.025753
-1.413,-0.02613006
-1.414,-0.02650404
-1.415,-0.02687803
-1.416,-0.02726735
-1.417,-0.02764441
-1.418,-0.02802759
-1.419,-0.02842304
-1.42,-0.02879089
-1.421,-0.02917102
-1.422,-0.0295634
-1.423,-0.02994658
-1.424,-0.0303267
-1.425,-0.03080693
-1.426,-0.03120545
-1.427,-0.03160396
-1.428,-0.03197182
-1.429,-0.03237033
-1.43,-0.03276884
-1.431,-0.03316735
-1.432,-0.03356587
-1.433,-0.03396438
-1.434,-0.03433224
-1.435,-0.03473075
-1.436,-0.03512926
-1.437,-0.03549712
-1.438,-0.03589563
-1.439,-0.03629415
-1.44,-0.036662
-1.441,-0.03706052
-1.442,-0.03745903
-1.443,-0.03782689
-1.444,-0.0382254
-1.445,-0.03862391
-1.446,-0.03899177
-1.447,-0.03939028
-1.448,-0.0397888
-1.449,-0.04015666
-1.45,-0.04058582
-1.451,-0.04098434
-1.452,-0.04138285
-1.453,-0.04175071
-1.454,-0.04214922
-1.455,-0.04251708
-1.456,-0.04291559
-1.457,-0.04328345
-1.458,-0.04368196
-1.459,-0.04408047
-1.46,-0.04441768
-1.461,-0.04481619
-1.462,-0.0452147
-1.463,-0.04558256
-1.464,-0.04595042
-1.465,-0.04631827
-1.466,-0.04668614
-1.467,-0.04708464
-1.468,-0.04745251
-1.469,-0.04782036
-1.47,-0.04824953
-1.471,-0.04861739
-1.472,-0.04898525
-1.473,-0.04938376
-1.474,-0.04975162
-1.475,-0.05015013
-1.476,-0.05054864
-1.477,-0.0509165
-1.478,-0.05131501
-1.479,-0.05171353
-1.48,-0.05208138
-1.481,-0.05247989
-1.482,-0.05284775
-1.483,-0.05324627
-1.484,-0.05364478
-1.485,-0.05401264
-1.486,-0.05441115
-1.487,-0.05480966
-1.488,-0.05517752
-1.489,-0.05557603
-1.49,-0.05597454
-1.491,-0.0563424
-1.492,-0.05674092
-1.493,-0.05710877
-1.494,-0.05747664
-1.495,-0.05787515
-1.496,-0.05827365
-1.497,-0.05861086
-1.498,-0.05904003
-1.499,-0.05940789
-1.5,-0.0595305
-1.499,-0.05916265
-1.498,-0.05876414
-1.497,-0.05839628
-1.496,-0.05799776
-1.495,-0.05759925
-1.494,-0.05720074
-1.493,-0.05680222
-1.492,-0.05640372
-1.491,-0.0560052
-1.49,-0.05560669
-1.489,-0.05520818
-1.488,-0.05480966
-1.487,-0.0543805
-1.486,-0.05401264
-1.485,-0.05361412
-1.484,-0.05318496
-1.483,-0.05278645
-1.482,-0.05238793
-1.481,-0.05198942
-1.48,-0.05159091
-1.479,-0.05119239
-1.478,-0.05079388
-1.477,-0.05042602
-1.476,-0.05002751
-1.475001,-0.049629
-1.474,-0.04926114
-1.473,-0.04886262
-1.472,-0.04849477
-1.471,-0.04809625
-1.47,-0.04769774
-1.469,-0.04732988
-1.468,-0.04693137
-1.467,-0.04656351
-1.466,-0.04619566
-1.465,-0.04576649
-1.464,-0.04542929
-1.463,-0.04503077
-1.462,-0.04466292
-1.461,-0.0442644
-1.46,-0.0439272
-1.459,-0.04352869
-1.458,-0.04316083
-1.457,-0.04279297
-1.456,-0.04242511
-1.455,-0.04205726
-1.454,-0.0416894
-1.453,-0.04129088
-1.452,-0.04095368
-1.451,-0.04058582
-1.45,-0.04021796
-1.449,-0.03985011
-1.448,-0.03948225
-1.447,-0.03908373
-1.446,-0.03874653
-1.445,-0.03837867
-1.444,-0.03801082
-1.443,-0.03767361
-1.442,-0.03730575
-1.441,-0.03696856
-1.44,-0.03660069
-1.439,-0.03626349
-1.438,-0.03589563
-1.437,-0.03552778
-1.436,-0.03519057
-1.435,-0.03482271
-1.434,-0.03448552
-1.433,-0.03414831
-1.432,-0.0338111
-1.431,-0.03344325
-1.43,-0.03310604
-1.429,-0.03276884
-1.428,-0.03240098
-1.427,-0.03206378
-1.426,-0.03172658
-1.425,-0.03135872
-1.424,-0.03102152
-1.423,-0.03068431
-1.422,-0.03037777
-1.421,-0.03004056
-1.42,-0.02970336
-1.419,-0.02936616
-1.418,-0.02902895
-1.417,-0.02869175
-1.416,-0.0283852
-1.415,-0.028048
-1.414,-0.0277108
-1.413,-0.02740425
-1.412,-0.02706704
-1.411,-0.02676049
-1.41,-0.02642329
-1.409,-0.02611674
-1.408,-0.0258102
-1.407,-0.02547299
-1.406,-0.02516645
-1.405,-0.0248599
-1.404,-0.02452269
-1.403,-0.0242468
-1.402,-0.02394025
-1.401,-0.0236337
-1.4,-0.02332716
-1.399,-0.02302061
-1.398,-0.02271406
-1.397,-0.02240751
-1.396,-0.02210096
-1.395,-0.02182507
-1.394,-0.02151852
-1.393,-0.02121197
-1.392,-0.02093608
-1.391,-0.02062953
-1.39,-0.02035364
-1.389,-0.02007774
-1.388,-0.01980185
-1.387,-0.01952596
-1.386,-0.01921941
-1.385,-0.01894352
-1.384,-0.01866762
-1.383,-0.01839173
-1.382,-0.01811584
-1.381,-0.01783994
-1.38,-0.01756405
-1.379,-0.01731881
-1.378,-0.01704292
-1.377,-0.01679768
-1.376,-0.01652178
-1.375,-0.01627655
-1.374,-0.01603131
-1.373,-0.01587602
-1.372,-0.01563385
-1.371,-0.01539474
-1.37,-0.0151495
-1.369,-0.01491652
-1.368,-0.01467741
-1.367,-0.01443831
-1.366,-0.0142084
-1.365,-0.01397849
-1.364,-0.01375777
-1.363,-0.01353399
-1.362,-0.01330714
-1.361,-0.01309256
-1.36,-0.01288411
-1.359,-0.01266339
-1.358,-0.012458
-1.357,-0.01225262
-1.356,-0.0120411
-1.355,-0.01184491
-1.354,-0.01164872
-1.353,-0.0114464
-1.352,-0.01125634
-1.351,-0.01106934
-1.350001,-0.01087622
-1.349,-0.01069535
-1.348,-0.01051755
-1.347,-0.01033669
-1.346,-0.01016196
-1.345,-0.009990291
-1.344,-0.00982169
-1.343,-0.009653088
-1.342,-0.009487552
-1.341,-0.009328146
-1.34,-0.009168741
-1.339,-0.009018533
-1.338,-0.008865259
-1.337,-0.008711984
-1.336,-0.008567907
-1.335,-0.008417699
-1.334,-0.008276686
-1.333,-0.008141804
-1.332,-0.008000793
-1.331,-0.007875108
-1.33,-0.007740227
-1.329,-0.007614542
-1.328,-0.007491923
-1.327,-0.007366238
-1.326,-0.007246684
-1.325,-0.007133261
-1.324,-0.007013707
-1.323,-0.00690335
-1.322,-0.006799124
-1.321,-0.006691832
-1.32,-0.006587605
-1.319,-0.006486444
-1.318,-0.006385284
-1.317,-0.006290253
-1.316,-0.006201354
-1.315,-0.006103259
-1.314,-0.006017426
-1.313,-0.005934658
-1.312,-0.005845758
-1.311,-0.005759925
-1.31,-0.005686353
-1.309,-0.005603585
-1.308,-0.005530014
-1.307,-0.005459507
-1.306,-0.005379805
-1.305,-0.00531543
-1.304,-0.005241858
-1.303,-0.005174418
-1.302,-0.005113108
-1.301,-0.005045668
-1.3,-0.004984358
-1.299,-0.004926114
-1.298,-0.004864804
-1.297,-0.004809625
-1.296,-0.004751381
-1.295,-0.004696202
-1.294,-0.004647155
-1.293,-0.004595041
-1.292,-0.004542928
-1.291,-0.004496946
-1.29,-0.004447898
-1.289,-0.004401916
-1.288,-0.004362065
-1.287,-0.004313017
-1.286,-0.004273166
-1.285,-0.004233315
-1.284,-0.004190398
-1.283,-0.004150547
-1.282,-0.004113761
-1.281,-0.004073909
-1.28,-0.004037124
-1.279,-0.004003403
-1.278,-0.003963552
-1.277,-0.003935963
-1.276,-0.003902242
-1.275,-0.003862391
-1.274,-0.003837867
-1.273,-0.003804147
-1.272,-0.003773492
-1.271,-0.003748968
-1.27,-0.003715248
-1.269,-0.003684593
-1.268,-0.003660069
-1.267,-0.00363248
-1.266,-0.003601825
-1.265,-0.003580367
-1.264,-0.003552777
-1.263,-0.003528254
-1.262,-0.003506796
-1.261,-0.003479206
-1.26,-0.003457748
-1.259,-0.003436289
-1.258,-0.003411765
-1.257,-0.003390307
-1.256,-0.003368848
-1.255,-0.003344325
-1.254,-0.003322866
-1.253,-0.003304473
-1.252,-0.003283015
-1.251,-0.003261557
-1.25,-0.003243164
-1.249,-0.003221706
-1.248,-0.003203312
-1.247,-0.003184919
-1.246,-0.003163461
-1.245,-0.003148134
-1.244,-0.003129741
-1.243,-0.003111348
-1.242,-0.003096021
-1.241,-0.003077628
-1.24,-0.003059235
-1.239,-0.003043907
-1.238,-0.00302858
-1.237,-0.003010187
-1.236,-0.00299486
-1.235,-0.002979532
-1.234,-0.002961139
-1.233,-0.002948877
-1.232,-0.002930485
-1.231,-0.002915157
-1.23,-0.00289983
-1.229,-0.002887568
-1.228,-0.002869175
-1.227,-0.002856913
-1.226,-0.002847716
-1.225001,-0.002826258
-1.224,-0.002817062
-1.223,-0.0028048
-1.222,-0.002786407
-1.221,-0.002774145
-1.22,-0.002761883
-1.219,-0.00274349
-1.218,-0.002734293
-1.217,-0.002718966
-1.216,-0.002706704
-1.215,-0.002694442
-1.214,-0.002679115
-1.213,-0.002669919
-1.212,-0.002657657
-1.211,-0.002642329
-1.21,-0.002633133
-1.209,-0.002620871
-1.208,-0.002608609
-1.207,-0.002596347
-1.206,-0.002584085
-1.205,-0.002571823
-1.204,-0.002562626
-1.203,-0.002547299
-1.202,-0.002538103
-1.201,-0.002528906
-1.2,-0.002516645
-1.199,-0.002501317
-1.198,-0.002495186
-1.197,-0.002482924
-1.196,-0.002467597
-1.195,-0.002464531
-1.194,-0.002449204
-1.193,-0.002436942
-1.192,-0.002433876
-1.191,-0.002421614
-1.19,-0.002406287
-1.189,-0.002400156
-1.188,-0.00239096
-1.187,-0.002378698
-1.186,-0.002372567
-1.185,-0.00236337
-1.184,-0.002348043
-1.183,-0.002341912
-1.182,-0.002332716
-1.181,-0.002320454
-1.18,-0.002314323
-1.179,-0.002305126
-1.178,-0.002292864
-1.177,-0.002286733
-1.176,-0.002277537
-1.175,-0.00226834
-1.174,-0.002262209
-1.173,-0.002253013
-1.172,-0.002243817
-1.171,-0.002231555
-1.17,-0.002225423
-1.169,-0.002216227
-1.168,-0.002210096
-1.167,-0.0022009
-1.166,-0.002191703
-1.165,-0.002185572
-1.164,-0.002176376
-1.163,-0.002164114
-1.162,-0.002161048
-1.161,-0.002148786
-1.16,-0.002145721
-1.159,-0.00213959
-1.158,-0.002127328
-1.157,-0.002121197
-1.156,-0.002115066
-1.155,-0.002102804
-1.154,-0.002096673
-1.153,-0.002090542
-1.152,-0.002081346
-1.151,-0.002075215
-1.15,-0.002069084
-1.149,-0.002059887
-1.148,-0.002050691
-1.147,-0.002047626
-1.146,-0.002035364
-1.145,-0.002029233
-1.144,-0.002023102
-1.143,-0.002013905
-1.142,-0.002007774
-1.141,-0.001998578
-1.14,-0.001989381
-1.139,-0.001986316
-1.138,-0.001980185
-1.137,-0.001970988
-1.136,-0.001967923
-1.135,-0.001958727
-1.134,-0.00194953
-1.133,-0.001943399
-1.132,-0.001937268
-1.131,-0.001928072
-1.13,-0.001925006
-1.129,-0.00191581
-1.128,-0.001909679
-1.127,-0.001903548
-1.126,-0.001897417
-1.125,-0.00188822
-1.124,-0.001885155
-1.123,-0.001875959
-1.122,-0.001869828
-1.121,-0.001863697
-1.12,-0.0018545
-1.119,-0.001848369
-1.118,-0.001845304
-1.117,-0.001836107
-1.116,-0.001829976
-1.115,-0.001826911
-1.114,-0.001814649
-1.113,-0.001808518
-1.112,-0.001802387
-1.111,-0.00179319
-1.11,-0.00178706
-1.109,-0.001783994
-1.108,-0.001774798
-1.107,-0.001765601
-1.106,-0.001762536
-1.105,-0.001753339
-1.104,-0.001747208
-1.103,-0.001741077
-1.102,-0.001731881
-1.101,-0.00172575
-1.100001,-0.001716554
-1.099,-0.001710422
-1.098,-0.001701226
-1.097,-0.001695095
-1.096,-0.001688964
-1.095,-0.001679768
-1.094,-0.001673637
-1.093,-0.00166444
-1.092,-0.001655244
-1.091,-0.001652178
-1.09,-0.001646047
-1.089,-0.001633785
-1.088,-0.001627655
-1.087,-0.001618458
-1.086,-0.001615393
-1.085,-0.001609262
-1.084,-0.001632664
-1.083,-0.001626534
-1.082,-0.001620709
-1.081,-0.001611206
-1.08,-0.001604769
-1.079,-0.001598638
-1.078,-0.001589441
-1.077,-0.001582697
-1.076,-0.001577486
-1.075,-0.001567063
-1.074,-0.001560013
-1.073,-0.001556334
-1.072,-0.001546831
-1.071,-0.001541926
-1.07,-0.001537328
-1.069,-0.001526292
-1.068,-0.001520774
-1.067,-0.00151587
-1.066,-0.00150606
-1.065,-0.001500849
-1.064,-0.001496864
-1.063,-0.001484602
-1.062,-0.001479084
-1.061,-0.001474179
-1.06,-0.001463756
-1.059,-0.00146253
-1.058,-0.001455173
-1.057,-0.001445057
-1.056,-0.001442605
-1.055,-0.001436167
-1.054,-0.00142789
-1.053,-0.001423599
-1.052,-0.001415935
-1.051,-0.001409497
-1.05,-0.001405819
-1.049,-0.001397542
-1.048,-0.001392331
-1.047,-0.001387732
-1.046,-0.001378843
-1.045,-0.001375777
-1.044,-0.001369953
-1.043,-0.001361369
-1.042,-0.001358304
-1.041,-0.001353399
-1.04,-0.001346348
-1.039,-0.001340524
-1.038,-0.001335926
-1.037,-0.001331021
-1.036,-0.001323357
-1.035,-0.001319679
-1.034,-0.001311708
-1.033,-0.001307723
-1.032,-0.001302512
-1.031,-0.001296074
-1.03,-0.001293009
-1.029,-0.001285039
-1.028,-0.001280747
-1.027,-0.001277682
-1.026,-0.001269711
-1.025,-0.001263887
-1.024,-0.001261435
-1.023,-0.001253158
-1.022,-0.001248866
-1.021,-0.001245494
-1.02,-0.001236911
-1.019,-0.001233845
-1.018,-0.001228327
-1.017,-0.001221277
-1.016,-0.001219131
-1.015,-0.00121208
-1.014,-0.001204723
-1.013,-0.00120319
-1.012,-0.001196753
-1.011,-0.001190622
-1.01,-0.00118633
-1.009,-0.001180506
-1.008,-0.001173455
-1.007,-0.001171309
-1.006,-0.001164872
-1.005,-0.001159354
-1.004,-0.001154756
-1.003,-0.001149238
-1.002,-0.001143413
-1.001,-0.001138815
-1,-0.00113391
-0.9990004,-0.001127473
-0.9980004,-0.001123488
-0.9970005,-0.001118277
-0.9960005,-0.001110919
-0.9950004,-0.001106934
-0.9940004,-0.001102336
-0.9930004,-0.001095592
-0.9920005,-0.001090687
-0.9910004,-0.001085476
-0.9900004,-0.001079345
-0.9890004,-0.001075666
-0.9880005,-0.001068922
-0.9870005,-0.001063404
-0.9860004,-0.001059726
-0.9850004,-0.001052982
-0.9840004,-0.001047464
-0.9830005,-0.001043785
-0.9820005,-0.001036428
-0.9810004,-0.001031523
-0.9800004,-0.001026925
-0.9790004,-0.001020181
-0.9780005,-0.001014357
-0.9770004,-0.001010065
-0.9760004,-0.001003321
-0.9750004,-0.0009978029
-0.9740005,-0.0009928982
-0.9730005,-0.0009852345
-0.9720004,-0.0009818624
-0.9710004,-0.0009754249
-0.9700004,-0.0009680677
-0.9690005,-0.0009646958
-0.9680004,-0.0009588713
-0.9670004,-0.00095366
-0.9660004,-0.0009496749
-0.9650005,-0.0009426242
-0.9640005,-0.0009383326
-0.9630004,-0.0009328147
-0.9620004,-0.0009254576
-0.9610004,-0.0009199397
-0.9600005,-0.000915648
-0.9590005,-0.0009079843
-0.9580004,-0.0009033861
-0.9570004,-0.0008984813
-0.9560004,-0.0008902045
-0.9550005,-0.0008865259
-0.9540004,-0.0008797819
-0.9530004,-0.0008721182
-0.9520004,-0.0008693592
-0.9510005,-0.0008623086
-0.9500005,-0.0008540318
-0.9490004,-0.0008515794
-0.9480004,-0.0008442223
-0.9470004,-0.0008374782
-0.9460005,-0.0008337997
-0.9450005,-0.0008273621
-0.9440004,-0.0008196984
-0.9430004,-0.000817246
-0.9420004,-0.0008077431
-0.9410005,-0.0008028382
-0.9400004,-0.000797627
-0.9390004,-0.0007893501
-0.9380004,-0.000785365
-0.9370005,-0.0007777013
-0.9360005,-0.0007721835
-0.9350004,-0.0007669721
-0.9340004,-0.0007590018
-0.9330004,-0.0007540971
-0.9320005,-0.0007482726
-0.9310004,-0.0007412221
-0.9300004,-0.0007366238
-0.9290004,-0.0007301863
-0.9280005,-0.0007216029
-0.9270005,-0.0007166982
-0.9260004,-0.0007105672
-0.9250004,-0.0007041298
-0.9240004,-0.0006976922
-0.9230005,-0.0006921744
-0.9220005,-0.0006838975
-0.9210004,-0.0006789928
-0.9200004,-0.0006722487
-0.9190004,-0.0006667308
-0.9180005,-0.0006621326
-0.9170004,-0.0006532427
-0.9160004,-0.0006471117
-0.9150004,-0.0006419004
-0.9140005,-0.0006330105
-0.9130005,-0.0006271861
-0.9120004,-0.0006219748
-0.9110004,-0.000613698
-0.9100004,-0.0006090997
-0.9090005,-0.0006017426
-0.9080005,-0.0005937723
-0.9070004,-0.0005891741
-0.9060004,-0.00058243
-0.9050004,-0.0005744598
-0.9040005,-0.000569555
-0.9030004,-0.0005621978
-0.9020004,-0.0005542276
-0.9010004,-0.0005499359
-0.9000005,-0.0005392068
-0.8990005,-0.0005352216
-0.8980004,-0.0005303168
-0.8970004,-0.0005202008
-0.8960004,-0.0005162156
-0.8950005,-0.0005116174
-0.8940005,-0.0004999685
-0.8930004,-0.0004953703
-0.8920004,-0.0004883197
-0.8910004,-0.0004782036
-0.8900005,-0.000473912
-0.8890004,-0.0004662482
-0.8880004,-0.0004585845
-0.8870004,-0.000452147
-0.8860005,-0.0004450964
-0.8850005,-0.0004368196
-0.8840004,-0.0004306886
-0.8830004,-0.0004227184
-0.8820004,-0.0004150547
-0.8810005,-0.0004086172
-0.8800004,-0.0004006469
-0.8790004,-0.0003948225
-0.8780004,-0.0003877719
-0.8770005,-0.0003776558
-0.8760005,-0.0003721379
-0.8750004,-0.0003647808
-0.8740004,-0.0003555843
-0.8730004,-0.0003488403
-0.8720005,-0.0003424028
-0.8710005,-0.0003328998
-0.8700004,-0.0003267688
-0.8690004,-0.0003191051
-0.8680004,-0.0003102152
-0.8670005,-0.0003040842
-0.8660004,-0.0002976467
-0.8650004,-0.0002872241
-0.8640004,-0.0002817062
-0.8630005,-0.0002737359
-0.8620005,-0.0002645395
-0.8610004,-0.0002584085
-0.8600004,-0.0002507448
-0.8590004,-0.0002415484
-0.8580005,-0.0002348043
-0.8570005,-0.0002246882
-0.8560004,-0.0002179441
-0.8550004,-0.0002102804
-0.8540004,-0.0002007774
-0.8530005,-0.0001928072
-0.8520004,-0.0001851435
-0.8510004,-0.0001762536
-0.8500004,-0.0001676702
-0.8490005,-0.0001603131
-0.8480005,-0.0001514232
-0.8470004,-0.0001428398
-0.8460004,-0.0001383441
-0.8450004,-0.0001296687
-0.8440005,-0.0001203803
-0.8430004,-0.000113575
-0.8420004,-0.0001042252
-0.8410004,-9.472224E-05
-0.8400005,-8.767164E-05
-0.8390005,-7.847519E-05
-0.8380004,-6.940136E-05
-0.8370004,-6.247337E-05
-0.8360004,-5.205073E-05
-0.8350005,-4.408047E-05
-0.8340005,-3.611021E-05
-0.8330004,-2.608609E-05
-0.8320004,-1.734946E-05
-0.8310004,-8.919386E-06
-0.8300005,9.514669E-07
-0.8290004,8.063387E-06
-0.8280004,1.796489E-05
-0.8270004,2.630301E-05
-0.8260005,3.491702E-05
-0.8250005,4.438936E-05
-0.8240004,5.364711E-05
-0.8230004,6.207719E-05
-0.8220004,7.066054E-05
-0.8210005,8.001026E-05
-0.8200005,8.865492E-05
-0.8190004,9.913887E-05
-0.8180004,0.0001077835
-0.8170004,0.0001164588
-0.8160005,0.0001251955
-0.8150004,0.0001345145
-0.8140004,0.0001430672
-0.8130004,0.0001525396
-0.8120005,0.0001614295
-0.8110005,0.0001693997
-0.8100004,0.0001787495
-0.8090004,0.000188467
-0.8080004,0.0001963147
-0.8070005,0.0002063695
-0.8060004,0.0002159951
-0.8050004,0.0002232296
-0.8040004,0.0002338668
-0.8030005,0.0002422663
-0.8020005,0.0002504204
-0.8010004,0.0002603526
-0.8000004,0.0002061549
-0.8009996,0.0001278931
-0.8019996,7.76805E-05
-0.8029996,3.543814E-05
-0.8039996,-3.677412E-06
-0.8049996,-3.611021E-05
-0.8059996,-6.765403E-05
-0.8069996,-9.797165E-05
-0.8079996,-0.0001241509
-0.8089996,-0.0001514337
-0.8099996,-0.0001753138
-0.8109996,-0.0001985808
-0.8119996,-0.0002227061
-0.8129996,-0.0002440419
-0.8139996,-0.000263569
-0.8149996,-0.0002858857
-0.8159996,-0.0003049837
-0.8169996,-0.0003203313
-0.8179996,-0.0003384176
-0.8189996,-0.0003586498
-0.8199996,-0.0003748969
-0.8209996,-0.0003920636
-0.8219996,-0.0004086172
-0.8229996,-0.0004227184
-0.8239996,-0.000439272
-0.8249996,-0.0004552125
-0.8259996,-0.0004690072
-0.8269996,-0.0004861739
-0.8279996,-0.0004990489
-0.8289996,-0.0005128436
-0.8299996,-0.000528171
-0.8309996,-0.000541046
-0.8319996,-0.0005523883
-0.8329996,-0.0005692485
-0.8339996,-0.0005793645
-0.8349996,-0.0005922396
-0.8359996,-0.0006078735
-0.8369996,-0.0006176831
-0.8379996,-0.0006311712
-0.8389996,-0.0006446594
-0.8399996,-0.0006535492
-0.8409996,-0.0006664242
-0.8419996,-0.0006786863
-0.8429996,-0.0006875761
-0.8439996,-0.0007010642
-0.8449996,-0.0007102606
-0.8459996,-0.0007203768
-0.8469996,-0.0007335583
-0.8479996,-0.000743981
-0.8489996,-0.0007525643
-0.8499996,-0.0007660525
-0.8509996,-0.0007752489
-0.8519996,-0.0007835258
-0.8529996,-0.0007967073
-0.8539996,-0.0008059037
-0.8549996,-0.0008160198
-0.8559996,-0.0008273621
-0.8569996,-0.000836252
-0.8579996,-0.0008460616
-0.8589996,-0.0008570973
-0.8599996,-0.0008650676
-0.8609996,-0.0008748771
-0.8619996,-0.0008843801
-0.8629996,-0.0008941896
-0.8639996,-0.000902773
-0.8649996,-0.0009144219
-0.8659996,-0.0009220855
-0.8669996,-0.0009303623
-0.8679996,-0.0009413981
-0.8689996,-0.0009469159
-0.8699996,-0.0009588713
-0.8709996,-0.0009680677
-0.8719996,-0.0009741987
-0.8729996,-0.0009852345
-0.8739996,-0.0009932048
-0.8749996,-0.001000255
-0.8759996,-0.001011291
-0.8769996,-0.001019261
-0.8779996,-0.001026005
-0.8789996,-0.001035815
-0.8799996,-0.001043785
-0.8809996,-0.001051142
-0.8819996,-0.001061565
-0.8829996,-0.001069535
-0.8839996,-0.001076279
-0.8849996,-0.001084863
-0.8859996,-0.001092833
-0.8869996,-0.001099577
-0.8879996,-0.001108467
-0.8889996,-0.001116744
-0.8899996,-0.001124101
-0.8909996,-0.001131151
-0.8919996,-0.001138202
-0.8929996,-0.001146479
-0.8939996,-0.001154756
-0.8949996,-0.001160887
-0.8959996,-0.001168857
-0.8969996,-0.001178053
-0.8979996,-0.001182652
-0.8989996,-0.001191848
-0.8999996,-0.001199818
-0.9009996,-0.001204417
-0.9019996,-0.001212387
-0.9029996,-0.001221277
-0.9039996,-0.001224955
-0.9049996,-0.001232313
-0.9059996,-0.001241509
-0.9069996,-0.001245187
-0.9079996,-0.001253158
-0.9089996,-0.001261741
-0.9099996,-0.001266339
-0.9109996,-0.001272164
-0.9119996,-0.001278295
-0.9129996,-0.001284732
-0.9139996,-0.00129117
-0.9149996,-0.001297607
-0.9159996,-0.001303432
-0.9169996,-0.001310482
-0.9179996,-0.001316
-0.9189996,-0.001321518
-0.9199996,-0.001327649
-0.9209996,-0.0013347
-0.9219996,-0.001338991
-0.9229996,-0.001346348
-0.9239996,-0.001353399
-0.9249996,-0.001355545
-0.9259996,-0.001362902
-0.9269996,-0.001370872
-0.9279996,-0.001373018
-0.9289996,-0.001380069
-0.9299996,-0.001386506
-0.9309996,-0.001389265
-0.9319996,-0.001396929
-0.9329996,-0.001401221
-0.9339996,-0.001405819
-0.9349996,-0.001413176
-0.9359996,-0.001417774
-0.9369996,-0.00142084
-0.9379996,-0.001428197
-0.9389996,-0.001433408
-0.9399996,-0.001437393
-0.9409996,-0.001444444
-0.9419996,-0.00144659
-0.9429996,-0.001454253
-0.9439996,-0.001458239
-0.9449996,-0.001462224
-0.9459996,-0.001467742
-0.9469996,-0.001473566
-0.9479996,-0.001476325
-0.9489996,-0.001482762
-0.9499996,-0.001487667
-0.9509996,-0.001492265
-0.9519996,-0.001499622
-0.9529996,-0.001503301
-0.9539996,-0.00150698
-0.9549996,-0.001513111
-0.9559996,-0.001517709
-0.9569996,-0.001521694
-0.9579996,-0.001529051
-0.9589996,-0.00153089
-0.9599996,-0.001535182
-0.9609996,-0.001541926
-0.9619996,-0.001546218
-0.9629996,-0.001548977
-0.9639996,-0.001555721
-0.9649996,-0.001559399
-0.9659996,-0.001563385
-0.9669996,-0.001570435
-0.9679996,-0.001572888
-0.9689996,-0.001576566
-0.9699996,-0.001583617
-0.9709996,-0.001585456
-0.9719996,-0.001590361
-0.9729996,-0.001598638
-0.9739996,-0.001600783
-0.9749996,-0.001605075
-0.9759996,-0.001612739
-0.9769996,-0.001613659
-0.9779996,-0.001620403
-0.9789996,-0.001625921
-0.9799996,-0.00162776
-0.9809996,-0.001633584
-0.9819996,-0.001639102
-0.9829996,-0.001641248
-0.9839996,-0.001647685
-0.9849996,-0.001652897
-0.9859996,-0.001655349
-0.9869996,-0.00166148
-0.9879996,-0.001665465
-0.9889996,-0.001668531
-0.9899996,-0.001675581
-0.9909996,-0.00167834
-0.9919996,-0.001682325
-0.9929996,-0.001688763
-0.9939996,-0.001692441
-0.9949996,-0.001697346
-0.9959996,-0.001705316
-0.9969996,-0.001704703
-0.9979996,-0.001711447
-0.9989996,-0.001716352
-0.9999996,-0.001717272
-1.001,-0.001724322
-1.002,-0.00173076
-1.003,-0.001731066
-1.004,-0.00173873
-1.005,-0.001745168
-1.006,-0.001745474
-1.007,-0.001751912
-1.008,-0.001757736
-1.009,-0.001759575
-1.01,-0.001767852
-1.011,-0.001773064
-1.012,-0.001774596
-1.013,-0.001782873
-1.014,-0.001785939
-1.015,-0.00179115
-1.016,-0.001796974
-1.017,-0.001802186
-1.018,-0.001804945
-1.019,-0.001811075
-1.02,-0.00181598
-1.021,-0.001819046
-1.022,-0.00182487
-1.023,-0.001831001
-1.024,-0.001834373
-1.025,-0.001840504
-1.026,-0.001845715
-1.027,-0.001848168
-1.028,-0.001856138
-1.029,-0.001859204
-1.03,-0.001863495
-1.031,-0.001872079
-1.032,-0.001874531
-1.033,-0.001876677
-1.034,-0.001884954
-1.035,-0.001887713
-1.036,-0.001892924
-1.037,-0.001901201
-1.038,-0.001901507
-1.039,-0.001907945
-1.04,-0.001914382
-1.041,-0.001918674
-1.042,-0.001924192
-1.043,-0.001929097
-1.044,-0.001933388
-1.045,-0.001940439
-1.046,-0.001943504
-1.047,-0.00194657
-1.048,-0.00195546
-1.049,-0.001960058
-1.05,-0.001962204
-1.051,-0.001966189
-1.052,-0.001975692
-1.053,-0.00198029
-1.054,-0.001986115
-1.055,-0.001990713
-1.056,-0.001995004
-1.057,-0.002001442
-1.058,-0.002005734
-1.059,-0.002010025
-1.06,-0.002018915
-1.061,-0.002021368
-1.062,-0.002026272
-1.063,-0.002033017
-1.064,-0.002035162
-1.065,-0.002042519
-1.066,-0.002051103
-1.067,-0.002052022
-1.068,-0.002062138
-1.069,-0.00206643
-1.07,-0.002071642
-1.071,-0.002079305
-1.072,-0.002083597
-1.073,-0.002088502
-1.074,-0.002095552
-1.075,-0.002098311
-1.076,-0.002107201
-1.077,-0.002114558
-1.078,-0.002117624
-1.079,-0.002127127
-1.08,-0.002131725
-1.081,-0.00213571
-1.082,-0.0021446
-1.083,-0.002150424
-1.084,-0.002152877
-1.085,-0.002164219
-1.086,-0.002169124
-1.087,-0.002173109
-1.088,-0.002182305
-1.089,-0.002188436
-1.09,-0.0021961
-1.091,-0.002205603
-1.092,-0.002208669
-1.093,-0.002215413
-1.094,-0.002225835
-1.095,-0.002230434
-1.096,-0.002237791
-1.097,-0.002247907
-1.098,-0.002252812
-1.099,-0.002259556
-1.1,-0.002271818
-1.101,-0.002276416
-1.102,-0.00228316
-1.103,-0.002296035
-1.104,-0.002298487
-1.105,-0.002307683
-1.106,-0.00231688
-1.107,-0.002321785
-1.108,-0.002329142
-1.109,-0.002342937
-1.11,-0.002345083
-1.111,-0.002354892
-1.112,-0.002365621
-1.113,-0.002371446
-1.114,-0.002380949
-1.115,-0.002385241
-1.116,-0.00239413
-1.117,-0.002399648
-1.118,-0.002407312
-1.119,-0.002411297
-1.12,-0.002420493
-1.121,-0.002425398
-1.122,-0.00243061
-1.123,-0.002437047
-1.124,-0.002442258
-1.125,-0.002445937
-1.126,-0.002452681
-1.127,-0.002456666
-1.128,-0.002458506
-1.129,-0.002468622
-1.13,-0.002467702
-1.131,-0.002474752
-1.132,-0.002479044
-1.133,-0.002478738
-1.134,-0.002484562
-1.135,-0.002488241
-1.136,-0.002487628
-1.137,-0.002493758
-1.138,-0.002494985
-1.139,-0.002496211
-1.14,-0.002503261
-1.141,-0.002503261
-1.142,-0.002502648
-1.143,-0.002511232
-1.144,-0.002512765
-1.145,-0.002513684
-1.146,-0.002518282
-1.147,-0.002520735
-1.148,-0.002522267
-1.149,-0.00253177
-1.15,-0.002531157
-1.151,-0.002532384
-1.152,-0.002538208
-1.153,-0.002537902
-1.154,-0.002541273
-1.155,-0.002546485
-1.156,-0.002548018
-1.157,-0.002553229
-1.158,-0.002558747
-1.159,-0.002556601
-1.16,-0.002564265
-1.161,-0.002568863
-1.162,-0.002569782
-1.163,-0.0025753
-1.164,-0.002584497
-1.165,-0.00258419
-1.166,-0.002592774
-1.167,-0.002591854
-1.168,-0.002601357
-1.169,-0.002605649
-1.17,-0.002606875
-1.171,-0.002614845
-1.172,-0.002621589
-1.173,-0.002623122
-1.174,-0.002631399
-1.175,-0.00263569
-1.176,-0.002636303
-1.177,-0.002647952
-1.178,-0.002651937
-1.179,-0.002653164
-1.18,-0.00266328
-1.181,-0.002667878
-1.182,-0.002674315
-1.183,-0.002685658
-1.184,-0.002683512
-1.185,-0.002693628
-1.186,-0.002701598
-1.187,-0.002703131
-1.188,-0.002712634
-1.189,-0.002723363
-1.19,-0.002725202
-1.191,-0.002736545
-1.192,-0.002744821
-1.193,-0.00274942
-1.194,-0.00275739
-1.195,-0.002769345
-1.196,-0.002773637
-1.197,-0.00278222
-1.198,-0.002795402
-1.199,-0.00279908
-1.2,-0.00280981
-1.201,-0.002822072
-1.202,-0.002824831
-1.203,-0.002839238
-1.204,-0.002846596
-1.205,-0.002857325
-1.206,-0.00286928
-1.207,-0.002876637
-1.208,-0.002886754
-1.209,-0.002899322
-1.21,-0.00290484
-1.211,-0.00291986
-1.212,-0.002932735
-1.213,-0.00293948
-1.214,-0.002951742
-1.215,-0.002966763
-1.216,-0.00297228
-1.217,-0.00298025
-1.218,-0.00299803
-1.219,-0.002970336
-1.22,-0.002982598
-1.221,-0.002991794
-1.222,-0.003007122
-1.223,-0.003019383
-1.224,-0.003031645
-1.225,-0.003043907
-1.226,-0.003053104
-1.227,-0.003068431
-1.228,-0.003083759
-1.229,-0.003096021
-1.23,-0.003108283
-1.231,-0.00312361
-1.232,-0.003135872
-1.233,-0.003145068
-1.234,-0.003163461
-1.235,-0.003175723
-1.236,-0.003187985
-1.237,-0.003209443
-1.238,-0.00321864
-1.239,-0.003237033
-1.24,-0.00325236
-1.241,-0.003264622
-1.242,-0.00327995
-1.243,-0.003301408
-1.244,-0.003310604
-1.245,-0.003328997
-1.246,-0.00334739
-1.247,-0.003362718
-1.248,-0.003378045
-1.249,-0.003396438
-1.25,-0.003411765
-1.251,-0.003427093
-1.252,-0.003448551
-1.253,-0.003463879
-1.254,-0.003482271
-1.255,-0.00350373
-1.256,-0.003519057
-1.257,-0.003540515
-1.258,-0.003561974
-1.259,-0.003577302
-1.26,-0.00359876
-1.261,-0.003626349
-1.262,-0.003641677
-1.263,-0.003663135
-1.264,-0.00369379
-1.265,-0.003706052
-1.266,-0.003733641
-1.267,-0.00376123
-1.268,-0.003782689
-1.269,-0.003807213
-1.27,-0.003831736
-1.271,-0.003859326
-1.272,-0.003886915
-1.273,-0.003914505
-1.274,-0.003942094
-1.275,-0.003972749
-1.276,-0.004000338
-1.277,-0.004030993
-1.278,-0.004067779
-1.279,-0.004092303
-1.28,-0.004126023
-1.281,-0.004165874
-1.282,-0.004199594
-1.283,-0.004233315
-1.284,-0.004276231
-1.285,-0.004309952
-1.286,-0.004352869
-1.287,-0.004395785
-1.288,-0.004432571
-1.289,-0.004475488
-1.29,-0.00452147
-1.291,-0.004567452
-1.292,-0.0046165
-1.293,-0.004665548
-1.294,-0.004714595
-1.295,-0.004766709
-1.296,-0.004824953
-1.297,-0.004877066
-1.298,-0.00493531
-1.299,-0.00499662
-1.3,-0.005054864
-1.301,-0.005122304
-1.302,-0.005189745
-1.303,-0.00525412
-1.304,-0.005327692
-1.305,-0.005401264
-1.306,-0.005471769
-1.307,-0.005554538
-1.308,-0.005637306
-1.309,-0.005717008
-1.31,-0.005805907
-1.311,-0.005894806
-1.312,-0.00598064
-1.313,-0.006078735
-1.314,-0.00617683
-1.315,-0.006271861
-1.316,-0.006385284
-1.317,-0.00648951
-1.318,-0.006599867
-1.319,-0.006719421
-1.32,-0.006829778
-1.321,-0.006958528
-1.322,-0.007084213
-1.323,-0.007212963
-1.324,-0.007347845
-1.325,-0.007482726
-1.326,-0.007617608
-1.327,-0.007767816
-1.328,-0.007914959
-1.329,-0.008065168
-1.33,-0.008227638
-1.331,-0.008390109
-1.332,-0.00855258
-1.333,-0.008727312
-1.334,-0.008902045
-1.335,-0.009079843
-1.336,-0.009263772
-1.337,-0.009450765
-1.338,-0.009640826
-1.339,-0.009843147
-1.34,-0.01004547
-1.341,-0.01025086
-1.342,-0.01046544
-1.343,-0.01067696
-1.344,-0.01089461
-1.345,-0.01112758
-1.346,-0.01135137
-1.347,-0.01158128
-1.348,-0.01182038
-1.349,-0.01206256
-1.35,-0.0123078
-1.351,-0.01256223
-1.352,-0.0128136
-1.353,-0.01307417
-1.354,-0.0133378
-1.355,-0.01359836
-1.356,-0.01387119
-1.357,-0.01414402
-1.358,-0.01441378
-1.359,-0.01469581
-1.36,-0.01497783
-1.361,-0.01526599
-1.362,-0.01556334
-1.363,-0.01585762
-1.364,-0.01614885
-1.365,-0.01644926
-1.366,-0.01675581
-1.367,-0.01705929
-1.368,-0.01736891
-1.369,-0.01768159
-1.37,-0.01799733
-1.371,-0.01831308
-1.372,-0.01863802
-1.373,-0.01895683
-1.374,-0.01928177
-1.375,-0.01961284
-1.376,-0.01994391
-1.377,-0.02027805
-1.378,-0.02061832
-1.379,-0.02095246
-1.38,-0.02129579
-1.381,-0.02164219
-1.382,-0.02198552
-1.383,-0.02233499
-1.384,-0.02268445
-1.385,-0.02303698
-1.386,-0.02338951
-1.387,-0.02373591
-1.388,-0.02409458
-1.389,-0.02445324
-1.39,-0.02480577
-1.391,-0.02516443
-1.392,-0.02553842
-1.393,-0.02589401
-1.394,-0.02625881
-1.395,-0.02662973
-1.396,-0.02698839
-1.397,-0.02734092
-1.398,-0.02771798
-1.399,-0.02809503
-1.4,-0.02846289
-1.401,-0.02884914
-1.402,-0.02922619
-1.403,-0.02960018
-1.404,-0.02998643
-1.405,-0.03036042
-1.406,-0.03083759
-1.407,-0.03120545
-1.408,-0.03160396
-1.409,-0.03197182
-1.41,-0.03237033
-1.411,-0.03276884
-1.412,-0.0331367
-1.413,-0.03353521
-1.414,-0.03396438
-1.415,-0.03433224
-1.416,-0.03473075
-1.417,-0.03512926
-1.418,-0.03552778
-1.419,-0.03592629
-1.42,-0.0363248
-1.421,-0.03672331
-1.422,-0.03712183
-1.423,-0.03752034
-1.424,-0.03791885
-1.425,-0.03831736
-1.426,-0.03871588
-1.427,-0.03911439
-1.428,-0.03954356
-1.429,-0.03994207
-1.43,-0.04034058
-1.431,-0.04076975
-1.432,-0.04116827
-1.433,-0.04156678
-1.434,-0.04196529
-1.435,-0.0423638
-1.436,-0.04279297
-1.437,-0.04319149
-1.438,-0.04358999
-1.439,-0.04401916
-1.44,-0.04441768
-1.441,-0.04481619
-1.442,-0.0452147
-1.443,-0.04564387
-1.444,-0.04604238
-1.445,-0.0464409
-1.446,-0.04690072
-1.447,-0.04726858
-1.448,-0.04769774
-1.449,-0.04809625
-1.45,-0.04852542
-1.451,-0.04895459
-1.452,-0.0493531
-1.453,-0.04975162
-1.454,-0.05018078
-1.455,-0.0505793
-1.456,-0.05100846
-1.457,-0.05143763
-1.458,-0.05183614
-1.459,-0.05226531
-1.46,-0.05269448
-1.461,-0.05309299
-1.462,-0.05352216
-1.463,-0.05392068
-1.464,-0.05434984
-1.465,-0.054779
-1.466,-0.05517752
-1.467,-0.05557603
-1.468,-0.05603585
-1.469,-0.05646503
-1.47,-0.05686354
-1.471,-0.05732336
-1.472,-0.05772187
-1.473,-0.05815104
-1.474,-0.05858021
-1.475,-0.05897872
-1.476,-0.05943854
-1.477,-0.05986771
-1.478,-0.06026622
-1.479,-0.06069539
-1.48,-0.0610939
-1.481,-0.06149241
-1.482,-0.06195223
-1.483,-0.06235075
-1.484,-0.06277992
-1.485,-0.06320909
-1.486,-0.06363826
-1.487,-0.06403676
-1.488,-0.06449659
-1.489,-0.06492575
-1.49,-0.06532427
-1.491,-0.06575344
-1.492,-0.06618261
-1.493,-0.06661177
-1.494,-0.06704094
-1.495,-0.06743945
-1.496,-0.06786862
-1.497,-0.06829779
-1.498,-0.06872695
-1.499,-0.06912547
-1.5,-0.06927874
-1.499001,-0.06888022
-1.498001,-0.06848171
-1.497001,-0.0680832
-1.496001,-0.06768469
-1.495001,-0.06728618
-1.494001,-0.06685701
-1.493001,-0.06642784
-1.492001,-0.06602933
-1.491001,-0.06563082
-1.490001,-0.06520165
-1.489001,-0.06480314
-1.488001,-0.06434331
-1.487001,-0.0639448
-1.486001,-0.06354629
-1.485001,-0.06311712
-1.484001,-0.0626573
-1.483001,-0.06225879
-1.482001,-0.06182962
-1.481001,-0.06143111
-1.480001,-0.06100194
-1.479001,-0.06057277
-1.478001,-0.06017426
-1.477001,-0.05974509
-1.476001,-0.05934658
-1.475001,-0.05891741
-1.474001,-0.05851889
-1.473001,-0.05808973
-1.472001,-0.05766056
-1.471001,-0.05723139
-1.470001,-0.05683288
-1.469001,-0.05643437
-1.468001,-0.0560052
-1.467001,-0.05557603
-1.466001,-0.05517752
-1.465001,-0.05474835
-1.464001,-0.05434984
-1.463001,-0.05395133
-1.462001,-0.05352216
-1.461001,-0.05312365
-1.460001,-0.05272513
-1.459001,-0.05232662
-1.458001,-0.05189746
-1.457001,-0.05146828
-1.456001,-0.05106977
-1.455001,-0.05067126
-1.454001,-0.05027274
-1.453001,-0.04987423
-1.452001,-0.04947572
-1.451001,-0.04907721
-1.450001,-0.04864804
-1.449001,-0.04824953
-1.448001,-0.04785102
-1.447001,-0.04745251
-1.446001,-0.04705399
-1.445001,-0.04662482
-1.444001,-0.04622631
-1.443001,-0.04585845
-1.442001,-0.04545994
-1.441001,-0.04506143
-1.440001,-0.04469357
-1.439001,-0.04429505
-1.438001,-0.04389654
-1.437001,-0.04349803
-1.436001,-0.04309952
-1.435001,-0.04273166
-1.434001,-0.04233315
-1.433001,-0.04193464
-1.432001,-0.04156678
-1.431001,-0.04116827
-1.430001,-0.0408004
-1.429001,-0.04037124
-1.428001,-0.04000338
-1.427001,-0.03960487
-1.426001,-0.03923701
-1.425001,-0.03886915
-1.424001,-0.03847064
-1.423001,-0.03810278
-1.422001,-0.03773492
-1.421001,-0.03736707
-1.420001,-0.03696856
-1.419001,-0.03660069
-1.418001,-0.03623284
-1.417001,-0.03583432
-1.416001,-0.03549712
-1.415001,-0.03512926
-1.414001,-0.03473075
-1.413001,-0.03436289
-1.412001,-0.03399504
-1.411001,-0.03362718
-1.410001,-0.03325932
-1.409001,-0.03292212
-1.408001,-0.03255426
-1.407001,-0.0321864
-1.406001,-0.03181854
-1.405001,-0.03145069
-1.404001,-0.03108283
-1.403001,-0.03074562
-1.402001,-0.03037777
-1.401001,-0.03000991
-1.400001,-0.0296727
-1.399001,-0.0293355
-1.398001,-0.0289983
-1.397001,-0.0286611
-1.396001,-0.02829324
-1.395001,-0.02795603
-1.394001,-0.02764949
-1.393001,-0.02728163
-1.392001,-0.02694443
-1.391001,-0.02660722
-1.390001,-0.02627002
-1.389001,-0.02593282
-1.388001,-0.02559561
-1.387001,-0.02528906
-1.386001,-0.02495186
-1.385001,-0.02461466
-1.384001,-0.02430811
-1.383001,-0.02397091
-1.382001,-0.0236337
-1.381001,-0.02332716
-1.380001,-0.02298995
-1.379001,-0.0226834
-1.378001,-0.02237686
-1.377001,-0.02203965
-1.376001,-0.0217331
-1.375001,-0.02142656
-1.374001,-0.02112001
-1.373001,-0.02081346
-1.372001,-0.02050691
-1.371001,-0.02020036
-1.370001,-0.01992447
-1.369001,-0.01961792
-1.368001,-0.01934203
-1.367001,-0.01903548
-1.366001,-0.01872893
-1.365001,-0.01845304
-1.364001,-0.01817714
-1.363001,-0.0178706
-1.362001,-0.0175947
-1.361001,-0.01731881
-1.360001,-0.01704292
-1.359001,-0.01676702
-1.358001,-0.01649113
-1.357001,-0.01624589
-1.356001,-0.01606914
-1.355001,-0.01581471
-1.354001,-0.01555721
-1.353001,-0.01530277
-1.352001,-0.01505447
-1.351001,-0.01480003
-1.350001,-0.01455786
-1.349001,-0.01431569
-1.348001,-0.01407045
-1.347001,-0.01383747
-1.346001,-0.01360756
-1.345001,-0.01337152
-1.344001,-0.01314467
-1.343001,-0.01292089
-1.342001,-0.01269405
-1.341001,-0.0124764
-1.340001,-0.01226181
-1.339001,-0.01204723
-1.338001,-0.01183878
-1.337001,-0.01163032
-1.336001,-0.01142187
-1.335001,-0.01121648
-1.334001,-0.01101723
-1.333001,-0.01082104
-1.332001,-0.01062485
-1.331001,-0.01042865
-1.330001,-0.01024473
-1.329001,-0.0100608
-1.328001,-0.009879934
-1.327001,-0.009705201
-1.326001,-0.009530468
-1.325001,-0.009355736
-1.324001,-0.009193265
-1.323001,-0.009030795
-1.322001,-0.008868324
-1.321001,-0.008708919
-1.320001,-0.008555645
-1.319001,-0.008402371
-1.318001,-0.008255227
-1.317001,-0.008108085
-1.316001,-0.007967073
-1.315001,-0.007829125
-1.314001,-0.007691179
-1.313001,-0.007559363
-1.312001,-0.007433678
-1.311001,-0.007304928
-1.310001,-0.007179243
-1.309001,-0.00705969
-1.308001,-0.00693707
-1.307001,-0.006823647
-1.306001,-0.00671329
-1.305001,-0.006599867
-1.304001,-0.006495641
-1.303001,-0.006391414
-1.302001,-0.006284122
-1.301001,-0.006189092
-1.300001,-0.006094063
-1.299001,-0.005992902
-1.298001,-0.005907068
-1.297001,-0.005818169
-1.296001,-0.00572927
-1.295001,-0.005646502
-1.294001,-0.005563734
-1.293001,-0.005484032
-1.292001,-0.005404329
-1.291001,-0.005330757
-1.290001,-0.00525412
-1.289001,-0.00518668
-1.288001,-0.005113108
-1.287001,-0.005045668
-1.286001,-0.004981292
-1.285001,-0.004913852
-1.284001,-0.004852542
-1.283001,-0.004791233
-1.282001,-0.004729923
-1.281001,-0.004674744
-1.280001,-0.004619565
-1.279001,-0.004561321
-1.278001,-0.004512274
-1.277001,-0.00446016
-1.276001,-0.004408047
-1.275001,-0.00436513
-1.274001,-0.004316083
-1.273001,-0.004270101
-1.272001,-0.004224118
-1.271001,-0.004181202
-1.270001,-0.004135219
-1.269001,-0.004098434
-1.268001,-0.004052451
-1.267001,-0.0040126
-1.266001,-0.003981945
-1.265001,-0.003935963
-1.264001,-0.003905308
-1.263001,-0.003871588
-1.262001,-0.003828671
-1.261001,-0.003801082
-1.260001,-0.003767361
-1.259001,-0.003730575
-1.258001,-0.003699921
-1.257001,-0.003672331
-1.256001,-0.003638611
-1.255001,-0.003607956
-1.254001,-0.003583432
-1.253001,-0.003549712
-1.252001,-0.003522123
-1.251001,-0.003497599
-1.250001,-0.003470009
-1.249001,-0.003445486
-1.248001,-0.003420962
-1.247001,-0.003393373
-1.246001,-0.003371914
-1.245001,-0.003344325
-1.244001,-0.003319801
-1.243001,-0.003301408
-1.242001,-0.003273819
-1.241001,-0.00325236
-1.240001,-0.003230902
-1.239001,-0.003209443
-1.238001,-0.003187985
-1.237001,-0.003172658
-1.236001,-0.003145068
-1.235001,-0.003126675
-1.234001,-0.003105217
-1.233001,-0.003083759
-1.232001,-0.003068431
-1.231001,-0.003046973
-1.230001,-0.00302858
-1.229001,-0.003010187
-1.228001,-0.002988729
-1.227001,-0.002970336
-1.226001,-0.002958074
-1.225001,-0.002939681
-1.224001,-0.002921288
-1.223001,-0.002905961
-1.222001,-0.002884502
-1.221001,-0.00287224
-1.220001,-0.002859978
-1.219001,-0.002835455
-1.218001,-0.002823193
-1.217001,-0.002810931
-1.216001,-0.002789472
-1.215001,-0.002780276
-1.214001,-0.002764949
-1.213001,-0.00274349
-1.212001,-0.002731228
-1.211001,-0.002718966
-1.210001,-0.002700574
-1.209001,-0.002688312
-1.208001,-0.002676049
-1.207001,-0.002657657
-1.206001,-0.002645395
-1.205001,-0.002636198
-1.204001,-0.002617805
-1.203001,-0.002605543
-1.202001,-0.002593281
-1.201001,-0.002577954
-1.200001,-0.002568757
-1.199001,-0.002556496
-1.198001,-0.002541168
-1.197001,-0.002528906
-1.196001,-0.00251971
-1.195001,-0.002501317
-1.194001,-0.002495186
-1.193001,-0.002482924
-1.192001,-0.002464531
-1.191001,-0.0024584
-1.190001,-0.002443073
-1.189001,-0.002430811
-1.188001,-0.00242468
-1.187001,-0.002409352
-1.186001,-0.002397091
-1.185001,-0.00239096
-1.184001,-0.002378698
-1.183001,-0.002366436
-1.182001,-0.002360305
-1.181001,-0.002341912
-1.180001,-0.002332716
-1.179001,-0.002323519
-1.178001,-0.002308191
-1.177001,-0.002302061
-1.176001,-0.002292864
-1.175001,-0.002283668
-1.174001,-0.002274471
-1.173001,-0.002262209
-1.172001,-0.002253013
-1.171001,-0.002246882
-1.170001,-0.002231555
-1.169001,-0.002225423
-1.168001,-0.002216227
-1.167001,-0.002207031
-1.166001,-0.002194769
-1.165001,-0.002191703
-1.164001,-0.002176376
-1.163001,-0.002167179
-1.162001,-0.002164114
-1.161001,-0.002148786
-1.160001,-0.002142655
-1.159001,-0.002136525
-1.158001,-0.002124263
-1.157001,-0.002115066
-1.156001,-0.00210587
-1.155001,-0.002096673
-1.154001,-0.002090542
-1.153001,-0.00207828
-1.152001,-0.002072149
-1.151001,-0.002066019
-1.150001,-0.002053756
-1.149001,-0.002047626
-1.148001,-0.002038429
-1.147001,-0.002026167
-1.146001,-0.002023102
-1.145001,-0.002013905
-1.144001,-0.002001643
-1.143001,-0.002001643
-1.142001,-0.001989381
-1.141001,-0.001980185
-1.140001,-0.00197712
-1.139001,-0.001964858
-1.138001,-0.001958727
-1.137001,-0.001952596
-1.136001,-0.001940334
-1.135001,-0.001937268
-1.134001,-0.001931137
-1.133001,-0.001918875
-1.132001,-0.00191581
-1.131001,-0.001906613
-1.130001,-0.001897417
-1.129001,-0.001894351
-1.128001,-0.001885155
-1.127001,-0.001875959
-1.126001,-0.001869828
-1.125001,-0.001863697
-1.124001,-0.0018545
-1.123001,-0.001851435
-1.122001,-0.001845304
-1.121001,-0.001829976
-1.120001,-0.001829976
-1.119001,-0.00182078
-1.118001,-0.001811583
-1.117001,-0.001808518
-1.116001,-0.001796256
-1.115001,-0.00178706
-1.114001,-0.001783994
-1.113001,-0.001774798
-1.112001,-0.001768667
-1.111001,-0.001762536
-1.110001,-0.001753339
-1.109001,-0.001747208
-1.108001,-0.001744143
-1.107001,-0.001728815
-1.106001,-0.00172575
-1.105001,-0.001716554
-1.104001,-0.001704292
-1.103001,-0.001701226
-1.102001,-0.001695095
-1.101001,-0.001682833
-1.100001,-0.001676702
-1.099001,-0.001670571
-1.098001,-0.001661375
-1.097001,-0.001655244
-1.096001,-0.001649113
-1.095001,-0.001636851
-1.094001,-0.00163072
-1.093001,-0.001624589
-1.092001,-0.001612327
-1.091001,-0.001606196
-1.090001,-0.001636343
-1.089001,-0.001624694
-1.088001,-0.001618563
-1.087001,-0.001612739
-1.086001,-0.00160201
-1.085001,-0.001595879
-1.084001,-0.001587602
-1.083001,-0.001578099
-1.082001,-0.001571048
-1.081001,-0.001564304
-1.080001,-0.001555721
-1.079001,-0.001548057
-1.078001,-0.001541313
-1.077001,-0.001532423
-1.076001,-0.001524453
-1.075001,-0.001517709
-1.074001,-0.001508512
-1.073001,-0.001501768
-1.072001,-0.001495637
-1.071001,-0.001486441
-1.070001,-0.001478471
-1.069001,-0.001473259
-1.068001,-0.001462837
-1.067001,-0.001457012
-1.066001,-0.001450575
-1.065001,-0.001441072
-1.064001,-0.001435247
-1.063001,-0.001428197
-1.062001,-0.001419613
-1.061001,-0.001414096
-1.060001,-0.001405512
-1.059001,-0.001399381
-1.058001,-0.001392944
-1.057001,-0.001382215
-1.056001,-0.001378229
-1.055001,-0.001373325
-1.054001,-0.001364435
-1.053001,-0.001358304
-1.052001,-0.001354932
-1.051001,-0.001344509
-1.050001,-0.001340524
-1.049001,-0.001335006
-1.048001,-0.001325197
-1.047001,-0.001319679
-1.046001,-0.001316613
-1.045001,-0.00130803
-1.044001,-0.001300366
-1.043001,-0.001297607
-1.042001,-0.00128933
-1.041001,-0.001281054
-1.040001,-0.001280134
-1.039001,-0.001271244
-1.038001,-0.001264807
-1.037001,-0.001262048
-1.036001,-0.001253158
-1.035001,-0.001247027
-1.034001,-0.001245494
-1.033001,-0.001236298
-1.032001,-0.001231393
-1.031001,-0.001227714
-1.030001,-0.001220664
-1.029001,-0.001214839
-1.028001,-0.001211161
-1.027001,-0.001203497
-1.026001,-0.001200431
-1.025001,-0.001193994
-1.024001,-0.001185104
-1.023001,-0.001182038
-1.022001,-0.001177747
-1.021001,-0.001171616
-1.020001,-0.001166711
-1.019001,-0.001161806
-1.018001,-0.001153223
-1.017001,-0.001150158
-1.016001,-0.001144027
-1.015001,-0.001137589
-1.014001,-0.001134524
-1.013001,-0.001129312
-1.012001,-0.001121035
-1.011001,-0.001117663
-1.010001,-0.001113065
-1.009001,-0.001105708
-1.008001,-0.00110111
-1.007001,-0.001096511
-1.006001,-0.001088541
-1.005001,-0.001086702
-1.004001,-0.001079958
-1.003001,-0.001074747
-1.002001,-0.001070761
-1.001001,-0.001063711
-1.000001,-0.001059113
-0.9990007,-0.001055434
-0.9980007,-0.001047464
-0.9970006,-0.001043785
-0.9960006,-0.001040413
-0.9950007,-0.001033056
-0.9940007,-0.001028151
-0.9930006,-0.001024473
-0.9920006,-0.001017116
-0.9910007,-0.001012517
-0.9900007,-0.001005467
-0.9890007,-0.001001175
-0.9880006,-0.0009956572
-0.9870006,-0.0009892196
-0.9860007,-0.0009843148
-0.9850007,-0.0009809429
-0.9840007,-0.0009729725
-0.9830006,-0.0009689874
-0.9820006,-0.0009637761
-0.9810007,-0.0009573385
-0.9800007,-0.0009509011
-0.9790006,-0.0009472225
-0.9780006,-0.0009417046
-0.9770007,-0.000934654
-0.9760007,-0.0009315885
-0.9750007,-0.0009260707
-0.9740006,-0.0009174873
-0.9730006,-0.0009141153
-0.9720007,-0.0009070646
-0.9710007,-0.0009021599
-0.9700007,-0.0009003207
-0.9690006,-0.0008902045
-0.9680007,-0.0008883653
-0.9670007,-0.0008831539
-0.9660007,-0.0008751836
-0.9650006,-0.0008711985
-0.9640006,-0.0008641479
-0.9630007,-0.0008577104
-0.9620007,-0.0008540318
-0.9610007,-0.0008463681
-0.9600006,-0.0008426895
-0.9590006,-0.0008368651
-0.9580007,-0.0008298145
-0.9570007,-0.0008255228
-0.9560006,-0.0008193919
-0.9550006,-0.0008123412
-0.9540007,-0.0008092758
-0.9530007,-0.0008025317
-0.9520007,-0.0007954811
-0.9510006,-0.0007918025
-0.9500006,-0.0007856716
-0.9490007,-0.000779234
-0.9480007,-0.0007721835
-0.9470007,-0.0007691179
-0.9460006,-0.0007614543
-0.9450006,-0.0007550167
-0.9440007,-0.0007510316
-0.9430007,-0.0007430614
-0.9420006,-0.0007387697
-0.9410006,-0.0007332518
-0.9400007,-0.0007262012
-0.9390007,-0.000722216
-0.9380007,-0.0007151655
-0.9370006,-0.000709341
-0.9360006,-0.0007047429
-0.9350007,-0.000696466
-0.9340007,-0.0006915613
-0.9330007,-0.0006866565
-0.9320006,-0.00067746
-0.9310006,-0.0006750076
-0.9300007,-0.0006701029
-0.9290007,-0.0006590671
-0.9280006,-0.0006581475
-0.9270006,-0.0006498707
-0.9260007,-0.00064282
-0.9250007,-0.0006388349
-0.9240007,-0.0006308646
-0.9230006,-0.0006247337
-0.9220006,-0.0006198289
-0.9210007,-0.0006118587
-0.9200007,-0.0006066473
-0.9190007,-0.0006020491
-0.9180006,-0.0005934658
-0.9170007,-0.0005900938
-0.9160007,-0.0005827366
-0.9150007,-0.0005759926
-0.9140006,-0.0005698616
-0.9130006,-0.0005646503
-0.9120007,-0.00055668
-0.9110007,-0.0005514687
-0.9100007,-0.0005459508
-0.9090006,-0.0005385936
-0.9080006,-0.0005321561
-0.9070007,-0.0005272513
-0.9060007,-0.0005192811
-0.9050006,-0.0005119239
-0.9040006,-0.000509165
-0.9030007,-0.0005002751
-0.9020007,-0.0004935311
-0.9010007,-0.0004864805
-0.9000006,-0.0004803495
-0.8990006,-0.0004736054
-0.8980007,-0.000467781
-0.8970007,-0.0004601173
-0.8960007,-0.0004561322
-0.8950006,-0.0004472423
-0.8940006,-0.0004411113
-0.8930007,-0.0004352869
-0.8920007,-0.0004273166
-0.8910006,-0.000420266
-0.8900006,-0.0004147482
-0.8890007,-0.0004058582
-0.8880007,-0.0003991142
-0.8870007,-0.0003929832
-0.8860006,-0.0003853195
-0.8850006,-0.0003794951
-0.8840007,-0.0003718314
-0.8830007,-0.0003635546
-0.8820007,-0.0003577302
-0.8810006,-0.0003506796
-0.8800007,-0.0003427093
-0.8790007,-0.0003359652
-0.8780007,-0.0003286081
-0.8770006,-0.0003206378
-0.8760006,-0.0003135872
-0.8750007,-0.0003071497
-0.8740007,-0.0002991795
-0.8730007,-0.000293355
-0.8720006,-0.0002869175
-0.8710006,-0.0002752687
-0.8700007,-0.0002706705
-0.8690007,-0.0002627002
-0.8680006,-0.0002544234
-0.8670006,-0.0002476793
-0.8660007,-0.0002397091
-0.8650007,-0.0002317388
-0.8640007,-0.0002246882
-0.8630006,-0.0002164114
-0.8620006,-0.0002093608
-0.8610007,-0.0002013905
-0.8600007,-0.0001918875
-0.8590007,-0.0001860631
-0.8580006,-0.0001780929
-0.8570006,-0.0001679768
-0.8560007,-0.0001618458
-0.8550007,-0.0001529559
-0.8540006,-0.0001434529
-0.8530006,-0.0001412869
-0.8520007,-0.0001322131
-0.8510007,-0.000122189
-0.8500007,-0.0001174988
-0.8490006,-0.0001067083
-0.8480006,-0.0001006386
-0.8470007,-9.263772E-05
-0.8460007,-8.255227E-05
-0.8450007,-7.534839E-05
-0.8440006,-6.731683E-05
-0.8430007,-5.692484E-05
-0.8420007,-5.082453E-05
-0.8410007,-4.193463E-05
-0.8400006,-3.301408E-05
-0.8390006,-2.467597E-05
-0.8380007,-1.624589E-05
-0.8370007,-6.681584E-06
-0.8360007,2.157511E-07
-0.8350006,9.565473E-06
-0.8340006,1.995746E-05
-0.8330007,2.7192E-05
-0.8320007,3.592862E-05
-0.8310006,4.570751E-05
-0.8300006,5.340187E-05
-0.8290007,6.177064E-05
-0.8280007,7.243852E-05
-0.8270007,7.8968E-05
-0.8260006,8.798052E-05
-0.8250006,9.782072E-05
-0.8240007,0.000104718
-0.8230007,0.0001143743
-0.8220007,0.0001238773
-0.8210006,0.0001308053
-0.8200006,0.0001414732
-0.8190007,0.0001521104
-0.8180007,0.0001585479
-0.8170006,0.0001697063
-0.8160006,0.00017737
-0.8150007,0.0001849724
-0.8140007,0.0001946287
-0.8130007,0.0002023843
-0.8120006,0.00021201
-0.8110006,0.0002207159
-0.8100007,0.0002286862
-0.8090007,0.0002372389
-0.8080007,0.0002470791
-0.8070006,0.0002554785
-0.8060006,0.0002635714
-0.8050007,0.0002735342
-0.8040007,0.000282516
-0.8030006,0.0002892908
-0.8020006,0.0003019617
-0.8010007,0.0003102385
-0.8000007,0.0002541402
-0.8009993,0.0001738245
-0.8019994,0.0001207917
-0.8029994,7.664874E-05
-0.8039994,3.304707E-05
-0.8049994,-1.960741E-06
-0.8059993,-3.38111E-05
-0.8069994,-6.45579E-05
-0.8079994,-9.31895E-05
-0.8089994,-0.0001197979
-0.8099993,-0.0001458851
-0.8109994,-0.0001699185
-0.8119994,-0.0001933695
-0.8129994,-0.0002154716
-0.8139994,-0.0002374205
-0.8149993,-0.0002569476
-0.8159994,-0.0002783446
-0.8169994,-0.000298209
-0.8179994,-0.000312361
-0.8189994,-0.0003316735
-0.8199994,-0.0003506796
-0.8209994,-0.0003653939
-0.8219994,-0.0003810278
-0.8229994,-0.0004000338
-0.8239993,-0.0004129088
-0.8249994,-0.0004291559
-0.8259994,-0.0004469357
-0.8269994,-0.0004585845
-0.8279994,-0.0004745251
-0.8289993,-0.0004889328
-0.8299994,-0.0005018078
-0.8309994,-0.0005156025
-0.8319994,-0.0005293972
-0.8329993,-0.0005419657
-0.8339994,-0.0005557603
-0.8349994,-0.0005677157
-0.8359994,-0.0005815104
-0.8369994,-0.0005934658
-0.8379993,-0.0006035819
-0.8389994,-0.00061707
-0.8399994,-0.0006293319
-0.8409994,-0.0006397546
-0.8419994,-0.000652323
-0.8429993,-0.0006642784
-0.8439994,-0.0006743945
-0.8449994,-0.0006854302
-0.8459994,-0.0006976922
-0.8469993,-0.0007075017
-0.8479994,-0.000718231
-0.8489994,-0.0007292667
-0.8499994,-0.0007384631
-0.8509994,-0.0007510316
-0.8519993,-0.0007605346
-0.8529994,-0.0007700376
-0.8539994,-0.0007801537
-0.8549994,-0.0007918025
-0.8559994,-0.0007991597
-0.8569994,-0.0008114216
-0.8579994,-0.0008206181
-0.8589994,-0.0008288948
-0.8599994,-0.0008408502
-0.8609993,-0.000848514
-0.8619994,-0.0008574039
-0.8629994,-0.0008684396
-0.8639994,-0.000877023
-0.8649994,-0.0008856063
-0.8659993,-0.0008960289
-0.8669994,-0.0009036926
-0.8679994,-0.0009131957
-0.8689994,-0.0009233117
-0.8699993,-0.0009312819
-0.8709994,-0.0009398654
-0.8719994,-0.0009493683
-0.8729994,-0.0009573385
-0.8739994,-0.0009662285
-0.8749993,-0.0009754249
-0.8759994,-0.0009830886
-0.8769994,-0.000994431
-0.8779994,-0.001003321
-0.8789994,-0.001007919
-0.8799993,-0.001019874
-0.8809994,-0.001027845
-0.8819994,-0.001033976
-0.8829994,-0.001044398
-0.8839993,-0.001052675
-0.8849994,-0.0010585
-0.8859994,-0.001068309
-0.8869994,-0.001076892
-0.8879994,-0.001083023
-0.8889993,-0.001092526
-0.8899994,-0.001101416
-0.8909994,-0.001106628
-0.8919994,-0.001116131
-0.8929994,-0.001123794
-0.8939994,-0.001129925
-0.8949994,-0.001139122
-0.8959994,-0.001145559
-0.8969994,-0.001154756
-0.8979993,-0.001161193
-0.8989994,-0.001168244
-0.8999994,-0.001177747
-0.9009994,-0.001184184
-0.9019994,-0.001190622
-0.9029993,-0.001198899
-0.9039994,-0.001205643
-0.9049994,-0.001212387
-0.9059994,-0.001219744
-0.9069993,-0.001226795
-0.9079994,-0.001232926
-0.9089994,-0.001241202
-0.9099994,-0.001247333
-0.9109994,-0.001253771
-0.9119993,-0.001259902
-0.9129994,-0.001268792
-0.9139994,-0.001272777
-0.9149994,-0.00128044
-0.9159994,-0.001285345
-0.9169993,-0.001293316
-0.9179994,-0.001301286
-0.9189994,-0.001305577
-0.9199994,-0.001313854
-0.9209993,-0.001321825
-0.9219994,-0.001325503
-0.9229994,-0.001331634
-0.9239994,-0.001339298
-0.9249994,-0.001342976
-0.9259993,-0.001349414
-0.9269994,-0.001357078
-0.9279994,-0.001361369
-0.9289994,-0.001368726
-0.9299994,-0.001376697
-0.9309993,-0.001378229
-0.9319994,-0.001387426
-0.9329994,-0.001391717
-0.9339994,-0.001395396
-0.9349993,-0.001403979
-0.9359994,-0.001408271
-0.9369994,-0.001413176
-0.9379994,-0.001419613
-0.9389994,-0.001426051
-0.9399993,-0.001430343
-0.9409994,-0.00143678
-0.9419994,-0.001442298
-0.9429994,-0.00144567
-0.9439994,-0.001452721
-0.9449994,-0.001458545
-0.9459994,-0.00146253
-0.9469994,-0.001468661
-0.9479994,-0.001473566
-0.9489993,-0.001476325
-0.9499994,-0.001484295
-0.9509994,-0.001489506
-0.9519994,-0.001494411
-0.9529994,-0.001500542
-0.9539993,-0.001502995
-0.9549994,-0.001511578
-0.9559994,-0.00151495
-0.9569994,-0.001518015
-0.9579993,-0.001525066
-0.9589994,-0.001530584
-0.9599994,-0.001533036
-0.9609994,-0.00154162
-0.9619994,-0.001546218
-0.9629993,-0.00154867
-0.9639994,-0.001556027
-0.9649994,-0.001561239
-0.9659994,-0.001563691
-0.9669994,-0.001569516
-0.9679993,-0.001576566
-0.9689994,-0.001578405
-0.9699994,-0.001585149
-0.9709994,-0.001590974
-0.9719993,-0.001592813
-0.9729994,-0.00160017
-0.9739994,-0.001603542
-0.9749994,-0.001609367
-0.9759994,-0.001617031
-0.9769993,-0.001619789
-0.9779994,-0.001626534
-0.9789994,-0.001631438
-0.9799994,-0.001633891
-0.9809994,-0.001640022
-0.9819994,-0.001645846
-0.9829994,-0.001648298
-0.9839994,-0.001654429
-0.9849994,-0.00166056
-0.9859993,-0.001663626
-0.9869994,-0.00167037
-0.9879994,-0.001674968
-0.9889994,-0.00167926
-0.9899994,-0.001685391
-0.9909993,-0.001688456
-0.9919994,-0.001693055
-0.9929994,-0.001701025
-0.9939994,-0.001703477
-0.9949993,-0.001710834
-0.9959994,-0.001718191
-0.9969994,-0.001717272
-0.9979994,-0.001727388
-0.9989994,-0.00173168
-0.9999993,-0.00173168
-1.000999,-0.001740569
-1.001999,-0.00174762
-1.002999,-0.001750072
-1.003999,-0.001760802
-1.004999,-0.001763254
-1.005999,-0.001770305
-1.006999,-0.001776129
-1.007999,-0.001779501
-1.008999,-0.001784406
-1.009999,-0.001791763
-1.010999,-0.001794215
-1.011999,-0.001802186
-1.012999,-0.001809849
-1.013999,-0.001813835
-1.014999,-0.001819046
-1.015999,-0.001823951
-1.016999,-0.001828549
-1.017999,-0.001833454
-1.018999,-0.001841424
-1.019999,-0.001845409
-1.020999,-0.001850007
-1.021999,-0.001857977
-1.022999,-0.001861963
-1.023999,-0.0018684
-1.024999,-0.001874838
-1.025999,-0.001878516
-1.026999,-0.001883114
-1.027999,-0.001891698
-1.028999,-0.00189507
-1.029999,-0.001900588
-1.030999,-0.001909784
-1.031999,-0.00191101
-1.032999,-0.001915302
-1.033999,-0.001925725
-1.034999,-0.001929097
-1.035999,-0.001934921
-1.036999,-0.001941359
-1.037999,-0.001948103
-1.038999,-0.001952701
-1.039999,-0.001958832
-1.040999,-0.00196435
-1.041999,-0.001969561
-1.042999,-0.001974772
-1.043999,-0.001982436
-1.044999,-0.001987341
-1.045999,-0.001993778
-1.046999,-0.001999603
-1.047999,-0.00200696
-1.048999,-0.002010945
-1.049999,-0.002018609
-1.050999,-0.002024433
-1.051999,-0.002026272
-1.052999,-0.002035162
-1.053999,-0.00203976
-1.054999,-0.002046505
-1.055999,-0.002053555
-1.056999,-0.00205846
-1.057999,-0.002066124
-1.058999,-0.002071948
-1.059999,-0.00207624
-1.060999,-0.002082677
-1.061999,-0.002089421
-1.062999,-0.002094633
-1.063999,-0.002101377
-1.064999,-0.002108427
-1.065999,-0.002112412
-1.066999,-0.002120996
-1.067999,-0.002127433
-1.068999,-0.002130499
-1.069999,-0.002138469
-1.070999,-0.002146133
-1.071999,-0.002149505
-1.072999,-0.002159008
-1.073999,-0.002165139
-1.074999,-0.002170044
-1.075999,-0.002178014
-1.076999,-0.002184145
-1.077999,-0.002189356
-1.078999,-0.002198246
-1.079999,-0.002202844
-1.080999,-0.002209895
-1.081999,-0.002219398
-1.082999,-0.002223689
-1.083999,-0.002231353
-1.084999,-0.002240856
-1.085999,-0.002244228
-1.086999,-0.002255264
-1.087999,-0.002262314
-1.088999,-0.0022663
-1.089999,-0.002278255
-1.090999,-0.002285306
-1.091999,-0.002291437
-1.092999,-0.002303392
-1.093999,-0.002309216
-1.094999,-0.002319639
-1.095999,-0.002328222
-1.096999,-0.00233466
-1.097999,-0.002345083
-1.098999,-0.002354586
-1.099999,-0.002358264
-1.100999,-0.002370526
-1.101999,-0.002380949
-1.102999,-0.002385547
-1.103999,-0.002397196
-1.104999,-0.002409151
-1.105999,-0.00241099
-1.106999,-0.002423865
-1.107999,-0.002431529
-1.108999,-0.002437967
-1.109999,-0.002448083
-1.110999,-0.002455747
-1.111999,-0.002460651
-1.112999,-0.00247322
-1.113999,-0.002478431
-1.114999,-0.002484869
-1.115999,-0.002494065
-1.116999,-0.002498663
-1.117999,-0.002507553
-1.118999,-0.002513071
-1.119999,-0.00251583
-1.120999,-0.002525026
-1.121999,-0.002532077
-1.122999,-0.002533303
-1.123999,-0.0025425
-1.124999,-0.002539741
-1.125999,-0.002549244
-1.126999,-0.002555681
-1.127999,-0.002553535
-1.128999,-0.00255844
-1.129999,-0.002566717
-1.130999,-0.002561506
-1.131999,-0.002570396
-1.132999,-0.002572235
-1.133999,-0.002570702
-1.134999,-0.002575607
-1.135999,-0.00257714
-1.136999,-0.002575913
-1.137999,-0.002581431
-1.138999,-0.002581431
-1.139999,-0.002582045
-1.140999,-0.002585723
-1.141999,-0.002588482
-1.142999,-0.002587869
-1.143999,-0.002591547
-1.144999,-0.002595226
-1.145999,-0.002593693
-1.146999,-0.002597372
-1.147999,-0.00260197
-1.148999,-0.002600744
-1.149999,-0.002606875
-1.150999,-0.002609327
-1.151999,-0.002609021
-1.152999,-0.002614232
-1.153999,-0.002616991
-1.154999,-0.002617911
-1.155999,-0.002623428
-1.156999,-0.00262864
-1.157999,-0.0026268
-1.158999,-0.002634158
-1.159999,-0.00263569
-1.160999,-0.002641515
-1.161999,-0.0026455
-1.162999,-0.002646113
-1.163999,-0.002651937
-1.164999,-0.002658375
-1.165999,-0.002659295
-1.166999,-0.002668491
-1.167999,-0.002670637
-1.168999,-0.002675848
-1.169999,-0.002682592
-1.170999,-0.002685351
-1.171999,-0.002691789
-1.172999,-0.002699759
-1.173999,-0.002703744
-1.174999,-0.002708649
-1.175999,-0.002715086
-1.176999,-0.002717845
-1.177999,-0.002729801
-1.178999,-0.002734705
-1.179999,-0.002737771
-1.180999,-0.002746048
-1.181999,-0.002752485
-1.182999,-0.002758003
-1.183999,-0.002765054
-1.184999,-0.002773331
-1.185999,-0.002777929
-1.186999,-0.002788045
-1.187999,-0.002795402
-1.188999,-0.002798468
-1.189999,-0.002811956
-1.190999,-0.002819926
-1.191999,-0.002824524
-1.192999,-0.002834334
-1.193999,-0.002846902
-1.194999,-0.002851194
-1.195999,-0.002866215
-1.196999,-0.002873265
-1.197999,-0.002884608
-1.198999,-0.002895337
-1.199999,-0.002905453
-1.200999,-0.00291373
-1.201999,-0.002925992
-1.202999,-0.002936108
-1.203999,-0.002947756
-1.204999,-0.002958486
-1.205999,-0.002970134
-1.206999,-0.002979638
-1.207999,-0.002994658
-1.208999,-0.00300876
-1.209999,-0.002979532
-1.210999,-0.00299486
-1.211999,-0.003004056
-1.212999,-0.003019383
-1.213999,-0.003031645
-1.214999,-0.003043907
-1.215999,-0.003059235
-1.216999,-0.003071497
-1.217999,-0.003083759
-1.218999,-0.003099086
-1.219999,-0.003114413
-1.220999,-0.003126675
-1.221999,-0.003142003
-1.222999,-0.00315733
-1.223999,-0.003169592
-1.224999,-0.003184919
-1.225999,-0.003200247
-1.226999,-0.003215575
-1.227999,-0.003233967
-1.228999,-0.003249295
-1.229999,-0.003264622
-1.230999,-0.003283015
-1.231999,-0.003295277
-1.232999,-0.00331367
-1.233999,-0.003328997
-1.234999,-0.003344325
-1.235999,-0.003365783
-1.236999,-0.00338111
-1.237999,-0.003396438
-1.238999,-0.003420962
-1.239999,-0.003436289
-1.240999,-0.003448551
-1.241999,-0.003479206
-1.242999,-0.003488402
-1.243999,-0.003509861
-1.244999,-0.003534385
-1.245999,-0.003549712
-1.246999,-0.003568105
-1.247999,-0.003592629
-1.248999,-0.003611021
-1.249999,-0.00363248
-1.250999,-0.003657004
-1.251999,-0.003675397
-1.252999,-0.003699921
-1.253999,-0.003724444
-1.254999,-0.003742838
-1.255999,-0.003770427
-1.256999,-0.003798016
-1.257999,-0.003819474
-1.258999,-0.003847064
-1.259999,-0.003874653
-1.260999,-0.003899177
-1.261999,-0.003926767
-1.262999,-0.003963552
-1.263999,-0.003985011
-1.264999,-0.004015665
-1.265999,-0.004052451
-1.266999,-0.004073909
-1.267999,-0.004110695
-1.268999,-0.004147481
-1.269999,-0.004178136
-1.270999,-0.004214922
-1.271999,-0.004248642
-1.272999,-0.004285428
-1.273999,-0.004325279
-1.274999,-0.004362065
-1.275999,-0.004401916
-1.276999,-0.004444833
-1.277999,-0.00448775
-1.278999,-0.004527601
-1.279999,-0.004582779
-1.280999,-0.004619565
-1.281999,-0.004671679
-1.282999,-0.004723792
-1.283999,-0.00477284
-1.284999,-0.004828018
-1.285999,-0.004886262
-1.286999,-0.004938376
-1.287999,-0.00499662
-1.288999,-0.00505793
-1.289999,-0.005116174
-1.290999,-0.00518668
-1.291999,-0.005251055
-1.292999,-0.005318495
-1.293999,-0.005392067
-1.294999,-0.005465638
-1.295999,-0.005542276
-1.296999,-0.005625044
-1.297999,-0.005698615
-1.298999,-0.005787514
-1.299999,-0.005870283
-1.300999,-0.005956116
-1.301999,-0.006051145
-1.302999,-0.006149241
-1.303999,-0.006241206
-1.304999,-0.006348498
-1.305999,-0.006449659
-1.306999,-0.006553885
-1.307999,-0.006670373
-1.308999,-0.006786862
-1.309999,-0.006897219
-1.310999,-0.007022904
-1.311999,-0.007148589
-1.312999,-0.007274273
-1.313999,-0.007409154
-1.314999,-0.007544036
-1.315999,-0.007681982
-1.316999,-0.007829125
-1.317999,-0.007979334
-1.318999,-0.008132609
-1.319999,-0.008288948
-1.320999,-0.008454484
-1.321999,-0.008613889
-1.322999,-0.008788622
-1.323999,-0.008963354
-1.324999,-0.009138087
-1.325999,-0.009322016
-1.326999,-0.009512075
-1.327999,-0.00969907
-1.328999,-0.00989526
-1.329999,-0.01009452
-1.330999,-0.01029684
-1.331999,-0.01050836
-1.332999,-0.01071988
-1.333999,-0.01093139
-1.334999,-0.01115211
-1.335999,-0.01137589
-1.336999,-0.01160274
-1.337999,-0.01183878
-1.338999,-0.01207175
-1.339999,-0.0123078
-1.340999,-0.01255917
-1.341999,-0.0128044
-1.342999,-0.0130619
-1.343999,-0.01332554
-1.344999,-0.01357997
-1.345999,-0.0138436
-1.346999,-0.01411643
-1.347999,-0.014377
-1.348999,-0.01465902
-1.349999,-0.01494718
-1.350999,-0.01521694
-1.351999,-0.01549896
-1.352999,-0.01579631
-1.353999,-0.01607527
-1.354999,-0.01636956
-1.355999,-0.01667611
-1.356999,-0.0169704
-1.357999,-0.01727694
-1.358999,-0.01758349
-1.359999,-0.01788697
-1.360999,-0.01819659
-1.361999,-0.0185062
-1.362999,-0.01882195
-1.363999,-0.01914995
-1.364999,-0.01946876
-1.365999,-0.01979984
-1.366999,-0.02013397
-1.367999,-0.02045585
-1.368999,-0.02079918
-1.369999,-0.02113332
-1.370999,-0.02145519
-1.371999,-0.02179546
-1.372999,-0.0221388
-1.373999,-0.022476
-1.374999,-0.02282853
-1.375999,-0.02317493
-1.376999,-0.0235244
-1.377999,-0.02387999
-1.378999,-0.02422639
-1.379999,-0.02458199
-1.380999,-0.02494371
-1.381999,-0.02530851
-1.382999,-0.02565797
-1.383999,-0.02601663
-1.384999,-0.02637836
-1.385999,-0.02673396
-1.386999,-0.02710181
-1.387999,-0.02745434
-1.388999,-0.02781914
-1.389999,-0.028187
-1.390999,-0.02855179
-1.391999,-0.02892884
-1.392999,-0.02931203
-1.393999,-0.02967376
-1.394999,-0.03005387
-1.395999,-0.03043399
-1.396999,-0.03092955
-1.397999,-0.03129741
-1.398999,-0.03166527
-1.399999,-0.03203313
-1.400999,-0.0324623
-1.401999,-0.03283015
-1.402999,-0.03322866
-1.403999,-0.03362718
-1.404999,-0.03399504
-1.405999,-0.03439355
-1.406999,-0.03479206
-1.407999,-0.03519057
-1.408999,-0.03558908
-1.409999,-0.0359876
-1.410999,-0.03638611
-1.411999,-0.03678463
-1.412999,-0.03718314
-1.413999,-0.03758165
-1.414999,-0.03798017
-1.415999,-0.03834802
-1.416999,-0.03877719
-1.417999,-0.0391757
-1.418999,-0.03957421
-1.419999,-0.04000338
-1.420999,-0.04040189
-1.421999,-0.0408004
-1.422999,-0.04122957
-1.423999,-0.04162809
-1.424999,-0.04205726
-1.425999,-0.04242511
-1.426999,-0.04285428
-1.427999,-0.04328345
-1.428999,-0.04365131
-1.429999,-0.04408047
-1.430999,-0.04447899
-1.431999,-0.04490815
-1.432999,-0.04533732
-1.433999,-0.04573583
-1.434999,-0.04613435
-1.435999,-0.04656351
-1.436999,-0.04696203
-1.437999,-0.04739119
-1.438999,-0.0477897
-1.439999,-0.04818822
-1.440999,-0.04861739
-1.441999,-0.04904656
-1.442999,-0.04944507
-1.443999,-0.04984358
-1.444999,-0.0503034
-1.445999,-0.05070192
-1.446999,-0.05113108
-1.447999,-0.05156025
-1.448999,-0.05192811
-1.449999,-0.05235728
-1.450999,-0.05278645
-1.451999,-0.05321561
-1.452999,-0.05364478
-1.453999,-0.05407395
-1.454999,-0.05447246
-1.455999,-0.05490163
-1.456999,-0.05533079
-1.457999,-0.05572931
-1.458999,-0.05615847
-1.459999,-0.05655699
-1.460999,-0.05698615
-1.461999,-0.05741533
-1.462999,-0.05784449
-1.463999,-0.058243
-1.464999,-0.05870283
-1.465999,-0.05913199
-1.466999,-0.0595305
-1.467999,-0.05999033
-1.468999,-0.06038884
-1.469999,-0.06081801
-1.470999,-0.06124718
-1.471999,-0.06167634
-1.472999,-0.06210551
-1.473999,-0.06253468
-1.474999,-0.06293319
-1.475999,-0.06339302
-1.476999,-0.06382218
-1.477999,-0.06425135
-1.478999,-0.06468052
-1.479999,-0.06510969
-1.480999,-0.06553885
-1.481999,-0.06596802
-1.482999,-0.06639718
-1.483999,-0.06682636
-1.484999,-0.06728618
-1.485999,-0.06771534
-1.486999,-0.06811386
-1.487999,-0.06857368
-1.488999,-0.06900284
-1.489999,-0.06943201
-1.490999,-0.06986118
-1.491999,-0.07029035
-1.492999,-0.07071952
-1.493999,-0.07114869
-1.494999,-0.07157785
-1.495999,-0.07206833
-1.496999,-0.07249749
-1.497999,-0.07289601
-1.498999,-0.07332518
-1.499999,-0.07344779
-1.499001,-0.07304928
-1.498001,-0.07265078
-1.497001,-0.07225226
-1.496001,-0.07182309
-1.495001,-0.07136327
-1.494001,-0.07099541
-1.493001,-0.07056624
-1.492001,-0.07016773
-1.491001,-0.06973856
-1.490001,-0.0693094
-1.489001,-0.06891088
-1.488001,-0.06848171
-1.487001,-0.06802189
-1.486001,-0.06762338
-1.485001,-0.06719422
-1.484001,-0.06676505
-1.483001,-0.06636653
-1.482001,-0.06596802
-1.481001,-0.06550819
-1.480001,-0.06510969
-1.479001,-0.06468052
-1.478001,-0.06425135
-1.477001,-0.06382218
-1.476001,-0.06339302
-1.475001,-0.06296384
-1.474001,-0.06253468
-1.473001,-0.06210551
-1.472001,-0.06167634
-1.471001,-0.06127783
-1.470001,-0.06084866
-1.469001,-0.0604195
-1.468001,-0.05999033
-1.467001,-0.05959181
-1.466001,-0.05916265
-1.465001,-0.05876414
-1.464001,-0.05830431
-1.463001,-0.0579058
-1.462001,-0.05747664
-1.461001,-0.05707812
-1.460001,-0.05664895
-1.459001,-0.05621978
-1.458001,-0.05579061
-1.457001,-0.05539211
-1.456001,-0.05499359
-1.455001,-0.05456442
-1.454001,-0.05413526
-1.453001,-0.05373674
-1.452001,-0.05330757
-1.451001,-0.05290907
-1.450001,-0.05247989
-1.449001,-0.05205073
-1.448001,-0.05168287
-1.447001,-0.05128435
-1.446001,-0.05085519
-1.445001,-0.05042602
-1.444001,-0.05002751
-1.443001,-0.049629
-1.442001,-0.04923048
-1.441001,-0.04880131
-1.440001,-0.0484028
-1.439001,-0.04797364
-1.438001,-0.04757512
-1.437001,-0.04717661
-1.436001,-0.0467781
-1.435001,-0.04637958
-1.434001,-0.04595042
-1.433001,-0.04555191
-1.432001,-0.04515339
-1.431001,-0.04475488
-1.430001,-0.04435637
-1.429001,-0.04398851
-1.428001,-0.04358999
-1.427001,-0.04319149
-1.426001,-0.04276232
-1.425001,-0.04239446
-1.424001,-0.04199595
-1.423001,-0.04159743
-1.422001,-0.04119892
-1.421001,-0.04083106
-1.420001,-0.04043255
-1.419001,-0.04003404
-1.418001,-0.03963552
-1.417001,-0.03923701
-1.416001,-0.03886915
-1.415001,-0.03847064
-1.414001,-0.03807213
-1.413001,-0.03770427
-1.412001,-0.03733641
-1.411001,-0.0369379
-1.410001,-0.03657004
-1.409001,-0.03617153
-1.408001,-0.03580367
-1.407001,-0.03543581
-1.406001,-0.0350373
-1.405001,-0.03466944
-1.404001,-0.03430158
-1.403001,-0.03393373
-1.402001,-0.03356587
-1.401001,-0.03319801
-1.400001,-0.03283015
-1.399001,-0.0324623
-1.398001,-0.03209443
-1.397001,-0.03172658
-1.396001,-0.03135872
-1.395001,-0.03099086
-1.394001,-0.030623
-1.393001,-0.0302858
-1.392001,-0.02991794
-1.391001,-0.02955008
-1.390001,-0.02921288
-1.389001,-0.02887568
-1.388001,-0.02850782
-1.387001,-0.02813996
-1.386001,-0.02780276
-1.385001,-0.02746556
-1.384001,-0.02712835
-1.383001,-0.02676049
-1.382001,-0.02642329
-1.381001,-0.02608609
-1.380001,-0.02574889
-1.379001,-0.02541168
-1.378001,-0.02510513
-1.377001,-0.02473728
-1.376001,-0.02440007
-1.375001,-0.02409353
-1.374001,-0.02375632
-1.373001,-0.02341912
-1.372001,-0.02311257
-1.371001,-0.02277537
-1.370001,-0.02243817
-1.369001,-0.02213162
-1.368001,-0.02182507
-1.367001,-0.02151852
-1.366001,-0.02121197
-1.365001,-0.02090542
-1.364001,-0.02059888
-1.363001,-0.02029233
-1.362001,-0.01995512
-1.361001,-0.01967923
-1.360001,-0.01937268
-1.359001,-0.01906613
-1.358001,-0.01879024
-1.357001,-0.01848369
-1.356001,-0.0182078
-1.355001,-0.01790125
-1.354001,-0.01762536
-1.353001,-0.01734946
-1.352001,-0.01707357
-1.351001,-0.01676702
-1.350001,-0.01649113
-1.349001,-0.01621523
-1.348001,-0.01597
-1.347001,-0.01581164
-1.346001,-0.01554801
-1.345001,-0.01528438
-1.344001,-0.01502995
-1.343001,-0.01477858
-1.342001,-0.01452721
-1.341001,-0.0142789
-1.340001,-0.01403673
-1.339001,-0.01379149
-1.338001,-0.01356158
-1.337001,-0.01332554
-1.336001,-0.01308949
-1.335001,-0.01285958
-1.334001,-0.0126358
-1.333001,-0.01240896
-1.332001,-0.01218824
-1.331001,-0.01196753
-1.330001,-0.01175294
-1.329001,-0.01154449
-1.328001,-0.01133604
-1.327001,-0.01113065
-1.326001,-0.01092833
-1.325001,-0.01072601
-1.324001,-0.01052982
-1.323001,-0.01034282
-1.322001,-0.01014663
-1.321001,-0.009965767
-1.320001,-0.009784903
-1.319001,-0.009600975
-1.318001,-0.009429308
-1.317001,-0.009260706
-1.316001,-0.009089039
-1.315001,-0.008929634
-1.314001,-0.008764098
-1.313001,-0.008604692
-1.312001,-0.008451419
-1.311001,-0.008292013
-1.310001,-0.00814487
-1.309001,-0.008000793
-1.308001,-0.00785365
-1.307001,-0.007715703
-1.306001,-0.007580821
-1.305001,-0.00744594
-1.304001,-0.00731719
-1.303001,-0.007194571
-1.302001,-0.007068886
-1.301001,-0.006949332
-1.300001,-0.00683591
-1.299001,-0.00671329
-1.298001,-0.006602933
-1.297001,-0.006492575
-1.296001,-0.006379152
-1.295001,-0.006277991
-1.294001,-0.006182961
-1.293001,-0.006078735
-1.292001,-0.005986771
-1.291001,-0.005894806
-1.290001,-0.00579671
-1.289001,-0.005710877
-1.288001,-0.005625044
-1.287001,-0.005539211
-1.286001,-0.005459507
-1.285001,-0.005379805
-1.284001,-0.005300103
-1.283001,-0.005229597
-1.282001,-0.005156024
-1.281001,-0.005088584
-1.280001,-0.005018078
-1.279001,-0.004950637
-1.278001,-0.004886262
-1.277001,-0.004821887
-1.276001,-0.004754446
-1.275001,-0.004699268
-1.274001,-0.004637958
-1.273001,-0.004582779
-1.272001,-0.004527601
-1.271001,-0.004475488
-1.270001,-0.004420309
-1.269001,-0.004377393
-1.268001,-0.004325279
-1.267001,-0.004276231
-1.266001,-0.004230249
-1.265001,-0.004190398
-1.264001,-0.00414135
-1.263001,-0.004101499
-1.262001,-0.004058582
-1.261001,-0.004015665
-1.260001,-0.003975814
-1.259001,-0.003935963
-1.258001,-0.003896111
-1.257001,-0.003862391
-1.256001,-0.003825605
-1.255001,-0.00378882
-1.254001,-0.003758165
-1.253001,-0.003721379
-1.252001,-0.003687659
-1.251001,-0.003657004
-1.250001,-0.003626349
-1.249001,-0.003592629
-1.248001,-0.003565039
-1.247001,-0.003534385
-1.246001,-0.00350373
-1.245001,-0.003479206
-1.244001,-0.003451617
-1.243001,-0.003424027
-1.242001,-0.003396438
-1.241001,-0.003371914
-1.240001,-0.003341259
-1.239001,-0.003322866
-1.238001,-0.003295277
-1.237001,-0.003267688
-1.236001,-0.003246229
-1.235001,-0.003224771
-1.234001,-0.003203312
-1.233001,-0.003175723
-1.232001,-0.00315733
-1.231001,-0.003132806
-1.230001,-0.003111348
-1.229001,-0.003089889
-1.228001,-0.003074562
-1.227001,-0.003050038
-1.226001,-0.003031645
-1.225001,-0.003010187
-1.224001,-0.002988729
-1.223001,-0.002970336
-1.222001,-0.002955008
-1.221001,-0.00293355
-1.220001,-0.002912092
-1.219001,-0.00289983
-1.218001,-0.002881437
-1.217001,-0.002859978
-1.216001,-0.002847716
-1.215001,-0.002829324
-1.214001,-0.002810931
-1.213001,-0.002798669
-1.212001,-0.00277721
-1.211001,-0.002764949
-1.210001,-0.002749621
-1.209001,-0.002731228
-1.208001,-0.002718966
-1.207001,-0.002703639
-1.206001,-0.00268218
-1.205001,-0.002672984
-1.204001,-0.002657657
-1.203001,-0.002639264
-1.202001,-0.002623936
-1.201001,-0.00261474
-1.200001,-0.002599412
-1.199001,-0.002587151
-1.198001,-0.002571823
-1.197001,-0.002559561
-1.196001,-0.002544234
-1.195001,-0.002531972
-1.194001,-0.00251971
-1.193001,-0.002504382
-1.192001,-0.00249212
-1.191001,-0.002476793
-1.190001,-0.002467597
-1.189001,-0.002452269
-1.188001,-0.002440007
-1.187001,-0.002430811
-1.186001,-0.002415484
-1.185001,-0.002403222
-1.184001,-0.002394025
-1.183001,-0.002378698
-1.182001,-0.002369501
-1.181001,-0.002360305
-1.180001,-0.002344977
-1.179001,-0.002335781
-1.178001,-0.002326585
-1.177001,-0.002311257
-1.176001,-0.002302061
-1.175001,-0.002292864
-1.174001,-0.002277537
-1.173001,-0.00226834
-1.172001,-0.002259144
-1.171001,-0.002246882
-1.170001,-0.002237685
-1.169001,-0.002228489
-1.168001,-0.002216227
-1.167001,-0.002210096
-1.166001,-0.002197834
-1.165001,-0.002185572
-1.164001,-0.002176376
-1.163001,-0.002167179
-1.162001,-0.002157983
-1.161001,-0.002148786
-1.160001,-0.00213959
-1.159001,-0.002127328
-1.158001,-0.002121197
-1.157001,-0.002108935
-1.156001,-0.002096673
-1.155001,-0.002093608
-1.154001,-0.002081346
-1.153001,-0.002072149
-1.152001,-0.002062953
-1.151001,-0.002053756
-1.150001,-0.002047626
-1.149001,-0.002038429
-1.148001,-0.002020036
-1.147001,-0.002020036
-1.146001,-0.00201084
-1.145001,-0.001998578
-1.144001,-0.001992447
-1.143001,-0.00198325
-1.142001,-0.001970988
-1.141001,-0.001967923
-1.140001,-0.001955661
-1.139001,-0.001946465
-1.138001,-0.001940334
-1.137001,-0.001931137
-1.136001,-0.001921941
-1.135001,-0.00191581
-1.134001,-0.001906613
-1.133001,-0.001897417
-1.132001,-0.001891286
-1.131001,-0.001885155
-1.130001,-0.001875959
-1.129001,-0.001869828
-1.128001,-0.001860631
-1.127001,-0.001851435
-1.126001,-0.001845304
-1.125001,-0.001839173
-1.124001,-0.001826911
-1.123001,-0.00182078
-1.122001,-0.001817714
-1.121001,-0.001805453
-1.120001,-0.001802387
-1.119001,-0.001790125
-1.118001,-0.001783994
-1.117001,-0.001777863
-1.116001,-0.001765601
-1.115001,-0.00175947
-1.114001,-0.001753339
-1.113001,-0.001744143
-1.112001,-0.001738012
-1.111001,-0.001728815
-1.110001,-0.001719619
-1.109001,-0.001716554
-1.108001,-0.001704292
-1.107001,-0.001701226
-1.106001,-0.00169203
-1.105001,-0.001682833
-1.104001,-0.001676702
-1.103001,-0.001670571
-1.102001,-0.001658309
-1.101001,-0.001655244
-1.100001,-0.001642982
-1.099001,-0.001633785
-1.098001,-0.001627655
-1.097001,-0.001621523
-1.096001,-0.001609262
-1.095001,-0.001638489
-1.094001,-0.001633584
-1.093001,-0.001623161
-1.092001,-0.001615191
-1.091001,-0.001609367
-1.090001,-0.001598944
-1.089001,-0.001593426
-1.088001,-0.00158423
-1.087001,-0.001573194
-1.086001,-0.001567983
-1.085001,-0.001561545
-1.084001,-0.00154959
-1.083001,-0.001544379
-1.082001,-0.001535795
-1.081001,-0.001526292
-1.080001,-0.001522307
-1.079001,-0.001511578
-1.078001,-0.001503608
-1.077001,-0.001496864
-1.076001,-0.001483989
-1.075001,-0.001478164
-1.074001,-0.001471114
-1.073001,-0.001462224
-1.072001,-0.001457012
-1.071001,-0.001447816
-1.070001,-0.001437393
-1.069001,-0.001434634
-1.068001,-0.001425438
-1.067001,-0.001416241
-1.066001,-0.00141011
-1.065001,-0.00140214
-1.064001,-0.00139417
-1.063001,-0.001388345
-1.062001,-0.001380069
-1.061001,-0.001371792
-1.060001,-0.001365354
-1.059001,-0.00135861
-1.058001,-0.001350947
-1.057001,-0.001343896
-1.056001,-0.001335619
-1.055001,-0.001330408
-1.054001,-0.00132489
-1.053001,-0.001316307
-1.052001,-0.001308643
-1.051001,-0.001303125
-1.050001,-0.001296074
-1.049001,-0.001287185
-1.048001,-0.001285039
-1.047001,-0.001275229
-1.046001,-0.001267872
-1.045001,-0.00126542
-1.044001,-0.001255304
-1.043001,-0.001251012
-1.042001,-0.001245494
-1.041001,-0.001236604
-1.040001,-0.00123078
-1.039001,-0.001228634
-1.038001,-0.001219131
-1.037001,-0.001213613
-1.036001,-0.001207482
-1.035001,-0.001199818
-1.034001,-0.001197673
-1.033001,-0.001188783
-1.032001,-0.001183265
-1.031001,-0.00117836
-1.030001,-0.001170696
-1.029001,-0.001166098
-1.028001,-0.001159661
-1.027001,-0.001153836
-1.026001,-0.001149544
-1.025001,-0.001144333
-1.024001,-0.001134217
-1.023001,-0.001132684
-1.022001,-0.00112686
-1.021001,-0.001120422
-1.020001,-0.001113985
-1.019001,-0.001111226
-1.018001,-0.001103562
-1.017001,-0.001098964
-1.016001,-0.001094059
-1.015001,-0.001087928
-1.014001,-0.001084556
-1.013001,-0.001077812
-1.012001,-0.001072601
-1.011001,-0.001067389
-1.010001,-0.001060645
-1.009001,-0.001056047
-1.008001,-0.001052982
-1.007001,-0.001043479
-1.006001,-0.001041639
-1.005001,-0.001039187
-1.004001,-0.001027232
-1.003001,-0.001027845
-1.002001,-0.001022634
-1.001001,-0.001011904
-1.000001,-0.001010371
-0.9990008,-0.00100608
-0.9980009,-0.0009962702
-0.9970009,-0.0009947375
-0.9960009,-0.0009886065
-0.9950009,-0.0009821691
-0.9940009,-0.0009797165
-0.9930009,-0.0009717464
-0.9920009,-0.0009674546
-0.9910009,-0.0009619368
-0.9900008,-0.0009545796
-0.9890009,-0.0009509011
-0.9880009,-0.0009459963
-0.9870009,-0.0009401719
-0.9860009,-0.0009340409
-0.9850008,-0.0009294427
-0.9840009,-0.0009245379
-0.9830009,-0.00091902
-0.9820009,-0.0009153415
-0.9810008,-0.0009095171
-0.9800009,-0.0009030796
-0.9790009,-0.000899401
-0.9780009,-0.0008926569
-0.9770009,-0.0008877521
-0.9760008,-0.0008840736
-0.9750009,-0.0008761032
-0.9740009,-0.0008718116
-0.9730009,-0.0008656807
-0.9720009,-0.0008586301
-0.9710009,-0.000855258
-0.9700009,-0.0008497401
-0.9690009,-0.0008429961
-0.9680009,-0.0008408502
-0.9670008,-0.00083288
-0.9660009,-0.0008298145
-0.9650009,-0.0008255228
-0.9640009,-0.0008169395
-0.9630009,-0.0008144871
-0.9620008,-0.0008089693
-0.9610009,-0.0007994662
-0.9600009,-0.0007967073
-0.9590009,-0.0007918025
-0.9580009,-0.0007835258
-0.9570009,-0.0007810733
-0.9560009,-0.0007746358
-0.9550009,-0.0007666656
-0.9540009,-0.0007642132
-0.9530008,-0.0007565495
-0.9520009,-0.0007510316
-0.9510009,-0.0007470464
-0.9500009,-0.0007409155
-0.9490009,-0.0007344779
-0.9480008,-0.0007295733
-0.9470009,-0.0007243619
-0.9460009,-0.0007173113
-0.9450009,-0.0007130196
-0.9440009,-0.0007062756
-0.9430009,-0.000699838
-0.9420009,-0.0006955464
-0.9410009,-0.0006894154
-0.9400009,-0.0006817517
-0.9390008,-0.0006783796
-0.9380009,-0.0006722487
-0.9370009,-0.0006642784
-0.9360009,-0.0006609064
-0.9350009,-0.0006541623
-0.9340008,-0.0006461921
-0.9330009,-0.0006446594
-0.9320009,-0.0006376088
-0.9310009,-0.0006320909
-0.9300008,-0.0006253468
-0.9290009,-0.000620442
-0.9280009,-0.000613698
-0.9270009,-0.0006066473
-0.9260009,-0.0006011295
-0.9250008,-0.0005971444
-0.9240009,-0.0005882545
-0.9230009,-0.0005836562
-0.9220009,-0.0005778318
-0.9210009,-0.0005713943
-0.9200009,-0.0005646503
-0.9190009,-0.0005606651
-0.9180009,-0.0005526949
-0.9170009,-0.000547177
-0.9160008,-0.0005419657
-0.9150009,-0.0005352216
-0.9140009,-0.0005284776
-0.9130009,-0.0005229597
-0.9120009,-0.0005162156
-0.9110008,-0.0005094716
-0.9100009,-0.0005027275
-0.9090009,-0.0004978227
-0.9080009,-0.0004904656
-0.9070009,-0.0004846411
-0.9060009,-0.0004785102
-0.9050009,-0.0004705399
-0.9040009,-0.0004662482
-0.9030009,-0.0004598107
-0.9020008,-0.0004518405
-0.9010009,-0.0004460161
-0.9000009,-0.000439272
-0.8990009,-0.0004328345
-0.8980009,-0.0004276232
-0.8970008,-0.0004190398
-0.8960009,-0.0004150547
-0.8950009,-0.0004080041
-0.8940009,-0.0004003404
-0.8930008,-0.0003935963
-0.8920009,-0.0003871588
-0.8910009,-0.0003798016
-0.8900009,-0.0003742838
-0.8890009,-0.0003666201
-0.8880008,-0.000359876
-0.8870009,-0.0003555843
-0.8860009,-0.0003466944
-0.8850009,-0.0003405634
-0.8840009,-0.0003328998
-0.8830009,-0.0003237033
-0.8820009,-0.0003178789
-0.8810009,-0.0003111348
-0.8800009,-0.0003031646
-0.8790008,-0.0002967271
-0.8780009,-0.0002902895
-0.8770009,-0.0002817062
-0.8760009,-0.000274349
-0.8750009,-0.000268218
-0.8740008,-0.0002596347
-0.8730009,-0.0002522776
-0.8720009,-0.0002470662
-0.8710009,-0.0002372567
-0.8700009,-0.0002314323
-0.8690009,-0.0002240751
-0.8680009,-0.0002167179
-0.8670009,-0.0002099739
-0.8660009,-0.0002020036
-0.8650008,-0.0001943399
-0.8640009,-0.0001872893
-0.8630009,-0.0001771732
-0.8620009,-0.0001713488
-0.8610009,-0.0001642982
-0.8600008,-0.0001538755
-0.8590009,-0.0001471315
-0.8580009,-0.000143586
-0.8570009,-0.0001332247
-0.8560008,-0.0001264193
-0.8550009,-0.0001193381
-0.8540009,-0.0001085476
-0.8530009,-0.0001037654
-0.8520009,-9.548861E-05
-0.8510008,-8.577103E-05
-0.8500009,-7.835257E-05
-0.8490009,-7.013707E-05
-0.8480009,-6.097128E-05
-0.8470009,-5.395133E-05
-0.8460009,-4.463226E-05
-0.8450009,-3.785754E-05
-0.8440009,-2.841586E-05
-0.8430009,-1.961792E-05
-0.8420008,-1.210749E-05
-0.8410009,-3.248244E-06
-0.8400009,5.580346E-06
-0.8390009,1.284554E-05
-0.8380009,2.069317E-05
-0.8370008,3.050272E-05
-0.8360009,3.920869E-05
-0.8350009,4.702567E-05
-0.8340009,5.658998E-05
-0.8330009,6.569445E-05
-0.8320009,7.259179E-05
-0.8310009,8.258527E-05
-0.8300009,9.113796E-05
-0.8290009,9.824988E-05
-0.8280008,0.0001092243
-0.8270009,0.0001167347
-0.8260009,0.0001253487
-0.8250009,0.0001351276
-0.8240009,0.0001426687
-0.8230008,0.0001519265
-0.8220009,0.0001601726
-0.8210009,0.0001672539
-0.8200009,0.000178075
-0.8190009,0.0001883751
-0.8180009,0.0001948126
-0.8170009,0.0002050513
-0.8160009,0.0002137266
-0.8150009,0.0002208385
-0.8140008,0.0002317823
-0.8130009,0.0002385264
-0.8120009,0.0002471097
-0.8110009,0.0002566127
-0.8100009,0.0002640312
-0.8090008,0.0002727985
-0.8080009,0.0002818416
-0.8070009,0.000294298
-0.8060009,0.0003022683
-0.8050008,0.0003111582
-0.8040009,0.0003197415
-0.8030009,0.000325566
-0.8020009,0.0003359886
-0.8010009,0.0003439588
-0.8000008,0.0002851016
-0.8009992,0.0002050925
-0.8019992,0.0001502203
-0.8029991,0.000103625
-0.8039991,6.002332E-05
-0.8049992,2.378931E-05
-0.8059992,-9.777721E-06
-0.8069991,-4.018731E-05
-0.8079991,-6.927874E-05
-0.8089992,-9.769576E-05
-0.8099992,-0.000123875
-0.8109992,-0.0001468048
-0.8119991,-0.0001724629
-0.8129991,-0.0001931549
-0.8139992,-0.0002166978
-0.8149992,-0.000236838
-0.8159992,-0.0002561812
-0.8169991,-0.0002772411
-0.8179991,-0.0002962164
-0.8189992,-0.0003142003
-0.8199992,-0.0003298343
-0.8209991,-0.0003466944
-0.8219991,-0.0003632481
-0.8229992,-0.0003798016
-0.8239992,-0.0003939029
-0.8249992,-0.0004113761
-0.8259991,-0.0004251708
-0.8269991,-0.0004398851
-0.8279992,-0.0004555191
-0.8289992,-0.0004668614
-0.8299991,-0.0004831084
-0.8309991,-0.0004984358
-0.8319992,-0.0005088585
-0.8329992,-0.0005244924
-0.8339992,-0.0005389001
-0.8349991,-0.0005484032
-0.8359991,-0.0005646503
-0.8369992,-0.0005762991
-0.8379992,-0.0005864152
-0.8389992,-0.0006005164
-0.8399991,-0.0006115522
-0.8409991,-0.0006213617
-0.8419992,-0.0006351563
-0.8429992,-0.0006449659
-0.8439991,-0.0006553886
-0.8449991,-0.0006682636
-0.8459992,-0.0006780731
-0.8469992,-0.0006878827
-0.8479992,-0.0007001446
-0.8489991,-0.0007102606
-0.8499991,-0.0007191506
-0.8509992,-0.0007307994
-0.8519992,-0.0007412221
-0.8529992,-0.0007504185
-0.8539991,-0.0007602281
-0.8549991,-0.0007709572
-0.8559992,-0.0007795406
-0.8569992,-0.0007911894
-0.8579991,-0.0007991597
-0.8589991,-0.0008089693
-0.8599992,-0.0008196984
-0.8609992,-0.0008273621
-0.8619992,-0.0008359455
-0.8629991,-0.0008488205
-0.8639991,-0.000855258
-0.8649992,-0.0008659872
-0.8659992,-0.0008757967
-0.8669991,-0.000881008
-0.8679991,-0.0008929634
-0.8689992,-0.0009012403
-0.8699992,-0.0009098236
-0.8709992,-0.0009205528
-0.8719991,-0.0009272969
-0.8729991,-0.0009364933
-0.8739992,-0.0009463029
-0.8749992,-0.0009527404
-0.8759992,-0.0009616303
-0.8769991,-0.0009717464
-0.8779991,-0.0009781838
-0.8789992,-0.0009861541
-0.8799992,-0.0009965767
-0.8809991,-0.001003321
-0.8819991,-0.001011904
-0.8829992,-0.001021407
-0.8839992,-0.001027538
-0.8849992,-0.001036122
-0.8859991,-0.001044705
-0.8869991,-0.001052675
-0.8879992,-0.001059419
-0.8889992,-0.001068922
-0.8899992,-0.001076586
-0.8909991,-0.00108241
-0.8919991,-0.001092833
-0.8929992,-0.001098044
-0.8939992,-0.001106321
-0.8949991,-0.001114598
-0.8959991,-0.001120422
-0.8969992,-0.001128393
-0.8979992,-0.001137282
-0.8989992,-0.0011428
-0.8999991,-0.001151077
-0.9009991,-0.001158434
-0.9019992,-0.001163952
-0.9029992,-0.001172536
-0.9039991,-0.001180506
-0.9049991,-0.001186024
-0.9059991,-0.001193994
-0.9069992,-0.001201658
-0.9079992,-0.001206562
-0.9089991,-0.001215146
-0.9099991,-0.00122189
-0.9109992,-0.001227714
-0.9119992,-0.001234152
-0.9129992,-0.001242122
-0.9139991,-0.001248866
-0.9149991,-0.001254077
-0.9159992,-0.001262967
-0.9169992,-0.001266646
-0.9179991,-0.001274923
-0.9189991,-0.001283506
-0.9199992,-0.001285039
-0.9209992,-0.001294235
-0.9219992,-0.001301286
-0.9229991,-0.001305884
-0.9239991,-0.001314467
-0.9249992,-0.001319066
-0.9259992,-0.001323664
-0.9269992,-0.001332554
-0.9279991,-0.001337152
-0.9289991,-0.001342976
-0.9299992,-0.00134972
-0.9309992,-0.001353706
-0.9319991,-0.001361369
-0.9329991,-0.001370566
-0.9339992,-0.001373325
-0.9349992,-0.001378536
-0.9359992,-0.00138528
-0.9369991,-0.001389572
-0.9379991,-0.00139509
-0.9389992,-0.001403673
-0.9399992,-0.001407352
-0.9409992,-0.001412869
-0.9419991,-0.001419613
-0.9429991,-0.001423905
-0.9439992,-0.001429116
-0.9449992,-0.00143678
-0.9459991,-0.001440459
-0.9469991,-0.001445977
-0.9479992,-0.001453334
-0.9489992,-0.001457012
-0.9499992,-0.001463756
-0.9509991,-0.001470194
-0.9519991,-0.001471114
-0.9529992,-0.001480003
-0.9539992,-0.001483989
-0.9549991,-0.00148828
-0.9559991,-0.001497477
-0.9569992,-0.001499316
-0.9579992,-0.00150606
-0.9589992,-0.001512498
-0.9599991,-0.001516483
-0.9609991,-0.001522001
-0.9619992,-0.001526905
-0.9629992,-0.00153089
-0.9639992,-0.001538554
-0.9649991,-0.001542846
-0.9659991,-0.001546218
-0.9669992,-0.001553269
-0.9679992,-0.001557254
-0.9689991,-0.001562465
-0.9699991,-0.001568596
-0.9709992,-0.001572581
-0.9719992,-0.001578712
-0.9729992,-0.001584536
-0.9739991,-0.001589135
-0.9749991,-0.001594039
-0.9759992,-0.00160017
-0.9769992,-0.001605688
-0.9779992,-0.001609673
-0.9789991,-0.001615804
-0.9799991,-0.001620403
-0.9809992,-0.001624388
-0.9819992,-0.001632051
-0.9829991,-0.001637263
-0.9839991,-0.001639715
-0.9849992,-0.001648605
-0.9859992,-0.001651977
-0.9869992,-0.001655656
-0.9879991,-0.001664239
-0.9889991,-0.001667611
-0.9899992,-0.001671903
-0.9909992,-0.001680793
-0.9919991,-0.001684471
-0.9929991,-0.001690296
-0.9939992,-0.001693974
-0.9949992,-0.001698266
-0.9959992,-0.001707769
-0.9969991,-0.001711447
-0.9979991,-0.001715433
-0.9989992,-0.001724322
-0.9999992,-0.001726775
-1.000999,-0.001732599
-1.001999,-0.001741796
-1.002999,-0.001744555
-1.003999,-0.001749153
-1.004999,-0.001758656
-1.005999,-0.001759575
-1.006999,-0.001770611
-1.007999,-0.001776129
-1.008999,-0.001777968
-1.009999,-0.001785325
-1.010999,-0.001795442
-1.011999,-0.001794522
-1.012999,-0.00180709
-1.013999,-0.001811075
-1.014999,-0.001814754
-1.015999,-0.001823338
-1.016999,-0.001827323
-1.017999,-0.00183284
-1.018999,-0.001840504
-1.019999,-0.001844489
-1.020999,-0.001850927
-1.021999,-0.001858284
-1.022999,-0.00186135
-1.023999,-0.001871159
-1.024999,-0.001875757
-1.025999,-0.001881582
-1.026999,-0.001889245
-1.027999,-0.001895683
-1.028999,-0.001899668
-1.029999,-0.001907332
-1.030999,-0.001913463
-1.031999,-0.001917448
-1.032999,-0.001927564
-1.033999,-0.001932469
-1.034999,-0.0019386
-1.035999,-0.001950248
-1.036999,-0.001952701
-1.037999,-0.001959445
-1.038999,-0.001967722
-1.039999,-0.0019714
-1.040999,-0.001977225
-1.041999,-0.001988261
-1.042999,-0.001991326
-1.043999,-0.00199807
-1.044999,-0.002006653
-1.045999,-0.002010638
-1.046999,-0.002017076
-1.047999,-0.002025966
-1.048999,-0.002030258
-1.049999,-0.002036695
-1.050999,-0.002045585
-1.051999,-0.00205049
-1.052999,-0.002056927
-1.053999,-0.002067963
-1.054999,-0.002068883
-1.055999,-0.00207532
-1.056999,-0.00208421
-1.057999,-0.002086662
-1.058999,-0.002097698
-1.059999,-0.002105362
-1.060999,-0.002108734
-1.061999,-0.002117624
-1.062999,-0.002125594
-1.063999,-0.00212866
-1.064999,-0.002138162
-1.065999,-0.002144293
-1.066999,-0.002151344
-1.067999,-0.002159928
-1.068999,-0.002163299
-1.069999,-0.002171883
-1.070999,-0.002180466
-1.071999,-0.002185677
-1.072999,-0.002194567
-1.073999,-0.002198859
-1.074999,-0.00220407
-1.075999,-0.002217865
-1.076999,-0.002222463
-1.077999,-0.002227675
-1.078999,-0.002239323
-1.079999,-0.002243002
-1.080999,-0.002250972
-1.081999,-0.002262008
-1.082999,-0.002267832
-1.083999,-0.002273963
-1.084999,-0.002286532
-1.085999,-0.002287451
-1.086999,-0.002300326
-1.087999,-0.002312589
-1.088999,-0.002315654
-1.089999,-0.002323931
-1.090999,-0.002336499
-1.091999,-0.002340791
-1.092999,-0.002350907
-1.093999,-0.00235949
-1.094999,-0.002367767
-1.095999,-0.002376657
-1.096999,-0.00238616
-1.097999,-0.002391678
-1.098999,-0.0024021
-1.099999,-0.002413749
-1.100999,-0.002419574
-1.101999,-0.002430303
-1.102999,-0.002441032
-1.103999,-0.002445324
-1.104999,-0.002456973
-1.105999,-0.002466169
-1.106999,-0.0024723
-1.107999,-0.002483642
-1.108999,-0.002490693
-1.109999,-0.00249805
-1.110999,-0.00250786
-1.111999,-0.00251583
-1.112999,-0.002521655
-1.113999,-0.002529625
-1.114999,-0.002537902
-1.115999,-0.002543113
-1.116999,-0.002551083
-1.117999,-0.002554149
-1.118999,-0.002561199
-1.119999,-0.002566717
-1.120999,-0.002568556
-1.121999,-0.0025753
-1.122999,-0.002577753
-1.123999,-0.002583271
-1.124999,-0.002588175
-1.125999,-0.002593693
-1.126999,-0.002590935
-1.127999,-0.002595532
-1.128999,-0.002596145
-1.129999,-0.002595839
-1.130999,-0.002603809
-1.131999,-0.002602583
-1.132999,-0.002607794
-1.133999,-0.00260994
-1.134999,-0.002607794
-1.135999,-0.002610247
-1.136999,-0.00261178
-1.137999,-0.002608714
-1.138999,-0.002613619
-1.139999,-0.002615765
-1.140999,-0.002612086
-1.141999,-0.002618524
-1.142999,-0.002620363
-1.143999,-0.002615151
-1.144999,-0.00261883
-1.145999,-0.002625881
-1.146999,-0.002626187
-1.147999,-0.002628027
-1.148999,-0.002629866
-1.149999,-0.002633545
-1.150999,-0.002635077
-1.151999,-0.002637836
-1.152999,-0.002639982
-1.153999,-0.002643047
-1.154999,-0.0026455
-1.155999,-0.002651324
-1.156999,-0.002652551
-1.157999,-0.002655616
-1.158999,-0.002661747
-1.159999,-0.002662973
-1.160999,-0.002667571
-1.161999,-0.002674622
-1.162999,-0.002676155
-1.163999,-0.002681366
-1.164999,-0.002689949
-1.165999,-0.002689949
-1.166999,-0.002696387
-1.167999,-0.002705583
-1.168999,-0.002708036
-1.169999,-0.002712634
-1.170999,-0.002717845
-1.171999,-0.002722444
-1.172999,-0.002729801
-1.173999,-0.002733173
-1.174999,-0.002735625
-1.175999,-0.002745435
-1.176999,-0.002752179
-1.177999,-0.002757084
-1.178999,-0.002763521
-1.179999,-0.002772411
-1.180999,-0.002775476
-1.181999,-0.002785286
-1.182999,-0.002793563
-1.183999,-0.002798161
-1.184999,-0.002810423
-1.185999,-0.002815634
-1.186999,-0.002823605
-1.187999,-0.002833107
-1.188999,-0.002839238
-1.189999,-0.002848128
-1.190999,-0.00286039
-1.191999,-0.002865601
-1.192999,-0.002877864
-1.193999,-0.002888899
-1.194999,-0.002896256
-1.195999,-0.002906373
-1.196999,-0.0029217
-1.197999,-0.002927831
-1.198999,-0.002939173
-1.199999,-0.002952968
-1.200999,-0.00296339
-1.201999,-0.00297412
-1.202999,-0.00299098
-1.203999,-0.003000789
-1.204999,-0.002976467
-1.205999,-0.002988729
-1.206999,-0.003000991
-1.207999,-0.003010187
-1.208999,-0.00302858
-1.209999,-0.003040842
-1.210999,-0.003053104
-1.211999,-0.003071497
-1.212999,-0.003080693
-1.213999,-0.003096021
-1.214999,-0.003114413
-1.215999,-0.00312361
-1.216999,-0.003138937
-1.217999,-0.003160396
-1.218999,-0.003169592
-1.219999,-0.003187985
-1.220999,-0.003206378
-1.221999,-0.003215575
-1.222999,-0.003233967
-1.223999,-0.00325236
-1.224999,-0.003264622
-1.225999,-0.003289146
-1.226999,-0.003304473
-1.227999,-0.003316735
-1.228999,-0.003341259
-1.229999,-0.003356587
-1.230999,-0.003371914
-1.231999,-0.003390307
-1.232999,-0.0034087
-1.233999,-0.003427093
-1.234999,-0.003448551
-1.235999,-0.003463879
-1.236999,-0.003488402
-1.237999,-0.003509861
-1.238999,-0.003522123
-1.239999,-0.003549712
-1.240999,-0.00357117
-1.241999,-0.003586498
-1.242999,-0.003611021
-1.243999,-0.00363248
-1.244999,-0.003650873
-1.245999,-0.003678462
-1.246999,-0.003699921
-1.247999,-0.003721379
-1.248999,-0.003752034
-1.249999,-0.003770427
-1.250999,-0.003794951
-1.251999,-0.00382254
-1.252999,-0.003847064
-1.253999,-0.003871588
-1.254999,-0.003905308
-1.255999,-0.003929832
-1.256999,-0.003957421
-1.257999,-0.003994207
-1.258999,-0.004018731
-1.259999,-0.004049386
-1.260999,-0.004086172
-1.261999,-0.004110695
-1.262999,-0.004147481
-1.263999,-0.004181202
-1.264999,-0.004211857
-1.265999,-0.004254773
-1.266999,-0.004285428
-1.267999,-0.004325279
-1.268999,-0.004368196
-1.269999,-0.004404982
-1.270999,-0.004444833
-1.271999,-0.004490815
-1.272999,-0.004530666
-1.273999,-0.004579714
-1.274999,-0.004625696
-1.275999,-0.004668613
-1.276999,-0.004720726
-1.277999,-0.00477284
-1.278999,-0.004824953
-1.279999,-0.004886262
-1.280999,-0.004938376
-1.281999,-0.004990489
-1.282999,-0.00505793
-1.283999,-0.005113108
-1.284999,-0.005177483
-1.285999,-0.005247989
-1.286999,-0.005309299
-1.287999,-0.00538287
-1.288999,-0.005456442
-1.289999,-0.005526948
-1.290999,-0.005609716
-1.291999,-0.005689419
-1.292999,-0.005769121
-1.293999,-0.005858021
-1.294999,-0.005943854
-1.295999,-0.006032753
-1.296999,-0.006130849
-1.297999,-0.006222813
-1.298999,-0.006320909
-1.299999,-0.0064282
-1.300999,-0.006526296
-1.301999,-0.006636653
-1.302999,-0.006756207
-1.303999,-0.006863499
-1.304999,-0.006986118
-1.305999,-0.007114868
-1.306999,-0.007234422
-1.307999,-0.007366238
-1.308999,-0.007498054
-1.309999,-0.00762987
-1.310999,-0.007773947
-1.311999,-0.00792109
-1.312999,-0.008065168
-1.313999,-0.008224573
-1.314999,-0.008380912
-1.315999,-0.008537252
-1.316999,-0.008708919
-1.317999,-0.00887752
-1.318999,-0.009046122
-1.319999,-0.00922392
-1.320999,-0.009410915
-1.321999,-0.009594844
-1.322999,-0.009784903
-1.323999,-0.009981094
-1.324999,-0.01018035
-1.325999,-0.01038574
-1.326999,-0.01059113
-1.327999,-0.01080264
-1.328999,-0.01101723
-1.329999,-0.01123488
-1.330999,-0.01146172
-1.331999,-0.01169163
-1.332999,-0.01191541
-1.333999,-0.01215452
-1.334999,-0.01239363
-1.335999,-0.01262967
-1.336999,-0.01288411
-1.337999,-0.01313241
-1.338999,-0.01338072
-1.339999,-0.01364435
-1.340999,-0.01390185
-1.341999,-0.01416548
-1.342999,-0.01443524
-1.343999,-0.01470194
-1.344999,-0.01497783
-1.345999,-0.01525372
-1.346999,-0.01552962
-1.347999,-0.01582084
-1.348999,-0.01610593
-1.349999,-0.01639102
-1.350999,-0.0166945
-1.351999,-0.01698879
-1.352999,-0.01728307
-1.353999,-0.01758656
-1.354999,-0.01788697
-1.355999,-0.01819046
-1.356999,-0.01850314
-1.357999,-0.01881888
-1.358999,-0.0191285
-1.359999,-0.01944424
-1.360999,-0.01976918
-1.361999,-0.02008799
-1.362999,-0.02042213
-1.363999,-0.02075013
-1.364999,-0.02107201
-1.365999,-0.02140615
-1.366999,-0.02174029
-1.367999,-0.02207442
-1.368999,-0.02241469
-1.369999,-0.02275803
-1.370999,-0.02310442
-1.371999,-0.02344776
-1.372999,-0.02379416
-1.373999,-0.02414056
-1.374999,-0.02448696
-1.375999,-0.02483336
-1.376999,-0.02518589
-1.377999,-0.02553535
-1.378999,-0.02588788
-1.379999,-0.02625574
-1.380999,-0.02660214
-1.381999,-0.02696693
-1.382999,-0.02734092
-1.383999,-0.02769345
-1.384999,-0.02805824
-1.385999,-0.0284261
-1.386999,-0.0287725
-1.387999,-0.02915262
-1.388999,-0.02952355
-1.389999,-0.02989447
-1.390999,-0.03027765
-1.391999,-0.03077628
-1.392999,-0.03111348
-1.393999,-0.03151199
-1.394999,-0.03187985
-1.395999,-0.03227837
-1.396999,-0.03267688
-1.397999,-0.03304474
-1.398999,-0.03344325
-1.399999,-0.03384176
-1.400999,-0.03420962
-1.401999,-0.03460813
-1.402999,-0.03500664
-1.403999,-0.03540516
-1.404999,-0.03577302
-1.405999,-0.03617153
-1.406999,-0.03660069
-1.407999,-0.03696856
-1.408999,-0.03736707
-1.409999,-0.03776558
-1.410999,-0.03816409
-1.411999,-0.03856261
-1.412999,-0.03896112
-1.413999,-0.03939028
-1.414999,-0.03975814
-1.415999,-0.04015666
-1.416999,-0.04058582
-1.417999,-0.04098434
-1.418999,-0.04138285
-1.419999,-0.04181201
-1.420999,-0.04221053
-1.421999,-0.0426397
-1.422999,-0.04303821
-1.423999,-0.04343672
-1.424999,-0.04383523
-1.425999,-0.04423375
-1.426999,-0.04466292
-1.427999,-0.04509208
-1.428999,-0.0454906
-1.429999,-0.04591976
-1.430999,-0.04631827
-1.431999,-0.04671679
-1.432999,-0.04714596
-1.433999,-0.04757512
-1.434999,-0.04797364
-1.435999,-0.0484028
-1.436999,-0.04880131
-1.437999,-0.04923048
-1.438999,-0.049629
-1.439999,-0.05005816
-1.440999,-0.05048734
-1.441999,-0.05088584
-1.442999,-0.05131501
-1.443999,-0.05171353
-1.444999,-0.05214269
-1.445999,-0.0525412
-1.446999,-0.05297038
-1.447999,-0.05339954
-1.448999,-0.05382871
-1.449999,-0.05425788
-1.450999,-0.05465639
-1.451999,-0.05508556
-1.452999,-0.05548407
-1.453999,-0.05594389
-1.454999,-0.05637306
-1.455999,-0.05677157
-1.456999,-0.05720074
-1.457999,-0.05762991
-1.458999,-0.05805907
-1.459999,-0.05848824
-1.460999,-0.05888676
-1.461999,-0.05931592
-1.462999,-0.05974509
-1.463999,-0.06017426
-1.464999,-0.06060342
-1.465999,-0.06103259
-1.466999,-0.06146176
-1.467999,-0.06189093
-1.468999,-0.06235075
-1.469999,-0.06274926
-1.470999,-0.06320909
-1.471999,-0.06363826
-1.472999,-0.06406742
-1.473999,-0.06449659
-1.474999,-0.06492575
-1.475999,-0.06535492
-1.476999,-0.06578409
-1.477999,-0.06621326
-1.478999,-0.06661177
-1.479999,-0.06710225
-1.480999,-0.06756207
-1.481999,-0.06796058
-1.482999,-0.06838975
-1.483999,-0.06881892
-1.484999,-0.06921744
-1.485999,-0.06967726
-1.486999,-0.07010642
-1.487999,-0.07053559
-1.488999,-0.07099541
-1.489999,-0.07142458
-1.490999,-0.07185375
-1.491999,-0.07231357
-1.492999,-0.07274274
-1.493999,-0.07317191
-1.494999,-0.07363173
-1.495999,-0.07406089
-1.496999,-0.0744594
-1.497999,-0.07494988
-1.498999,-0.07537905
-1.499999,-0.07550167
-1.499001,-0.07510316
-1.498001,-0.0747353
-1.497001,-0.07430613
-1.496001,-0.07387697
-1.495001,-0.07347845
-1.494001,-0.07304928
-1.493001,-0.07268143
-1.492001,-0.0722216
-1.491001,-0.07179244
-1.490001,-0.07136327
-1.489001,-0.0709341
-1.488001,-0.07050493
-1.487001,-0.07010642
-1.486001,-0.06967726
-1.485001,-0.06924809
-1.484001,-0.06881892
-1.483001,-0.0684204
-1.482001,-0.06796058
-1.481001,-0.06753141
-1.480001,-0.06710225
-1.479001,-0.06667308
-1.478001,-0.06624391
-1.477001,-0.06581475
-1.476001,-0.06541623
-1.475001,-0.06498706
-1.474001,-0.06452724
-1.473001,-0.06412873
-1.472001,-0.06369957
-1.471001,-0.0632704
-1.470001,-0.06284123
-1.469001,-0.06238141
-1.468001,-0.06198289
-1.467001,-0.06155372
-1.466001,-0.0610939
-1.465001,-0.06069539
-1.464001,-0.06026622
-1.463001,-0.05983705
-1.462001,-0.05940789
-1.461001,-0.05900937
-1.460001,-0.05858021
-1.459001,-0.05815104
-1.458001,-0.05775253
-1.457001,-0.05732336
-1.456001,-0.05689419
-1.455001,-0.05646503
-1.454001,-0.05603585
-1.453001,-0.05563734
-1.452001,-0.05520818
-1.451001,-0.05480966
-1.450001,-0.0543805
-1.449001,-0.05398199
-1.448001,-0.05355281
-1.447001,-0.05312365
-1.446001,-0.05269448
-1.445001,-0.05229596
-1.444001,-0.05189746
-1.443001,-0.05146828
-1.442001,-0.05103912
-1.441001,-0.05064061
-1.440001,-0.05021144
-1.439001,-0.04981292
-1.438001,-0.04941441
-1.437001,-0.04898525
-1.436001,-0.04858673
-1.435001,-0.04818822
-1.434001,-0.04775905
-1.433001,-0.04736054
-1.432001,-0.04696203
-1.431001,-0.04653286
-1.430001,-0.046165
-1.429001,-0.04576649
-1.428001,-0.04533732
-1.427001,-0.04493881
-1.426001,-0.0445403
-1.425001,-0.04414178
-1.424001,-0.04377393
-1.423001,-0.04334476
-1.422001,-0.04294625
-1.421001,-0.04257839
-1.420001,-0.04214922
-1.419001,-0.04175071
-1.418001,-0.04138285
-1.417001,-0.04098434
-1.416001,-0.04058582
-1.415001,-0.04018731
-1.414001,-0.0397888
-1.413001,-0.03942094
-1.412001,-0.03902243
-1.411001,-0.03862391
-1.410001,-0.03825606
-1.409001,-0.03785754
-1.408001,-0.03745903
-1.407001,-0.03709117
-1.406001,-0.03672331
-1.405001,-0.0363248
-1.404001,-0.03595695
-1.403001,-0.03558908
-1.402001,-0.03519057
-1.401001,-0.03482271
-1.400001,-0.03445486
-1.399001,-0.03405635
-1.398001,-0.03368849
-1.397001,-0.03332063
-1.396001,-0.03295277
-1.395001,-0.03258491
-1.394001,-0.03221706
-1.393001,-0.0318492
-1.392001,-0.03148134
-1.391001,-0.03111348
-1.390001,-0.03077628
-1.389001,-0.03040842
-1.388001,-0.03004056
-1.387001,-0.0296727
-1.386001,-0.0293355
-1.385001,-0.02896764
-1.384001,-0.02859978
-1.383001,-0.02829324
-1.382001,-0.02792538
-1.381001,-0.02758818
-1.380001,-0.02722032
-1.379001,-0.02688312
-1.378001,-0.02651526
-1.377001,-0.02620871
-1.376001,-0.02584085
-1.375001,-0.02550365
-1.374001,-0.02516645
-1.373001,-0.02482924
-1.372001,-0.02452269
-1.371001,-0.02418549
-1.370001,-0.02384829
-1.369001,-0.02351108
-1.368001,-0.02317388
-1.367001,-0.02286733
-1.366001,-0.02253013
-1.365001,-0.02222358
-1.364001,-0.02188638
-1.363001,-0.02157983
-1.362001,-0.02127328
-1.361001,-0.02096673
-1.360001,-0.02066019
-1.359001,-0.02032298
-1.358001,-0.02001643
-1.357001,-0.01974054
-1.356001,-0.01940334
-1.355001,-0.01912744
-1.354001,-0.01885155
-1.353001,-0.018545
-1.352001,-0.01823845
-1.351001,-0.01796256
-1.350001,-0.01765601
-1.349001,-0.01738012
-1.348001,-0.01710423
-1.347001,-0.01682833
-1.346001,-0.01652178
-1.345001,-0.01627655
-1.344001,-0.01600065
-1.343001,-0.0158331
-1.342001,-0.01556947
-1.341001,-0.01530584
-1.340001,-0.01504527
-1.339001,-0.0147939
-1.338001,-0.01454253
-1.337001,-0.01429423
-1.336001,-0.01404899
-1.335001,-0.01380682
-1.334001,-0.01357384
-1.333001,-0.01333167
-1.332001,-0.01309869
-1.331001,-0.01286878
-1.330001,-0.01263887
-1.329001,-0.01241815
-1.328001,-0.01219437
-1.327001,-0.01197366
-1.326001,-0.01176214
-1.325001,-0.01154756
-1.324001,-0.01132991
-1.323001,-0.01112758
-1.322001,-0.0109222
-1.321001,-0.01072294
-1.320001,-0.01053901
-1.319001,-0.01034282
-1.318001,-0.01015276
-1.317001,-0.009971898
-1.316001,-0.009781837
-1.315001,-0.009607106
-1.314001,-0.009432373
-1.313001,-0.009254575
-1.312001,-0.009089039
-1.311001,-0.008929634
-1.310001,-0.008761032
-1.309001,-0.008607758
-1.308001,-0.008454484
-1.307001,-0.008295079
-1.306001,-0.008151001
-1.305001,-0.008000793
-1.304001,-0.00785365
-1.303001,-0.007718768
-1.302001,-0.007580821
-1.301001,-0.00744594
-1.300001,-0.00731719
-1.299001,-0.007191505
-1.298001,-0.007065821
-1.297001,-0.006949332
-1.296001,-0.006829778
-1.295001,-0.00671329
-1.294001,-0.006599867
-1.293001,-0.006492575
-1.292001,-0.006382218
-1.291001,-0.006281057
-1.290001,-0.00617683
-1.289001,-0.006078735
-1.288001,-0.005986771
-1.287001,-0.005888675
-1.286001,-0.005799776
-1.285001,-0.005717008
-1.284001,-0.005628109
-1.283001,-0.005545341
-1.282001,-0.005465638
-1.281001,-0.005379805
-1.280001,-0.005306234
-1.279001,-0.005232662
-1.278001,-0.005156024
-1.277001,-0.00509165
-1.276001,-0.005021143
-1.275001,-0.004953703
-1.274001,-0.004889328
-1.273001,-0.004821887
-1.272001,-0.004760577
-1.271001,-0.004705399
-1.270001,-0.004644089
-1.269001,-0.004585845
-1.268001,-0.004536797
-1.267001,-0.004478553
-1.266001,-0.00442644
-1.265001,-0.004377393
-1.264001,-0.004328344
-1.263001,-0.004279297
-1.262001,-0.00423638
-1.261001,-0.004187332
-1.260001,-0.00414135
-1.259001,-0.004101499
-1.258001,-0.004058582
-1.257001,-0.0040126
-1.256001,-0.003975814
-1.255001,-0.003935963
-1.254001,-0.003896111
-1.253001,-0.003865457
-1.252001,-0.003825605
-1.251001,-0.003785754
-1.250001,-0.003758165
-1.249001,-0.003721379
-1.248001,-0.003687659
-1.247001,-0.003657004
-1.246001,-0.003623284
-1.245001,-0.003592629
-1.244001,-0.003558908
-1.243001,-0.003528254
-1.242001,-0.00350373
-1.241001,-0.003473075
-1.240001,-0.003445486
-1.239001,-0.003417896
-1.238001,-0.003390307
-1.237001,-0.003362718
-1.236001,-0.003338194
-1.235001,-0.00331367
-1.234001,-0.003289146
-1.233001,-0.003267688
-1.232001,-0.003237033
-1.231001,-0.003215575
-1.230001,-0.003191051
-1.229001,-0.003163461
-1.228001,-0.003142003
-1.227001,-0.00312361
-1.226001,-0.003099086
-1.225001,-0.003077628
-1.224001,-0.003059235
-1.223001,-0.003034711
-1.222001,-0.003013253
-1.221001,-0.002997925
-1.220001,-0.002973401
-1.219001,-0.002958074
-1.218001,-0.002939681
-1.217001,-0.002918222
-1.216001,-0.002902895
-1.215001,-0.002881437
-1.214001,-0.00286611
-1.213001,-0.002847716
-1.212001,-0.002826258
-1.211001,-0.002810931
-1.210001,-0.002795603
-1.209001,-0.002774145
-1.208001,-0.002761883
-1.207001,-0.002746556
-1.206001,-0.002722032
-1.205001,-0.002712835
-1.204001,-0.002697508
-1.203001,-0.002676049
-1.202001,-0.002666853
-1.201001,-0.002654591
-1.200001,-0.002630068
-1.199001,-0.002623936
-1.198001,-0.002605543
-1.197001,-0.002587151
-1.196001,-0.002574889
-1.195001,-0.002559561
-1.194001,-0.002544234
-1.193001,-0.002535037
-1.192001,-0.002516645
-1.191001,-0.002501317
-1.190001,-0.002495186
-1.189001,-0.002473728
-1.188001,-0.002461466
-1.187001,-0.002455335
-1.186001,-0.002436942
-1.185001,-0.00242468
-1.184001,-0.002415484
-1.183001,-0.002397091
-1.182001,-0.002387894
-1.181001,-0.002378698
-1.180001,-0.002360305
-1.179001,-0.002354174
-1.178001,-0.002348043
-1.177001,-0.002326585
-1.176001,-0.002317388
-1.175001,-0.002308191
-1.174001,-0.002292864
-1.173001,-0.002280602
-1.172001,-0.002271406
-1.171001,-0.002256078
-1.170001,-0.002246882
-1.169001,-0.00223462
-1.168001,-0.002225423
-1.167001,-0.002213162
-1.166001,-0.0022009
-1.165001,-0.002191703
-1.164001,-0.002182507
-1.163001,-0.002170245
-1.162001,-0.002164114
-1.161001,-0.002148786
-1.160001,-0.00213959
-1.159001,-0.002130394
-1.158001,-0.002118132
-1.157001,-0.002108935
-1.156001,-0.002099739
-1.155001,-0.002087477
-1.154001,-0.002081346
-1.153001,-0.002069084
-1.152001,-0.002059887
-1.151001,-0.002053756
-1.150001,-0.002038429
-1.149001,-0.002029233
-1.148001,-0.002023102
-1.147001,-0.00201084
-1.146001,-0.002001643
-1.145001,-0.001992447
-1.144001,-0.00198325
-1.143001,-0.001974054
-1.142001,-0.001967923
-1.141001,-0.001958727
-1.140001,-0.001946465
-1.139001,-0.001937268
-1.138001,-0.001928072
-1.137001,-0.001918875
-1.136001,-0.001912744
-1.135001,-0.001903548
-1.134001,-0.001891286
-1.133001,-0.00188822
-1.132001,-0.001875959
-1.131001,-0.001866762
-1.130001,-0.001860631
-1.129001,-0.001848369
-1.128001,-0.001842238
-1.127001,-0.001839173
-1.126001,-0.001823845
-1.125001,-0.00182078
-1.124001,-0.001814649
-1.123001,-0.001802387
-1.122001,-0.001796256
-1.121001,-0.001790125
-1.120001,-0.001777863
-1.119001,-0.001771732
-1.118001,-0.001765601
-1.117001,-0.001753339
-1.116001,-0.001747208
-1.115001,-0.001741077
-1.114001,-0.001728815
-1.113001,-0.001722684
-1.112001,-0.001716554
-1.111001,-0.001704292
-1.110001,-0.001698161
-1.109001,-0.00169203
-1.108001,-0.001679768
-1.107001,-0.001673637
-1.106001,-0.001667506
-1.105001,-0.001655244
-1.104001,-0.001649113
-1.103001,-0.001642982
-1.102001,-0.00163072
-1.101001,-0.001627655
-1.100001,-0.001618458
-1.099001,-0.001606196
-1.098001,-0.001636956
-1.097001,-0.001628066
-1.096001,-0.00161887
-1.095001,-0.001612739
-1.094001,-0.001603236
-1.093001,-0.001594653
-1.092001,-0.001586682
-1.091001,-0.001579938
-1.090001,-0.001568902
-1.089001,-0.001561852
-1.088001,-0.001554801
-1.087001,-0.001543459
-1.086001,-0.001536408
-1.085001,-0.00153089
-1.084001,-0.001518629
-1.083001,-0.001512191
-1.082001,-0.001505447
-1.081001,-0.001493798
-1.080001,-0.001487667
-1.079001,-0.00148123
-1.078001,-0.001468048
-1.077001,-0.001465596
-1.076001,-0.001454866
-1.075001,-0.001445364
-1.074001,-0.001441072
-1.073001,-0.001432795
-1.072001,-0.001422066
-1.071001,-0.001419307
-1.070001,-0.001407965
-1.069001,-0.001401527
-1.068001,-0.00139417
-1.067001,-0.001384054
-1.066001,-0.001378229
-1.065001,-0.001372098
-1.064001,-0.001361369
-1.063001,-0.001356771
-1.062001,-0.001350334
-1.061001,-0.001338991
-1.060001,-0.00133286
-1.059001,-0.001327956
-1.058001,-0.001317839
-1.057001,-0.001310482
-1.056001,-0.001306804
-1.055001,-0.001297301
-1.054001,-0.001290863
-1.053001,-0.001284732
-1.052001,-0.00127247
-1.051001,-0.001269405
-1.050001,-0.001261741
-1.049001,-0.00125469
-1.048001,-0.001252545
-1.047001,-0.001243042
-1.046001,-0.001236604
-1.045001,-0.001232006
-1.044001,-0.001220051
-1.043001,-0.001215146
-1.042001,-0.00121208
-1.041001,-0.001201658
-1.040001,-0.001197059
-1.039001,-0.001193074
-1.038001,-0.001183571
-1.037001,-0.00117928
-1.036001,-0.001172229
-1.035001,-0.001164872
-1.034001,-0.001159047
-1.033001,-0.001155369
-1.032001,-0.001146479
-1.031001,-0.001141881
-1.030001,-0.001135443
-1.029001,-0.001132378
-1.028001,-0.001125634
-1.027001,-0.001118583
-1.026001,-0.001110919
-1.025001,-0.001107241
-1.024001,-0.001099271
-1.023001,-0.001094672
-1.022001,-0.001089154
-1.021001,-0.001083943
-1.020001,-0.001076586
-1.019001,-0.001073827
-1.018001,-0.001066776
-1.017001,-0.001060952
-1.016001,-0.001059113
-1.015001,-0.001048077
-1.014001,-0.001046851
-1.013001,-0.001039494
-1.012001,-0.001030297
-1.011001,-0.001027538
-1.010001,-0.001023247
-1.009001,-0.001015583
-1.008001,-0.001014663
-1.007001,-0.001005773
-1.006001,-0.001002095
-1.005001,-0.0009981095
-1.004001,-0.0009895262
-1.003001,-0.0009876869
-1.002001,-0.0009821691
-1.001001,-0.0009735856
-1.000001,-0.0009702136
-0.9990011,-0.000966535
-0.9980011,-0.0009585648
-0.9970011,-0.0009561123
-0.9960011,-0.0009493683
-0.9950011,-0.0009420112
-0.9940011,-0.0009392523
-0.9930011,-0.0009340409
-0.9920011,-0.0009269903
-0.9910011,-0.0009257642
-0.9900011,-0.0009184069
-0.9890011,-0.0009131957
-0.9880011,-0.0009073712
-0.9870011,-0.0009015468
-0.9860011,-0.0008957224
-0.9850011,-0.0008917373
-0.9840011,-0.0008849932
-0.9830011,-0.0008825408
-0.9820011,-0.0008751836
-0.9810011,-0.0008705854
-0.9800011,-0.0008656807
-0.9790011,-0.0008610824
-0.9780011,-0.0008537253
-0.9770011,-0.0008503532
-0.9760011,-0.000845755
-0.9750011,-0.0008383978
-0.9740011,-0.0008350258
-0.9730011,-0.0008292014
-0.9720011,-0.0008218443
-0.9710011,-0.0008178591
-0.9700011,-0.0008123412
-0.9690011,-0.0008049841
-0.9680011,-0.000801612
-0.9670011,-0.0007939483
-0.9660011,-0.000788737
-0.9650011,-0.000785365
-0.9640011,-0.0007783144
-0.9630011,-0.0007731031
-0.9620011,-0.0007681983
-0.9610011,-0.0007608412
-0.9600011,-0.0007562429
-0.9590011,-0.0007522578
-0.9580011,-0.0007452072
-0.9570011,-0.0007384631
-0.9560011,-0.0007363172
-0.9550011,-0.0007280405
-0.9540011,-0.000724975
-0.9530011,-0.000718844
-0.9520011,-0.0007127131
-0.9510011,-0.0007081148
-0.9500011,-0.0007013708
-0.9490011,-0.0006958529
-0.9480011,-0.0006912547
-0.9470011,-0.0006848171
-0.9460011,-0.0006799124
-0.9450011,-0.0006747011
-0.9440011,-0.0006676505
-0.9430011,-0.0006621326
-0.9420011,-0.000658454
-0.9410011,-0.0006507903
-0.9400011,-0.0006446594
-0.9390011,-0.0006409807
-0.9380011,-0.0006345432
-0.9370011,-0.0006281057
-0.9360011,-0.0006244272
-0.9350011,-0.0006167634
-0.9340011,-0.0006112456
-0.9330011,-0.0006072604
-0.9320011,-0.0006002099
-0.9310011,-0.0005934658
-0.9300011,-0.0005900938
-0.9290011,-0.00058243
-0.9280011,-0.0005769122
-0.9270011,-0.0005726205
-0.9260011,-0.0005643437
-0.9250011,-0.0005591324
-0.9240011,-0.0005542276
-0.9230011,-0.0005477901
-0.9220011,-0.000541046
-0.9210011,-0.0005358347
-0.9200011,-0.0005297037
-0.9190011,-0.0005229597
-0.9180011,-0.0005180549
-0.9170011,-0.0005113108
-0.9160011,-0.0005048733
-0.9150011,-0.0004993554
-0.9140011,-0.0004935311
-0.9130011,-0.0004870935
-0.9120011,-0.0004818822
-0.9110011,-0.0004751382
-0.9100011,-0.0004687006
-0.9090011,-0.0004631828
-0.9080011,-0.0004542929
-0.9070011,-0.0004509208
-0.9060011,-0.0004450964
-0.9050011,-0.0004368196
-0.9040011,-0.0004322214
-0.9030011,-0.0004267035
-0.9020011,-0.0004175071
-0.9010011,-0.0004135219
-0.9000011,-0.0004061648
-0.8990011,-0.0003985011
-0.8980011,-0.0003935963
-0.8970011,-0.0003871588
-0.8960011,-0.0003794951
-0.8950011,-0.0003745903
-0.8940011,-0.0003669266
-0.8930011,-0.0003601825
-0.8920011,-0.0003540516
-0.8910011,-0.0003466944
-0.8900011,-0.0003402569
-0.8890011,-0.0003332063
-0.8880011,-0.0003270753
-0.8870011,-0.000318492
-0.8860011,-0.0003126676
-0.8850011,-0.0003065366
-0.8840011,-0.0002979533
-0.8830011,-0.0002927419
-0.8820011,-0.0002844651
-0.8810011,-0.0002774145
-0.8800011,-0.0002725097
-0.8790011,-0.0002636198
-0.8780011,-0.0002565692
-0.8770011,-0.0002510514
-0.8760011,-0.0002421615
-0.8750011,-0.000235724
-0.8740011,-0.0002280602
-0.8730011,-0.00022009
-0.8720011,-0.000213959
-0.8710011,-0.0002053757
-0.8700011,-0.0001967923
-0.8690011,-0.0001912744
-0.8680011,-0.0001826911
-0.8670011,-0.0001768667
-0.8660011,-0.0001695095
-0.8650011,-0.0001584738
-0.8640011,-0.0001544887
-0.8630011,-0.0001459053
-0.8620011,-0.0001387426
-0.8610011,-0.000133286
-0.8600011,-0.0001259595
-0.8590011,-0.0001164565
-0.8580011,-0.0001116131
-0.8570011,-0.0001007919
-0.8560011,-9.444635E-05
-0.8550011,-8.675199E-05
-0.8540011,-7.770881E-05
-0.8530011,-7.038231E-05
-0.8520011,-6.354629E-05
-0.8510011,-5.416591E-05
-0.8500011,-4.726858E-05
-0.8490011,-3.91757E-05
-0.8480011,-2.902895E-05
-0.8470011,-2.170245E-05
-0.8460011,-1.413071E-05
-0.8450011,-5.087533E-06
-0.8440011,5.45361E-06
-0.8430011,1.116154E-05
-0.8420011,2.134814E-05
-0.8410011,2.933783E-05
-0.8400011,3.589797E-05
-0.8390011,4.586079E-05
-0.8380011,5.450545E-05
-0.8370011,6.072838E-05
-0.8360011,7.194804E-05
-0.8350011,7.985699E-05
-0.8340011,8.730611E-05
-0.8330011,9.760613E-05
-0.8320011,0.0001047794
-0.8310011,0.0001138225
-0.8300011,0.0001234481
-0.8290011,0.0001302535
-0.8280011,0.00013945
-0.8270011,0.0001488916
-0.8260011,0.0001562182
-0.8250011,0.0001651694
-0.8240011,0.0001751322
-0.8230011,0.0001824893
-0.8220011,0.0001909501
-0.8210011,0.0002011275
-0.8200011,0.0002085459
-0.8190011,0.0002181716
-0.8180011,0.0002281344
-0.8170011,0.0002356448
-0.8160011,0.0002434005
-0.8150011,0.0002540071
-0.8140011,0.0002618853
-0.8130011,0.0002689666
-0.8120011,0.0002798184
-0.8110011,0.0002868384
-0.8100011,0.00029767
-0.8090011,0.0003080927
-0.8080011,0.0003154498
-0.8070011,0.0003234201
-0.8060011,0.0003338427
-0.8050011,0.0003405868
-0.8040011,0.0003497833
-0.8030011,0.0003583666
-0.8020011,0.0003660303
-0.8010011,0.0003743071
