EXPID. 1321
[电化学]: i-t : @ 0(V) X 600(sec)
起始电位 (V),0
静置时间 (秒),0
运行时间 (秒),600
记录间隔,0.1
电解液 信息:
HNO3,0.4
0.1,-0.0004820212
0.2,-0.0004503894
0.3,-0.0004261097
0.4,-0.0004064671
0.5,-0.0003904699
0.6,-0.0003768364
0.7,-0.0003655149
0.8000001,-0.0003554883
0.9000001,-0.0003463912
1,-0.0003384147
1.1,-0.0003311144
1.2,-0.0003244206
1.3,-0.0003184547
1.4,-0.0003133864
1.5,-0.0003079592
1.6,-0.0003033183
1.7,-0.0002990409
1.8,-0.0002949793
1.9,-0.0002913611
2,-0.0002876206
2.1,-0.0002841512
2.2,-0.0002809927
2.3,-0.0002779772
2.4,-0.0002750334
2.5,-0.0002723297
2.6,-0.0002697729
2.7,-0.0002672029
2.799999,-0.0002648344
2.899999,-0.0002625987
2.999999,-0.0002603913
3.099999,-0.0002581943
3.199999,-0.0002562675
3.299999,-0.0002543746
3.399999,-0.0002526221
3.499999,-0.0002506444
3.599999,-0.0002488005
3.699999,-0.0002471478
3.799999,-0.0002457766
3.899998,-0.0002440674
3.999998,-0.0002425031
4.099998,-0.0002410227
4.199998,-0.000239484
4.299998,-0.0002381994
4.399998,-0.0002367021
4.499998,-0.0002353874
4.599998,-0.0002341217
4.699998,-0.0002327534
4.799998,-0.000231548
4.899998,-0.000230303
4.999998,-0.0002291485
5.099998,-0.0002279977
5.199997,-0.000226893
5.299997,-0.0002258373
5.399997,-0.0002250218
5.499997,-0.0002241742
5.599997,-0.0002229142
5.699997,-0.0002218161
5.799997,-0.000220849
5.899997,-0.000219782
5.999997,-0.0002187847
6.099997,-0.0002178722
6.199996,-0.0002168862
6.299996,-0.0002160575
6.399996,-0.0002151176
6.499996,-0.0002141778
6.599996,-0.0002132605
6.699996,-0.0002123885
6.799996,-0.0002116775
6.899996,-0.0002108177
6.999996,-0.0002100944
7.099996,-0.0002092016
7.199996,-0.0002084803
7.299995,-0.0002077881
7.399995,-0.0002069773
7.499995,-0.0002063039
7.599995,-0.0002056146
7.699995,-0.0002048537
7.799995,-0.000204203
7.899995,-0.0002034712
7.999995,-0.0002027376
8.099995,-0.000202101
8.199995,-0.0002013787
8.299995,-0.000200663
8.399996,-0.0001999859
8.499996,-0.0001993615
8.599997,-0.0001987692
8.699997,-0.0001982041
8.799997,-0.000197495
8.899998,-0.0001968866
8.999998,-0.0001962943
9.099998,-0.0001957066
9.199999,-0.0001950917
9.299999,-0.0001945361
9.4,-0.0001939946
9.5,-0.0001933947
9.6,-0.0001928485
9.700001,-0.0001922995
9.800001,-0.0001917805
9.900002,-0.0001912523
10,-0.0001907249
10.1,-0.0001901824
10.2,-0.0001896598
10.3,-0.0001891352
10.4,-0.0001886239
10.5,-0.0001881558
10.6,-0.0001876501
10.7,-0.0001871661
10.8,-0.0001867112
10.90001,-0.0001862112
11.00001,-0.0001857478
11.10001,-0.0001852204
11.20001,-0.0001847665
11.30001,-0.0001843898
11.40001,-0.0001840141
11.50001,-0.0001835696
11.60001,-0.0001829471
11.70001,-0.0001825478
11.80001,-0.0001820647
11.90001,-0.0001815807
12.00001,-0.0001812868
12.10001,-0.0001807472
12.20001,-0.0001802905
12.30001,-0.0001798799
12.40001,-0.0001794382
12.50001,-0.0001790248
12.60001,-0.0001785652
12.70001,-0.0001781763
12.80001,-0.0001777328
12.90001,-0.0001773146
13.00001,-0.0001769794
13.10001,-0.0001766648
13.20001,-0.0001763098
13.30001,-0.0001760094
13.40001,-0.000175531
13.50002,-0.0001750658
13.60002,-0.0001746627
13.70002,-0.0001743425
13.80002,-0.0001740007
13.90002,-0.0001736164
14.00002,-0.0001733302
14.10002,-0.0001729761
14.20002,-0.0001725871
14.30002,-0.0001722321
14.40002,-0.0001717848
14.50002,-0.0001714128
14.60002,-0.000171087
14.70002,-0.0001707564
14.80002,-0.0001704296
14.90002,-0.0001700821
15.00002,-0.0001696094
15.10002,-0.0001692948
15.20002,-0.0001689031
15.30002,-0.0001685141
15.40002,-0.0001681619
15.50002,-0.0001678418
15.60002,-0.0001674782
15.70002,-0.0001671213
15.80002,-0.0001667823
15.90002,-0.0001664188
16.00002,-0.0001661325
16.10003,-0.0001658255
16.20003,-0.0001654394
16.30003,-0.0001651729
16.40003,-0.0001648941
16.50003,-0.0001645673
16.60003,-0.000164266
16.70003,-0.000163845
16.80003,-0.0001636181
16.90003,-0.0001633327
17.00003,-0.0001629542
17.10003,-0.0001625803
17.20003,-0.0001623128
17.30003,-0.000162051
17.40003,-0.0001617356
17.50003,-0.0001614286
17.60003,-0.0001611027
17.70003,-0.0001608014
17.80003,-0.0001605716
17.90003,-0.0001602617
18.00003,-0.0001601308
18.10003,-0.0001599585
18.20003,-0.0001595809
18.30003,-0.000159208
18.40003,-0.0001589151
18.50003,-0.0001586646
18.60003,-0.000158351
18.70004,-0.0001581429
18.80004,-0.0001578952
18.90004,-0.0001576051
19.00004,-0.0001573509
19.10004,-0.0001570354
19.20004,-0.0001568913
19.30004,-0.0001566436
19.40004,-0.000156524
19.50004,-0.0001561906
19.60004,-0.0001558931
19.70004,-0.0001556746
19.80004,-0.0001553789
19.90004,-0.0001551208
20.00004,-0.0001548214
20.10004,-0.0001544729
20.20004,-0.0001542365
20.30004,-0.0001539559
20.40004,-0.0001536612
20.50004,-0.0001534436
20.60004,-0.000153325
20.70004,-0.0001530161
20.80004,-0.0001527335
20.90004,-0.0001524699
21.00004,-0.0001522325
21.10004,-0.000152016
21.20004,-0.0001517202
21.30005,-0.0001514792
21.40005,-0.0001513172
21.50005,-0.0001510874
21.60005,-0.0001508115
21.70005,-0.0001505732
21.80005,-0.0001503575
21.90005,-0.0001501202
22.00005,-0.0001499272
22.10005,-0.0001497483
22.20005,-0.0001495505
22.30005,-0.0001493377
22.40005,-0.0001491408
22.50005,-0.0001488263
22.60005,-0.0001486276
22.70005,-0.0001485381
22.80005,-0.000148217
22.90005,-0.0001480221
23.00005,-0.0001479449
23.10005,-0.0001477198
23.20005,-0.0001474683
23.30005,-0.0001472122
23.40005,-0.0001469664
23.50005,-0.0001468063
23.60005,-0.0001465435
23.70005,-0.0001462384
23.80005,-0.000146052
23.90005,-0.0001458335
24.00006,-0.0001456659
24.10006,-0.0001454568
24.20006,-0.0001451893
24.30006,-0.0001450669
24.40006,-0.0001448607
24.50006,-0.0001445716
24.60006,-0.0001443813
24.70006,-0.0001441666
24.80006,-0.0001439378
24.90006,-0.000143708
25.00006,-0.0001435093
25.10006,-0.0001432315
25.20006,-0.0001430186
25.30006,-0.0001428604
25.40006,-0.0001426288
25.50006,-0.0001424188
25.60006,-0.0001422813
25.70006,-0.0001420317
25.80006,-0.0001417878
25.90006,-0.0001416239
26.00006,-0.0001414572
26.10006,-0.0001411672
26.20006,-0.0001410354
26.30006,-0.0001408159
26.40006,-0.0001406012
26.50006,-0.0001404788
26.60007,-0.0001402368
26.70007,-0.000140006
26.80007,-0.0001398431
26.90007,-0.0001396585
27.00007,-0.0001394787
27.10007,-0.0001393431
27.20007,-0.0001391726
27.30007,-0.0001389071
27.40007,-0.000138747
27.50007,-0.0001385624
27.60007,-0.0001383382
27.70007,-0.000138197
27.80007,-0.0001380011
27.90007,-0.0001377958
28.00007,-0.000137648
28.10007,-0.0001374455
28.20007,-0.0001372298
28.30007,-0.0001370961
28.40007,-0.0001369661
28.50007,-0.0001367222
28.60007,-0.0001365339
28.70007,-0.0001364096
28.80007,-0.0001361788
28.90007,-0.0001360564
29.00007,-0.0001358549
29.10007,-0.0001356392
29.20008,-0.0001355112
29.30008,-0.000135304
29.40008,-0.000135174
29.50008,-0.0001350855
29.60008,-0.0001348953
29.70008,-0.0001346806
29.80008,-0.0001345685
29.90008,-0.0001344056
30.00008,-0.0001341692
30.10008,-0.0001340016
30.20008,-0.0001338622
30.30008,-0.0001336757
30.40008,-0.0001335429
30.50008,-0.0001333245
30.60008,-0.0001331776
30.70008,-0.0001330843
30.80008,-0.0001330598
30.90008,-0.0001327547
31.00008,-0.0001325871
31.10008,-0.0001324251
31.20008,-0.0001321755
31.30008,-0.0001320437
31.40008,-0.000131909
31.50008,-0.0001317056
31.60008,-0.0001316152
31.70008,-0.0001314222
31.80009,-0.0001312734
31.90009,-0.0001311312
32.00008,-0.0001309777
32.10008,-0.0001307554
32.20008,-0.0001306273
32.30008,-0.0001305868
32.40008,-0.0001303458
32.50008,-0.000130213
32.60007,-0.0001300086
32.70007,-0.0001298325
32.80007,-0.0001297176
32.90007,-0.0001295472
33.00007,-0.0001293739
33.10007,-0.0001292261
33.20007,-0.0001291215
33.30006,-0.0001289228
33.40006,-0.0001288164
33.50006,-0.0001286714
33.60006,-0.000128483
33.70006,-0.0001283625
33.80006,-0.0001282815
33.90005,-0.0001280545
34.00005,-0.0001279623
34.10005,-0.0001278568
34.20005,-0.0001276468
34.30005,-0.0001275488
34.40005,-0.0001274189
34.50005,-0.0001273567
34.60004,-0.0001273068
34.70004,-0.000127175
34.80004,-0.0001270073
34.90004,-0.0001269198
35.00004,-0.0001267757
35.10004,-0.0001265214
35.20004,-0.0001264093
35.30003,-0.00012627
35.40003,-0.0001261089
35.50003,-0.0001260119
35.60003,-0.0001258603
35.70003,-0.0001257784
35.80003,-0.0001257539
35.90002,-0.0001256032
36.00002,-0.0001253885
36.10002,-0.000125218
36.20002,-0.0001251003
36.30002,-0.0001249675
36.40002,-0.0001248856
36.50002,-0.0001247462
36.60001,-0.0001246229
36.70001,-0.0001245598
36.80001,-0.0001244119
36.90001,-0.0001242744
37.00001,-0.0001241577
37.10001,-0.0001240446
37.2,-0.0001239778
37.3,-0.0001238544
37.4,-0.0001236915
37.5,-0.0001235606
37.6,-0.0001234645
37.7,-0.0001232875
37.8,-0.0001231387
37.89999,-0.0001230502
37.99999,-0.0001229155
38.09999,-0.000122778
38.19999,-0.0001226688
38.29999,-0.0001224672
38.39999,-0.0001223862
38.49998,-0.0001222516
38.59998,-0.0001220802
38.69998,-0.0001218843
38.79998,-0.0001217685
38.89998,-0.0001216687
38.99998,-0.0001215792
39.09998,-0.0001214172
39.19997,-0.0001213287
39.29997,-0.0001212072
39.39997,-0.0001211225
39.49997,-0.0001209633
39.59997,-0.0001207684
39.69997,-0.0001207279
39.79996,-0.0001206309
39.89996,-0.0001204623
39.99996,-0.0001203747
40.09996,-0.0001202532
40.19996,-0.0001201063
40.29996,-0.000119966
40.39996,-0.0001198153
40.49995,-0.0001197221
40.59995,-0.0001196882
40.69995,-0.0001194942
40.79995,-0.0001193237
40.89995,-0.0001192324
40.99995,-0.0001191665
41.09995,-0.0001189941
41.19994,-0.0001189254
41.29994,-0.0001187804
41.39994,-0.0001185817
41.49994,-0.00011848
41.59994,-0.0001184178
41.69994,-0.0001182408
41.79993,-0.0001181739
41.89993,-0.0001180684
41.99993,-0.0001179319
42.09993,-0.0001178405
42.19993,-0.000117752
42.29993,-0.0001175636
42.39993,-0.0001174789
42.49992,-0.0001173584
42.59992,-0.0001172049
42.69992,-0.0001171408
42.79992,-0.0001170344
42.89992,-0.0001168903
42.99992,-0.0001168187
43.09991,-0.0001166991
43.19991,-0.0001165466
43.29991,-0.0001165701
43.39991,-0.0001164976
43.49991,-0.0001162961
43.59991,-0.000116185
43.69991,-0.0001161416
43.7999,-0.0001159787
43.8999,-0.0001158761
43.9999,-0.000115796
44.0999,-0.0001156745
44.1999,-0.0001156171
44.2999,-0.0001155474
44.39989,-0.0001154231
44.49989,-0.0001153026
44.59989,-0.00011523
44.69989,-0.0001151848
44.79989,-0.0001150473
44.89989,-0.0001149155
44.99989,-0.0001148044
45.09988,-0.0001147234
45.19988,-0.0001145821
45.29988,-0.0001144588
45.39988,-0.0001143881
45.49988,-0.0001142337
45.59988,-0.0001141263
45.69987,-0.0001140623
45.79987,-0.0001139041
45.89987,-0.0001137779
45.99987,-0.0001136837
46.09987,-0.0001136206
46.19987,-0.0001134746
46.29987,-0.0001134012
46.39986,-0.0001133419
46.49986,-0.0001132091
46.59986,-0.0001131676
46.69986,-0.0001129812
46.79986,-0.0001128588
46.89986,-0.0001128211
46.99986,-0.0001126921
47.09985,-0.0001125536
47.19985,-0.0001124642
47.29985,-0.0001123417
47.39985,-0.0001122758
47.49985,-0.0001121666
47.59985,-0.0001120329
47.69984,-0.000111902
47.79984,-0.0001119359
47.89984,-0.0001117654
47.99984,-0.00011161
48.09984,-0.0001114744
48.19984,-0.0001114358
48.29984,-0.0001113171
48.39983,-0.0001113501
48.49983,-0.0001112013
48.59983,-0.0001111137
48.69983,-0.0001110214
48.79983,-0.0001109423
48.89983,-0.0001108048
48.99982,-0.000110738
49.09982,-0.0001106918
49.19982,-0.0001105365
49.29982,-0.0001104329
49.39982,-0.0001103321
49.49982,-0.0001102247
49.59982,-0.0001101635
49.69981,-0.0001100797
49.79981,-0.000109946
49.89981,-0.0001098528
49.99981,-0.0001098085
50.09981,-0.0001096729
50.19981,-0.0001096682
50.2998,-0.0001095702
50.3998,-0.0001094186
50.4998,-0.0001093226
50.5998,-0.0001092858
50.6998,-0.0001092143
50.7998,-0.0001091766
50.8998,-0.0001090645
50.99979,-0.0001090156
51.09979,-0.0001089317
51.19979,-0.0001087528
51.29979,-0.0001086389
51.39979,-0.0001085315
51.49979,-0.0001083582
51.59978,-0.0001083667
51.69978,-0.00010841
51.79978,-0.0001082443
51.89978,-0.0001081407
51.99978,-0.0001080258
52.09978,-0.0001079194
52.19978,-0.0001077913
52.29977,-0.0001077838
52.39977,-0.0001076453
52.49977,-0.0001075898
52.59977,-0.0001075672
52.69977,-0.0001075257
52.79977,-0.0001072978
52.89977,-0.0001072536
52.99976,-0.000107134
53.09976,-0.0001070718
53.19976,-0.0001070115
53.29976,-0.0001068854
53.39976,-0.0001068128
53.49976,-0.000106746
53.59975,-0.0001066377
53.69975,-0.0001065482
53.79975,-0.0001065002
53.89975,-0.0001063881
53.99975,-0.0001062968
54.09975,-0.0001062422
54.19975,-0.0001061508
54.29974,-0.0001060227
54.39974,-0.000105953
54.49974,-0.0001058777
54.59974,-0.0001057722
54.69974,-0.0001057101
54.79974,-0.0001056112
54.89973,-0.0001054916
54.99973,-0.0001054266
55.09973,-0.0001053296
55.19973,-0.0001052496
55.29973,-0.000105211
55.39973,-0.0001051224
55.49973,-0.0001050028
55.59972,-0.0001049473
55.69972,-0.0001048597
55.79972,-0.0001048296
55.89972,-0.0001047749
55.99972,-0.0001046299
56.09972,-0.000104515
56.19971,-0.0001044406
56.29971,-0.0001044274
56.39971,-0.0001043361
56.49971,-0.0001042796
56.59971,-0.0001041864
56.69971,-0.000104079
56.79971,-0.0001040168
56.8997,-0.0001038671
56.9997,-0.000103772
57.0997,-0.0001037306
57.1997,-0.0001036317
57.2997,-0.0001035215
57.3997,-0.0001034386
57.49969,-0.0001034075
57.59969,-0.0001032842
57.69969,-0.0001032305
57.79969,-0.0001031881
57.89969,-0.0001031862
57.99969,-0.0001030261
58.09969,-0.0001029687
58.19968,-0.0001028284
58.29968,-0.0001027559
58.39968,-0.0001027766
58.49968,-0.0001026598
58.59968,-0.000102608
58.69968,-0.000102528
58.79967,-0.0001024394
58.89967,-0.0001023462
58.99967,-0.0001023349
59.09967,-0.0001022436
59.19967,-0.0001021936
59.29967,-0.0001021456
59.39967,-0.0001020147
59.49966,-0.0001019271
59.59966,-0.0001018527
59.69966,-0.0001017718
59.79966,-0.000101671
59.89966,-0.0001015994
59.99966,-0.0001014958
60.09966,-0.000101461
60.19965,-0.000101348
60.29965,-0.0001012764
60.39965,-0.0001012482
60.49965,-0.0001011775
60.59965,-0.0001010551
60.69965,-0.0001009882
60.79964,-0.0001008884
60.89964,-0.0001008423
60.99964,-0.0001008018
61.09964,-0.0001007302
61.19964,-0.0001005974
61.29964,-0.0001006869
61.39964,-0.0001005871
61.49963,-0.0001003902
61.59963,-0.0001002829
61.69963,-0.0001001953
61.79963,-0.0001001482
61.89963,-0.0001001077
61.99963,-0.0001000117
62.09962,-9.997305E-05
62.19962,-9.996269E-05
62.29962,-9.990524E-05
62.39962,-9.979695E-05
62.49962,-9.969429E-05
62.59962,-9.962179E-05
62.69962,-9.954738E-05
62.79961,-9.949935E-05
62.89961,-9.942496E-05
62.99961,-9.933644E-05
63.09961,-9.930818E-05
63.19961,-9.926486E-05
63.29961,-9.908594E-05
63.3996,-9.8988E-05
63.4996,-9.892679E-05
63.5996,-9.884203E-05
63.6996,-9.892773E-05
63.7996,-9.879682E-05
63.8996,-9.864898E-05
63.9996,-9.857269E-05
64.09959,-9.850677E-05
64.19959,-9.845968E-05
64.29959,-9.849924E-05
64.39959,-9.835516E-05
64.49959,-9.825909E-05
64.59959,-9.82139E-05
64.69958,-9.807169E-05
64.79958,-9.801143E-05
64.89958,-9.798977E-05
64.99958,-9.790783E-05
65.09958,-9.781743E-05
65.19958,-9.780518E-05
65.29958,-9.767899E-05
65.39957,-9.76658E-05
65.49957,-9.767617E-05
65.59957,-9.75754E-05
65.69957,-9.742002E-05
65.79957,-9.737952E-05
65.89957,-9.733055E-05
65.99957,-9.720813E-05
66.09956,-9.712808E-05
66.19956,-9.704897E-05
66.29956,-9.695763E-05
66.39956,-9.703203E-05
66.49956,-9.689736E-05
66.59956,-9.679847E-05
66.69955,-9.680695E-05
66.79955,-9.6709E-05
66.89955,-9.663744E-05
66.99955,-9.657434E-05
67.09955,-9.650748E-05
67.19955,-9.643214E-05
67.29955,-9.636152E-05
67.39954,-9.631537E-05
67.49954,-9.617599E-05
67.59954,-9.609218E-05
67.69954,-9.603661E-05
67.79954,-9.599329E-05
67.89954,-9.59415E-05
67.99953,-9.581718E-05
68.09953,-9.585674E-05
68.19953,-9.587935E-05
68.29953,-9.575032E-05
68.39953,-9.566745E-05
68.49953,-9.555538E-05
68.59953,-9.546498E-05
68.69952,-9.551112E-05
68.79952,-9.559399E-05
68.89952,-9.54226E-05
68.99952,-9.543767E-05
69.09952,-9.546122E-05
69.19952,-9.525874E-05
69.29951,-9.517587E-05
69.39951,-9.515045E-05
69.49951,-9.504685E-05
69.59951,-9.505438E-05
69.69951,-9.500259E-05
69.79951,-9.491595E-05
69.89951,-9.486887E-05
69.9995,-9.475774E-05
70.0995,-9.465321E-05
70.1995,-9.460894E-05
70.2995,-9.455527E-05
70.3995,-9.447993E-05
70.4995,-9.439706E-05
70.59949,-9.435562E-05
70.69949,-9.433773E-05
70.79949,-9.428029E-05
70.89949,-9.423884E-05
70.99949,-9.419081E-05
71.09949,-9.407121E-05
71.19949,-9.397422E-05
71.29948,-9.390736E-05
71.39948,-9.385933E-05
71.49948,-9.378964E-05
71.59948,-9.375009E-05
71.69948,-9.369547E-05
71.79948,-9.364744E-05
71.89948,-9.35495E-05
71.99947,-9.350995E-05
72.09947,-9.346663E-05
72.19947,-9.344968E-05
72.29947,-9.3299E-05
72.39947,-9.327829E-05
72.49947,-9.319917E-05
72.59946,-9.317092E-05
72.69946,-9.309653E-05
72.79946,-9.302307E-05
72.89946,-9.297505E-05
72.99946,-9.29223E-05
73.09946,-9.287428E-05
73.19946,-9.279235E-05
73.29945,-9.277445E-05
73.39945,-9.26266E-05
73.49945,-9.253903E-05
73.59945,-9.246934E-05
73.69945,-9.242696E-05
73.79945,-9.239399E-05
73.89944,-9.233561E-05
73.99944,-9.222542E-05
74.09944,-9.221506E-05
74.19944,-9.214821E-05
74.29944,-9.204084E-05
74.39944,-9.198905E-05
74.49944,-9.187604E-05
74.59943,-9.184403E-05
74.69943,-9.178188E-05
74.79943,-9.166321E-05
74.89943,-9.163025E-05
74.99943,-9.156716E-05
75.09943,-9.151818E-05
75.19942,-9.147769E-05
75.29942,-9.139952E-05
75.39942,-9.135433E-05
75.49942,-9.130442E-05
75.59942,-9.120836E-05
75.69942,-9.116221E-05
75.79942,-9.109535E-05
75.89941,-9.106427E-05
75.99941,-9.09814E-05
76.09941,-9.09814E-05
76.19941,-9.09249E-05
76.29941,-9.080153E-05
76.39941,-9.074879E-05
76.4994,-9.072525E-05
76.5994,-9.073184E-05
76.6994,-9.066875E-05
76.7994,-9.061695E-05
76.8994,-9.054539E-05
76.9994,-9.048134E-05
77.0994,-9.036174E-05
77.19939,-9.029864E-05
77.29939,-9.030053E-05
77.39939,-9.027886E-05
77.49939,-9.02638E-05
77.59939,-9.029864E-05
77.69939,-9.021483E-05
77.79939,-9.010277E-05
77.89938,-9.013196E-05
77.99938,-9.010088E-05
78.09938,-9.007921E-05
78.19938,-9.015738E-05
78.29938,-9.009241E-05
78.39938,-8.998693E-05
78.49937,-9.004155E-05
78.59937,-8.982306E-05
78.69937,-8.966015E-05
78.79937,-8.970724E-05
78.89937,-8.967522E-05
78.99937,-8.963849E-05
79.09937,-8.984756E-05
79.19936,-8.969499E-05
79.29936,-8.946803E-05
79.39936,-8.948216E-05
79.49936,-8.942943E-05
79.59936,-8.927497E-05
79.69936,-8.926367E-05
79.79935,-8.922978E-05
79.89935,-8.917892E-05
79.99935,-8.913938E-05
80.09935,-8.90904E-05
80.19935,-8.901695E-05
80.29935,-8.891619E-05
80.39935,-8.884743E-05
80.49934,-8.879281E-05
80.59934,-8.871654E-05
80.69934,-8.869017E-05
80.79934,-8.859317E-05
80.89934,-8.851312E-05
80.99934,-8.852913E-05
81.09933,-8.84472E-05
81.19933,-8.835209E-05
81.29933,-8.825791E-05
81.39933,-8.820705E-05
81.49933,-8.821271E-05
81.59933,-8.819481E-05
81.69933,-8.803096E-05
81.79932,-8.803472E-05
81.89932,-8.79688E-05
81.99932,-8.78784E-05
82.09932,-8.78087E-05
82.19932,-8.778516E-05
82.29932,-8.770417E-05
82.39931,-8.771453E-05
82.49931,-8.762412E-05
82.59931,-8.752994E-05
82.69931,-8.754784E-05
82.79931,-8.752148E-05
82.89931,-8.737551E-05
82.99931,-8.745179E-05
83.0993,-8.740377E-05
83.1993,-8.722483E-05
83.2993,-8.716268E-05
83.3993,-8.712877E-05
83.4993,-8.704873E-05
83.5993,-8.704496E-05
83.6993,-8.697433E-05
83.79929,-8.683872E-05
83.89929,-8.68293E-05
83.99929,-8.68651E-05
84.09929,-8.676903E-05
84.19929,-8.674078E-05
84.29929,-8.668522E-05
84.39928,-8.660989E-05
84.49928,-8.660705E-05
84.59928,-8.656939E-05
84.69928,-8.64931E-05
84.79928,-8.644132E-05
84.89928,-8.637068E-05
84.99928,-8.634526E-05
85.09927,-8.63123E-05
85.19927,-8.623036E-05
85.29927,-8.618234E-05
85.39927,-8.615879E-05
85.49927,-8.604579E-05
85.59927,-8.60439E-05
85.69926,-8.620776E-05
85.79926,-8.60279E-05
85.89926,-8.596763E-05
85.99926,-8.597139E-05
86.09926,-8.584143E-05
86.19926,-8.57482E-05
86.29926,-8.574349E-05
86.39925,-8.56738E-05
86.49925,-8.5622E-05
86.59925,-8.562577E-05
86.69925,-8.557116E-05
86.79925,-8.546851E-05
86.89925,-8.546662E-05
86.99924,-8.540824E-05
87.09924,-8.532913E-05
87.19924,-8.531688E-05
87.29924,-8.530182E-05
87.39924,-8.51662E-05
87.49924,-8.515209E-05
87.59924,-8.511441E-05
87.69923,-8.506356E-05
87.79923,-8.513419E-05
87.89923,-8.503719E-05
87.99923,-8.500328E-05
88.09923,-8.493171E-05
88.19923,-8.484131E-05
88.29922,-8.476879E-05
88.39922,-8.473302E-05
88.49922,-8.462754E-05
88.59922,-8.461153E-05
88.69922,-8.462001E-05
88.79922,-8.451923E-05
88.89922,-8.454937E-05
88.99921,-8.454278E-05
89.09921,-8.445332E-05
89.19921,-8.439775E-05
89.29921,-8.432336E-05
89.39921,-8.430547E-05
89.49921,-8.426498E-05
89.59921,-8.423389E-05
89.6992,-8.415196E-05
89.7992,-8.411806E-05
89.8992,-8.409075E-05
89.9992,-8.400317E-05
90.0992,-8.395608E-05
90.1992,-8.388735E-05
90.29919,-8.383743E-05
90.39919,-8.377715E-05
90.49919,-8.377244E-05
90.59919,-8.370088E-05
90.69919,-8.36246E-05
90.79919,-8.36067E-05
90.89919,-8.35954E-05
90.99918,-8.34805E-05
91.09918,-8.348615E-05
91.19918,-8.346356E-05
91.29918,-8.338351E-05
91.39918,-8.337409E-05
91.49918,-8.328274E-05
91.59917,-8.314431E-05
91.69917,-8.316692E-05
91.79917,-8.316879E-05
91.89917,-8.314807E-05
91.99917,-8.31123E-05
92.09917,-8.315749E-05
92.19917,-8.320552E-05
92.29916,-8.311982E-05
92.39916,-8.304355E-05
92.49916,-8.29569E-05
92.59916,-8.288816E-05
92.69916,-8.280716E-05
92.79916,-8.273371E-05
92.89915,-8.270452E-05
92.99915,-8.266779E-05
93.09915,-8.265555E-05
93.19915,-8.258963E-05
93.29915,-8.253406E-05
93.39915,-8.254914E-05
93.49915,-8.250959E-05
93.59914,-8.241824E-05
93.69914,-8.245779E-05
93.79914,-8.251712E-05
93.89914,-8.252088E-05
93.99914,-8.242483E-05
94.09914,-8.229769E-05
94.19913,-8.224119E-05
94.29913,-8.220541E-05
94.39913,-8.223554E-05
94.49913,-8.208016E-05
94.59913,-8.215173E-05
94.69913,-8.22911E-05
94.79913,-8.214042E-05
94.89912,-8.203872E-05
94.99912,-8.193136E-05
95.09912,-8.191064E-05
95.19912,-8.193136E-05
95.29912,-8.203024E-05
95.39912,-8.185885E-05
95.49911,-8.186261E-05
95.59911,-8.186167E-05
95.69911,-8.175808E-05
95.79911,-8.170534E-05
95.89911,-8.170441E-05
95.99911,-8.158575E-05
96.09911,-8.165261E-05
96.1991,-8.17675E-05
96.2991,-8.159704E-05
96.3991,-8.156127E-05
96.4991,-8.153866E-05
96.5991,-8.146802E-05
96.6991,-8.150099E-05
96.7991,-8.156408E-05
96.89909,-8.142283E-05
96.99909,-8.148215E-05
97.09909,-8.15575E-05
97.19909,-8.138139E-05
97.29909,-8.138799E-05
97.39909,-8.143695E-05
97.49908,-8.133995E-05
97.59908,-8.141624E-05
97.69908,-8.144543E-05
97.79908,-8.13456E-05
97.89908,-8.133808E-05
97.99908,-8.138327E-05
98.09908,-8.125237E-05
98.19907,-8.115443E-05
98.29907,-8.114031E-05
98.39907,-8.109699E-05
98.49907,-8.108663E-05
98.59907,-8.104707E-05
98.69907,-8.095572E-05
98.79906,-8.091806E-05
98.89906,-8.089263E-05
98.99906,-8.083518E-05
99.09906,-8.078715E-05
99.19906,-8.071277E-05
99.29906,-8.068262E-05
99.39906,-8.060917E-05
99.49905,-8.05489E-05
99.59905,-8.052913E-05
99.69905,-8.047168E-05
99.79905,-8.040199E-05
99.89905,-8.037185E-05
99.99905,-8.024095E-05
100.099,-8.027485E-05
100.199,-8.018916E-05
100.299,-8.012888E-05
100.399,-8.014018E-05
100.499,-8.006485E-05
100.599,-8.00366E-05
100.699,-7.996314E-05
100.799,-7.989911E-05
100.899,-7.982754E-05
100.999,-7.978986E-05
101.099,-7.977856E-05
101.199,-7.973242E-05
101.299,-7.966273E-05
101.399,-7.969098E-05
101.499,-7.965897E-05
101.599,-7.959869E-05
101.699,-7.959116E-05
101.799,-7.946684E-05
101.899,-7.938868E-05
101.999,-7.935007E-05
102.099,-7.929921E-05
102.199,-7.923236E-05
102.299,-7.921917E-05
102.399,-7.918244E-05
102.499,-7.908545E-05
102.599,-7.909487E-05
102.699,-7.910616E-05
102.799,-7.91024E-05
102.899,-7.915607E-05
102.999,-7.90167E-05
103.099,-7.890182E-05
103.199,-7.889899E-05
103.299,-7.886603E-05
103.399,-7.878033E-05
103.499,-7.879633E-05
103.599,-7.87323E-05
103.699,-7.869463E-05
103.799,-7.868239E-05
103.899,-7.863907E-05
103.999,-7.856184E-05
104.099,-7.850346E-05
104.199,-7.849216E-05
104.299,-7.843E-05
104.399,-7.840458E-05
104.499,-7.839045E-05
104.599,-7.831417E-05
104.699,-7.832547E-05
104.799,-7.829251E-05
104.899,-7.831134E-05
104.999,-7.830947E-05
105.099,-7.820775E-05
105.199,-7.808533E-05
105.299,-7.804766E-05
105.399,-7.804484E-05
105.499,-7.804672E-05
105.599,-7.811734E-05
105.699,-7.806649E-05
105.799,-7.804861E-05
105.899,-7.815879E-05
105.999,-7.812394E-05
106.099,-7.805143E-05
106.199,-7.802694E-05
106.299,-7.803918E-05
106.3989,-7.803918E-05
106.4989,-7.802789E-05
106.5989,-7.799022E-05
106.6989,-7.787438E-05
106.7989,-7.785931E-05
106.8989,-7.784707E-05
106.9989,-7.7848E-05
107.0989,-7.781411E-05
107.1989,-7.776231E-05
107.2989,-7.776703E-05
107.3989,-7.774254E-05
107.4989,-7.765214E-05
107.5989,-7.764083E-05
107.6989,-7.767661E-05
107.7989,-7.751747E-05
107.8989,-7.748167E-05
107.9989,-7.74732E-05
108.0989,-7.740351E-05
108.1989,-7.740729E-05
108.2989,-7.739221E-05
108.3989,-7.727355E-05
108.4989,-7.72632E-05
108.5989,-7.73018E-05
108.6989,-7.716808E-05
108.7989,-7.712194E-05
108.8989,-7.707391E-05
108.9989,-7.700893E-05
109.0989,-7.698444E-05
109.1989,-7.695526E-05
109.2989,-7.692324E-05
109.3989,-7.684507E-05
109.4989,-7.681305E-05
109.5989,-7.677255E-05
109.6989,-7.666991E-05
109.7989,-7.66652E-05
109.8989,-7.663223E-05
109.9989,-7.655691E-05
110.0989,-7.654089E-05
110.1989,-7.652675E-05
110.2989,-7.64147E-05
110.3989,-7.641376E-05
110.4989,-7.634501E-05
110.5989,-7.637421E-05
110.6989,-7.644672E-05
110.7989,-7.633182E-05
110.8989,-7.621788E-05
110.9989,-7.618208E-05
111.0989,-7.615478E-05
111.1989,-7.61124E-05
111.2989,-7.609545E-05
111.3989,-7.602105E-05
111.4989,-7.600128E-05
111.5989,-7.597397E-05
111.6989,-7.592312E-05
111.7989,-7.584777E-05
111.8989,-7.581952E-05
111.9989,-7.579126E-05
112.0989,-7.5731E-05
112.1989,-7.572441E-05
112.2989,-7.568579E-05
112.3989,-7.562741E-05
112.4989,-7.559445E-05
112.5989,-7.559727E-05
112.6989,-7.555867E-05
112.7989,-7.55323E-05
112.8988,-7.548803E-05
112.9988,-7.54353E-05
113.0988,-7.543436E-05
113.1988,-7.540893E-05
113.2988,-7.533077E-05
113.3988,-7.530533E-05
113.4988,-7.530628E-05
113.5988,-7.521305E-05
113.6988,-7.518574E-05
113.7988,-7.514242E-05
113.8988,-7.513394E-05
113.9988,-7.509722E-05
114.0988,-7.50426E-05
114.1988,-7.502094E-05
114.2988,-7.496349E-05
114.3988,-7.494936E-05
114.4988,-7.489097E-05
114.5988,-7.486461E-05
114.6988,-7.484201E-05
114.7988,-7.480998E-05
114.8988,-7.474783E-05
114.9988,-7.471581E-05
115.0988,-7.471393E-05
115.1988,-7.464895E-05
115.2988,-7.461505E-05
115.3988,-7.460658E-05
115.4988,-7.457926E-05
115.5988,-7.453689E-05
115.6988,-7.449921E-05
115.7988,-7.447285E-05
115.8988,-7.447755E-05
115.9988,-7.445495E-05
116.0988,-7.437773E-05
116.1988,-7.434195E-05
116.2988,-7.431464E-05
116.3988,-7.427414E-05
116.4988,-7.424306E-05
116.5988,-7.422894E-05
116.6988,-7.41715E-05
116.7988,-7.411499E-05
116.8988,-7.409899E-05
116.9988,-7.405472E-05
117.0988,-7.399821E-05
117.1988,-7.397751E-05
117.2988,-7.394453E-05
117.3988,-7.389086E-05
117.4988,-7.385695E-05
117.5988,-7.380704E-05
117.6988,-7.378255E-05
117.7988,-7.377126E-05
117.8988,-7.371569E-05
117.9988,-7.369875E-05
118.0988,-7.367803E-05
118.1988,-7.363565E-05
118.2988,-7.358669E-05
118.3988,-7.355749E-05
118.4988,-7.35443E-05
118.5988,-7.355466E-05
118.6988,-7.353206E-05
118.7988,-7.35104E-05
118.8988,-7.347273E-05
118.9988,-7.337761E-05
119.0988,-7.332487E-05
119.1988,-7.330887E-05
119.2988,-7.325708E-05
119.3988,-7.32533E-05
119.4987,-7.325989E-05
119.5987,-7.324295E-05
119.6987,-7.322035E-05
119.7987,-7.313841E-05
119.8987,-7.309697E-05
119.9987,-7.309604E-05
120.0987,-7.312429E-05
120.1987,-7.29981E-05
120.2987,-7.301223E-05
120.3987,-7.30254E-05
120.4987,-7.294724E-05
120.5987,-7.290015E-05
120.6987,-7.28606E-05
120.7987,-7.28267E-05
120.8987,-7.276831E-05
120.9987,-7.272593E-05
121.0987,-7.26845E-05
121.1987,-7.262234E-05
121.2987,-7.262801E-05
121.3987,-7.260445E-05
121.4987,-7.257902E-05
121.5987,-7.253853E-05
121.6987,-7.248108E-05
121.7987,-7.242835E-05
121.8987,-7.242269E-05
121.9987,-7.235019E-05
122.0987,-7.232758E-05
122.1987,-7.230027E-05
122.2987,-7.232853E-05
122.3987,-7.224565E-05
122.4987,-7.220139E-05
122.5987,-7.221552E-05
122.6987,-7.214583E-05
122.7987,-7.217032E-05
122.8987,-7.212229E-05
122.9987,-7.214772E-05
123.0987,-7.207049E-05
123.1987,-7.204225E-05
123.2987,-7.201116E-05
123.3987,-7.198291E-05
123.4987,-7.198668E-05
123.5987,-7.195278E-05
123.6987,-7.190192E-05
123.7987,-7.188779E-05
123.8987,-7.188026E-05
123.9987,-7.185954E-05
124.0987,-7.177196E-05
124.1987,-7.176066E-05
124.2987,-7.17164E-05
124.3987,-7.167968E-05
124.4987,-7.172205E-05
124.5987,-7.170039E-05
124.6987,-7.164954E-05
124.7987,-7.163164E-05
124.8987,-7.161752E-05
124.9987,-7.152899E-05
125.0987,-7.154312E-05
125.1987,-7.148191E-05
125.2987,-7.144519E-05
125.3987,-7.151487E-05
125.4987,-7.15064E-05
125.5987,-7.138491E-05
125.6987,-7.134159E-05
125.7987,-7.132276E-05
125.8987,-7.12672E-05
125.9986,-7.125118E-05
126.0986,-7.123611E-05
126.1986,-7.11749E-05
126.2986,-7.114476E-05
126.3986,-7.114289E-05
126.4986,-7.109297E-05
126.5986,-7.105342E-05
126.6986,-7.104871E-05
126.7986,-7.101669E-05
126.8986,-7.094042E-05
126.9986,-7.094795E-05
127.0986,-7.097243E-05
127.1986,-7.089521E-05
127.2986,-7.085471E-05
127.3986,-7.079821E-05
127.4986,-7.074454E-05
127.5986,-7.074547E-05
127.6986,-7.07257E-05
127.7986,-7.065319E-05
127.8986,-7.064095E-05
127.9986,-7.060139E-05
128.0986,-7.053264E-05
128.1986,-7.052699E-05
128.2986,-7.053923E-05
128.3986,-7.050533E-05
128.4986,-7.046861E-05
128.5986,-7.046201E-05
128.6987,-7.037537E-05
128.7987,-7.037914E-05
128.8987,-7.040927E-05
128.9987,-7.038385E-05
129.0987,-7.03038E-05
129.1987,-7.027273E-05
129.2987,-7.024354E-05
129.3987,-7.021622E-05
129.4987,-7.023599E-05
129.5987,-7.017008E-05
129.6987,-7.016161E-05
129.7987,-7.017572E-05
129.8987,-7.006743E-05
129.9987,-7.005048E-05
130.0987,-7.001845E-05
130.1987,-6.997326E-05
130.2988,-6.995159E-05
130.3988,-6.994688E-05
130.4988,-6.992617E-05
130.5988,-6.992899E-05
130.6988,-6.989509E-05
130.7988,-6.982352E-05
130.8988,-6.983011E-05
130.9988,-6.986966E-05
131.0988,-6.981599E-05
131.1988,-6.980092E-05
131.2988,-6.98028E-05
131.3988,-6.973217E-05
131.4988,-6.967002E-05
131.5988,-6.96606E-05
131.6988,-6.95862E-05
131.7988,-6.957114E-05
131.8988,-6.95749E-05
131.9989,-6.953158E-05
132.0989,-6.947979E-05
132.1989,-6.946472E-05
132.2989,-6.938844E-05
132.3989,-6.937526E-05
132.4989,-6.94214E-05
132.5989,-6.936867E-05
132.6989,-6.935548E-05
132.7989,-6.931311E-05
132.8989,-6.927355E-05
132.9989,-6.917938E-05
133.0989,-6.922269E-05
133.1989,-6.915301E-05
133.2989,-6.916713E-05
133.3989,-6.913888E-05
133.4989,-6.906637E-05
133.599,-6.901645E-05
133.699,-6.902587E-05
133.799,-6.897313E-05
133.899,-6.894112E-05
133.999,-6.893076E-05
134.099,-6.889968E-05
134.199,-6.882999E-05
134.299,-6.883847E-05
134.399,-6.881681E-05
134.499,-6.875842E-05
134.599,-6.876879E-05
134.699,-6.871039E-05
134.799,-6.871321E-05
134.899,-6.876689E-05
134.999,-6.874241E-05
135.099,-6.86633E-05
135.1991,-6.858891E-05
135.2991,-6.856066E-05
135.3991,-6.852204E-05
135.4991,-6.851922E-05
135.5991,-6.848155E-05
135.6991,-6.847873E-05
135.7991,-6.842223E-05
135.8991,-6.838361E-05
135.9991,-6.833371E-05
136.0991,-6.831675E-05
136.1991,-6.830357E-05
136.2991,-6.826777E-05
136.3991,-6.82706E-05
136.4991,-6.823952E-05
136.5991,-6.818868E-05
136.6991,-6.818584E-05
136.7991,-6.815759E-05
136.8992,-6.8135E-05
136.9992,-6.809827E-05
137.0992,-6.801916E-05
137.1992,-6.797208E-05
137.2992,-6.801445E-05
137.3992,-6.797961E-05
137.4992,-6.793817E-05
137.5992,-6.79231E-05
137.6992,-6.787319E-05
137.7992,-6.794476E-05
137.8992,-6.794288E-05
137.9992,-6.785342E-05
138.0992,-6.779314E-05
138.1992,-6.777808E-05
138.2992,-6.776489E-05
138.3992,-6.772063E-05
138.4993,-6.772063E-05
138.5993,-6.763023E-05
138.6993,-6.766695E-05
138.7993,-6.765848E-05
138.8993,-6.757184E-05
138.9993,-6.754265E-05
139.0993,-6.756619E-05
139.1993,-6.747767E-05
139.2993,-6.747578E-05
139.3993,-6.744282E-05
139.4993,-6.738349E-05
139.5993,-6.736748E-05
139.6993,-6.735336E-05
139.7993,-6.730439E-05
139.8993,-6.73025E-05
139.9993,-6.729403E-05
140.0993,-6.720456E-05
140.1994,-6.718385E-05
140.2994,-6.71603E-05
140.3994,-6.712829E-05
140.4994,-6.713205E-05
140.5994,-6.712075E-05
140.6994,-6.71151E-05
140.7994,-6.703411E-05
140.8994,-6.703883E-05
140.9994,-6.696819E-05
141.0994,-6.695123E-05
141.1994,-6.699738E-05
141.2994,-6.693711E-05
141.3994,-6.687873E-05
141.4994,-6.687966E-05
141.5994,-6.685048E-05
141.6994,-6.67968E-05
141.7995,-6.680433E-05
141.8995,-6.677514E-05
141.9995,-6.671486E-05
142.0995,-6.672239E-05
142.1995,-6.666872E-05
142.2995,-6.667813E-05
142.3995,-6.668285E-05
142.4995,-6.664707E-05
142.5995,-6.654535E-05
142.6995,-6.652463E-05
142.7995,-6.65171E-05
142.8995,-6.649262E-05
142.9995,-6.645871E-05
143.0995,-6.639468E-05
143.1995,-6.640032E-05
143.2995,-6.641727E-05
143.3996,-6.637019E-05
143.4996,-6.632687E-05
143.5996,-6.637019E-05
143.6996,-6.628355E-05
143.7996,-6.624494E-05
143.8996,-6.626943E-05
143.9996,-6.622517E-05
144.0996,-6.619032E-05
144.1996,-6.618279E-05
144.2996,-6.618938E-05
144.3996,-6.614512E-05
144.4996,-6.619786E-05
144.5996,-6.615642E-05
144.6996,-6.614606E-05
144.7996,-6.619408E-05
144.8996,-6.611122E-05
144.9996,-6.603494E-05
145.0997,-6.604529E-05
145.1997,-6.597184E-05
145.2997,-6.593604E-05
145.3997,-6.597184E-05
145.4997,-6.592852E-05
145.5997,-6.601516E-05
145.6997,-6.59304E-05
145.7997,-6.583152E-05
145.8997,-6.579197E-05
145.9997,-6.583341E-05
146.0997,-6.578067E-05
146.1997,-6.579761E-05
146.2997,-6.580327E-05
146.3997,-6.574771E-05
146.4997,-6.57138E-05
146.5997,-6.573735E-05
146.6998,-6.569968E-05
146.7998,-6.567143E-05
146.8998,-6.570627E-05
146.9998,-6.562057E-05
147.0998,-6.560833E-05
147.1998,-6.557914E-05
147.2998,-6.55603E-05
147.3998,-6.554335E-05
147.4998,-6.557914E-05
147.5998,-6.553111E-05
147.6998,-6.54473E-05
147.7998,-6.548214E-05
147.8998,-6.547273E-05
147.9998,-6.539173E-05
148.0998,-6.542374E-05
148.1998,-6.5339E-05
148.2999,-6.532016E-05
148.3999,-6.531263E-05
148.4999,-6.525424E-05
148.5999,-6.517419E-05
148.6999,-6.520998E-05
148.7999,-6.522034E-05
148.8999,-6.521469E-05
148.9999,-6.521186E-05
149.0999,-6.52015E-05
149.1999,-6.531545E-05
149.2999,-6.517702E-05
149.3999,-6.506966E-05
149.4999,-6.500939E-05
149.5999,-6.502163E-05
149.6999,-6.499432E-05
149.7999,-6.500279E-05
149.8999,-6.493688E-05
150,-6.49058E-05
150.1,-6.489073E-05
150.2,-6.493123E-05
150.3,-6.488885E-05
150.4,-6.48879E-05
150.5,-6.485307E-05
150.6,-6.482858E-05
150.7,-6.479467E-05
150.8,-6.479091E-05
150.9,-6.47862E-05
151,-6.474759E-05
151.1,-6.473629E-05
151.2,-6.472781E-05
151.3,-6.469485E-05
151.4,-6.469485E-05
151.5,-6.46487E-05
151.6001,-6.464117E-05
151.7001,-6.462705E-05
151.8001,-6.459597E-05
151.9001,-6.450745E-05
152.0001,-6.451875E-05
152.1001,-6.452157E-05
152.2001,-6.449332E-05
152.3001,-6.44613E-05
152.4001,-6.443493E-05
152.5001,-6.439821E-05
152.6001,-6.438314E-05
152.7001,-6.437938E-05
152.8001,-6.435018E-05
152.9001,-6.434359E-05
153.0001,-6.42965E-05
153.1001,-6.427578E-05
153.2001,-6.42852E-05
153.3002,-6.42852E-05
153.4002,-6.420045E-05
153.5002,-6.41769E-05
153.6002,-6.416465E-05
153.7002,-6.41251E-05
153.8002,-6.411474E-05
153.9002,-6.404788E-05
154.0002,-6.403092E-05
154.1002,-6.402811E-05
154.2002,-6.403847E-05
154.3002,-6.39942E-05
154.4002,-6.396218E-05
154.5002,-6.392263E-05
154.6002,-6.388401E-05
154.7002,-6.388496E-05
154.8002,-6.387554E-05
154.9003,-6.385105E-05
155.0003,-6.381245E-05
155.1003,-6.378138E-05
155.2003,-6.383505E-05
155.3003,-6.385105E-05
155.4003,-6.375783E-05
155.5003,-6.374182E-05
155.6003,-6.372298E-05
155.7003,-6.367025E-05
155.8003,-6.364294E-05
155.9003,-6.361563E-05
156.0003,-6.359397E-05
156.1003,-6.35968E-05
156.2003,-6.359397E-05
156.3003,-6.354123E-05
156.4003,-6.351298E-05
156.5004,-6.352617E-05
156.6004,-6.350921E-05
156.7004,-6.353652E-05
156.8004,-6.352522E-05
156.9004,-6.354688E-05
157.0004,-6.353182E-05
157.1004,-6.351298E-05
157.2004,-6.338867E-05
157.3004,-6.336324E-05
157.4004,-6.334911E-05
157.5004,-6.33171E-05
157.6004,-6.33058E-05
157.7004,-6.333499E-05
157.8004,-6.332745E-05
157.9004,-6.326907E-05
158.0004,-6.321351E-05
158.1004,-6.318431E-05
158.2005,-6.319562E-05
158.3005,-6.320221E-05
158.4005,-6.322575E-05
158.5005,-6.31862E-05
158.6005,-6.320409E-05
158.7005,-6.31005E-05
158.8005,-6.303646E-05
158.9005,-6.309296E-05
159.0005,-6.306283E-05
159.1005,-6.30845E-05
159.2005,-6.324176E-05
159.3005,-6.322293E-05
159.4005,-6.309014E-05
159.5005,-6.30713E-05
159.6005,-6.306E-05
159.7005,-6.300821E-05
159.8006,-6.302704E-05
159.9006,-6.299408E-05
160.0006,-6.294417E-05
160.1006,-6.297242E-05
160.2006,-6.293663E-05
160.3006,-6.294135E-05
160.4006,-6.291592E-05
160.5006,-6.296112E-05
160.6006,-6.299315E-05
160.7006,-6.291216E-05
160.8006,-6.288202E-05
160.9006,-6.29065E-05
161.0006,-6.286412E-05
161.1006,-6.279538E-05
161.2006,-6.279821E-05
161.3006,-6.278314E-05
161.4007,-6.2753E-05
161.5007,-6.279915E-05
161.6007,-6.273793E-05
161.7007,-6.27483E-05
161.8007,-6.271816E-05
161.9007,-6.27191E-05
162.0007,-6.272663E-05
162.1007,-6.271439E-05
162.2007,-6.268897E-05
162.3007,-6.269085E-05
162.4007,-6.265223E-05
162.5007,-6.262399E-05
162.6007,-6.263058E-05
162.7007,-6.263246E-05
162.8007,-6.258443E-05
162.9007,-6.2559E-05
163.0007,-6.25769E-05
163.1008,-6.247048E-05
163.2008,-6.244882E-05
163.3008,-6.244976E-05
163.4008,-6.243752E-05
163.5008,-6.243376E-05
163.6008,-6.243846E-05
163.7008,-6.23829E-05
163.8008,-6.232169E-05
163.9008,-6.232734E-05
164.0008,-6.232639E-05
164.1008,-6.227931E-05
164.2008,-6.223882E-05
164.3008,-6.219832E-05
164.4008,-6.221716E-05
164.5008,-6.229626E-05
164.6008,-6.230003E-05
164.7009,-6.218325E-05
164.8009,-6.211074E-05
164.9009,-6.213617E-05
165.0009,-6.212675E-05
165.1009,-6.215312E-05
165.2009,-6.207213E-05
165.3009,-6.207213E-05
165.4009,-6.22341E-05
165.5009,-6.208532E-05
165.6009,-6.199302E-05
165.7009,-6.204293E-05
165.8009,-6.193746E-05
165.9009,-6.190639E-05
166.0009,-6.196948E-05
166.1009,-6.186118E-05
166.2009,-6.186683E-05
166.3009,-6.189791E-05
166.401,-6.182634E-05
166.501,-6.180468E-05
166.601,-6.183387E-05
166.701,-6.182634E-05
166.801,-6.180561E-05
166.901,-6.181881E-05
167.001,-6.180468E-05
167.101,-6.176795E-05
167.201,-6.178302E-05
167.301,-6.174912E-05
167.401,-6.179903E-05
167.501,-6.176512E-05
167.601,-6.176042E-05
167.701,-6.176136E-05
167.801,-6.171239E-05
167.901,-6.170768E-05
168.0011,-6.170391E-05
168.1011,-6.167095E-05
168.2011,-6.163988E-05
168.3011,-6.165118E-05
168.4011,-6.163988E-05
168.5011,-6.154664E-05
168.6011,-6.149391E-05
168.7011,-6.146283E-05
168.8011,-6.146188E-05
168.9011,-6.146942E-05
169.0011,-6.147695E-05
169.1011,-6.144965E-05
169.2011,-6.142328E-05
169.3011,-6.140632E-05
169.4011,-6.138184E-05
169.5011,-6.135077E-05
169.6012,-6.136866E-05
169.7012,-6.133004E-05
169.8012,-6.128108E-05
169.9012,-6.123116E-05
170.0012,-6.124623E-05
170.1012,-6.121045E-05
170.2012,-6.122175E-05
170.3012,-6.114641E-05
170.4012,-6.114452E-05
170.5012,-6.120668E-05
170.6012,-6.11982E-05
170.7012,-6.113604E-05
170.8012,-6.108331E-05
170.9012,-6.103434E-05
171.0012,-6.105506E-05
171.1012,-6.103716E-05
171.2012,-6.091192E-05
171.3013,-6.101268E-05
171.4013,-6.106824E-05
171.5013,-6.098537E-05
171.6013,-6.094488E-05
171.7013,-6.092228E-05
171.8013,-6.089779E-05
171.9013,-6.089308E-05
172.0013,-6.089308E-05
172.1013,-6.083469E-05
172.2013,-6.086389E-05
172.3013,-6.08573E-05
172.4013,-6.080644E-05
172.5013,-6.077442E-05
172.6013,-6.07829E-05
172.7013,-6.071886E-05
172.8013,-6.069249E-05
172.9014,-6.071509E-05
173.0014,-6.066895E-05
173.1014,-6.064729E-05
173.2014,-6.06972E-05
173.3014,-6.068119E-05
173.4014,-6.064447E-05
173.5014,-6.062657E-05
173.6014,-6.058796E-05
173.7014,-6.05776E-05
173.8014,-6.056159E-05
173.9014,-6.050038E-05
174.0014,-6.056536E-05
174.1014,-6.069343E-05
174.2014,-6.057478E-05
174.3014,-6.050038E-05
174.4014,-6.045235E-05
174.5014,-6.041091E-05
174.6015,-6.044011E-05
174.7015,-6.048908E-05
174.8015,-6.035065E-05
174.9015,-6.029226E-05
175.0015,-6.030733E-05
175.1015,-6.028472E-05
175.2015,-6.02753E-05
175.3015,-6.031203E-05
175.4015,-6.026871E-05
175.5015,-6.02819E-05
175.6015,-6.031015E-05
175.7015,-6.021127E-05
175.8015,-6.018113E-05
175.9015,-6.017736E-05
176.0015,-6.018396E-05
176.1015,-6.015665E-05
176.2016,-6.017736E-05
176.3016,-6.021127E-05
176.4016,-6.030167E-05
176.5016,-6.020844E-05
176.6016,-6.016135E-05
176.7016,-6.015476E-05
176.8016,-6.007377E-05
176.9016,-6.003611E-05
177.0016,-6.00314E-05
177.1016,-6.000503E-05
177.2016,-5.99796E-05
177.3016,-5.993628E-05
177.4016,-5.995324E-05
177.5016,-5.995512E-05
177.6016,-5.994287E-05
177.7016,-5.993628E-05
177.8017,-5.992875E-05
177.9017,-5.989202E-05
178.0017,-5.989767E-05
178.1017,-5.987978E-05
178.2017,-5.984117E-05
178.3017,-5.985341E-05
178.4017,-5.981197E-05
178.5017,-5.985906E-05
178.6017,-5.985718E-05
178.7017,-5.979408E-05
178.8017,-5.975547E-05
178.9017,-5.977054E-05
179.0017,-5.969802E-05
179.1017,-5.967731E-05
179.2017,-5.967542E-05
179.3017,-5.964058E-05
179.4017,-5.960102E-05
179.5018,-5.963022E-05
179.6018,-5.959349E-05
179.7018,-5.953134E-05
179.8018,-5.953981E-05
179.9018,-5.956618E-05
180.0018,-5.953417E-05
180.1018,-5.951251E-05
180.2018,-5.945882E-05
180.3018,-5.942398E-05
180.4018,-5.939761E-05
180.5018,-5.942398E-05
180.6018,-5.940703E-05
180.7018,-5.939196E-05
180.8018,-5.937972E-05
180.9018,-5.933828E-05
181.0018,-5.935712E-05
181.1019,-5.935335E-05
181.2019,-5.929873E-05
181.3019,-5.929308E-05
181.4019,-5.929497E-05
181.5019,-5.923846E-05
181.6019,-5.921774E-05
181.7019,-5.92281E-05
181.8019,-5.917913E-05
181.9019,-5.918102E-05
182.0019,-5.919325E-05
182.1019,-5.911886E-05
182.2019,-5.911038E-05
182.3019,-5.911133E-05
182.4019,-5.907648E-05
182.5019,-5.913864E-05
182.6019,-5.914805E-05
182.702,-5.910379E-05
182.802,-5.90407E-05
182.902,-5.898231E-05
183.002,-5.895594E-05
183.102,-5.892769E-05
183.202,-5.892204E-05
183.302,-5.889849E-05
183.402,-5.893334E-05
183.502,-5.891921E-05
183.602,-5.892298E-05
183.702,-5.903693E-05
183.802,-5.901245E-05
183.902,-5.891356E-05
184.002,-5.891545E-05
184.102,-5.889567E-05
184.202,-5.884387E-05
184.302,-5.888437E-05
184.4021,-5.889096E-05
184.5021,-5.891733E-05
184.6021,-5.89258E-05
184.7021,-5.88806E-05
184.8021,-5.884105E-05
184.9021,-5.885235E-05
185.0021,-5.885423E-05
185.1021,-5.883069E-05
185.2021,-5.886177E-05
185.3021,-5.8858E-05
185.4021,-5.885047E-05
185.5021,-5.883163E-05
185.6021,-5.87836E-05
185.7021,-5.878831E-05
185.8021,-5.881374E-05
185.9021,-5.876477E-05
186.0022,-5.870544E-05
186.1022,-5.867248E-05
186.2022,-5.865082E-05
186.3022,-5.866871E-05
186.4022,-5.866118E-05
186.5022,-5.856701E-05
186.6022,-5.855664E-05
186.7022,-5.853875E-05
186.8022,-5.861597E-05
186.9022,-5.863575E-05
187.0022,-5.866306E-05
187.1022,-5.853216E-05
187.2022,-5.849072E-05
187.3022,-5.848037E-05
187.4022,-5.843328E-05
187.5022,-5.839373E-05
187.6022,-5.837113E-05
187.7023,-5.836736E-05
187.8023,-5.842763E-05
187.9023,-5.842386E-05
188.0023,-5.841539E-05
188.1023,-5.835888E-05
188.2023,-5.829578E-05
188.3023,-5.830426E-05
188.4023,-5.829956E-05
188.5023,-5.829296E-05
188.6023,-5.827413E-05
188.7023,-5.827318E-05
188.8023,-5.825152E-05
188.9023,-5.822139E-05
189.0023,-5.822798E-05
189.1023,-5.823081E-05
189.2023,-5.821292E-05
189.3024,-5.830614E-05
189.4024,-5.829202E-05
189.5024,-5.825624E-05
189.6024,-5.81922E-05
189.7024,-5.811215E-05
189.8024,-5.80773E-05
189.9024,-5.808578E-05
190.0024,-5.80886E-05
190.1024,-5.802551E-05
190.2024,-5.803963E-05
190.3024,-5.800762E-05
190.4024,-5.799443E-05
190.5024,-5.800573E-05
190.6024,-5.795488E-05
190.7024,-5.79577E-05
190.8024,-5.794923E-05
190.9025,-5.791156E-05
191.0025,-5.788331E-05
191.1025,-5.792945E-05
191.2025,-5.793887E-05
191.3025,-5.790026E-05
191.4025,-5.796053E-05
191.5025,-5.794546E-05
191.6025,-5.780797E-05
191.7025,-5.780232E-05
191.8025,-5.775712E-05
191.9025,-5.772981E-05
192.0025,-5.779102E-05
192.1025,-5.769402E-05
192.2025,-5.763092E-05
192.3025,-5.764411E-05
192.4025,-5.763092E-05
192.5025,-5.766483E-05
192.6026,-5.764317E-05
192.7026,-5.760173E-05
192.8026,-5.75942E-05
192.9026,-5.759043E-05
193.0026,-5.760173E-05
193.1026,-5.758007E-05
193.2026,-5.75942E-05
193.3026,-5.754711E-05
193.4026,-5.753864E-05
193.5026,-5.755464E-05
193.6026,-5.753487E-05
193.7026,-5.747083E-05
193.8026,-5.74972E-05
193.9026,-5.746047E-05
194.0026,-5.742657E-05
194.1026,-5.742845E-05
194.2027,-5.740397E-05
194.3027,-5.739079E-05
194.4027,-5.741433E-05
194.5027,-5.739737E-05
194.6027,-5.736064E-05
194.7027,-5.740208E-05
194.8027,-5.737289E-05
194.9027,-5.729472E-05
195.0027,-5.728248E-05
195.1027,-5.726082E-05
195.2027,-5.724764E-05
195.3027,-5.725988E-05
195.4027,-5.716477E-05
195.5027,-5.715158E-05
195.6027,-5.720714E-05
195.7027,-5.716006E-05
195.8027,-5.718172E-05
195.9028,-5.722127E-05
196.0028,-5.721468E-05
196.1028,-5.715535E-05
196.2028,-5.711862E-05
196.3028,-5.709508E-05
196.4028,-5.704046E-05
196.5028,-5.703952E-05
196.6028,-5.703575E-05
196.7028,-5.703952E-05
196.8028,-5.702163E-05
196.9028,-5.703104E-05
197.0028,-5.70075E-05
197.1028,-5.698678E-05
197.2028,-5.696418E-05
197.3028,-5.692839E-05
197.4028,-5.696041E-05
197.5029,-5.694064E-05
197.6029,-5.693216E-05
197.7029,-5.692933E-05
197.8029,-5.690202E-05
197.9029,-5.686341E-05
198.0029,-5.68813E-05
198.1029,-5.686812E-05
198.2029,-5.683705E-05
198.3029,-5.684269E-05
198.4029,-5.68135E-05
198.5029,-5.681068E-05
198.6029,-5.678901E-05
198.7029,-5.678148E-05
198.8029,-5.67617E-05
198.9029,-5.673534E-05
199.0029,-5.669767E-05
199.103,-5.667506E-05
199.203,-5.665058E-05
199.303,-5.659502E-05
199.403,-5.661856E-05
199.503,-5.660914E-05
199.603,-5.662515E-05
199.703,-5.662515E-05
199.803,-5.656865E-05
199.903,-5.656112E-05
200.003,-5.654229E-05
200.103,-5.654793E-05
200.203,-5.652156E-05
200.303,-5.649708E-05
200.403,-5.646977E-05
200.503,-5.647918E-05
200.603,-5.644717E-05
200.703,-5.642551E-05
200.8031,-5.64208E-05
200.9031,-5.643492E-05
201.0031,-5.639725E-05
201.1031,-5.639255E-05
201.2031,-5.637183E-05
201.3031,-5.635205E-05
201.4031,-5.634358E-05
201.5031,-5.631815E-05
201.6031,-5.627201E-05
201.7031,-5.626729E-05
201.8031,-5.626918E-05
201.9031,-5.627483E-05
202.0031,-5.622398E-05
202.1031,-5.622115E-05
202.2031,-5.618913E-05
202.3031,-5.619667E-05
202.4032,-5.618537E-05
202.5032,-5.614205E-05
202.6032,-5.613074E-05
202.7032,-5.616747E-05
202.8032,-5.617784E-05
202.9032,-5.614958E-05
203.0032,-5.61298E-05
203.1032,-5.609496E-05
203.2032,-5.606953E-05
203.3032,-5.607424E-05
203.4032,-5.602527E-05
203.5032,-5.599702E-05
203.6032,-5.598854E-05
203.7032,-5.593487E-05
203.8032,-5.589908E-05
203.9032,-5.593016E-05
204.0033,-5.590284E-05
204.1033,-5.588401E-05
204.2033,-5.587177E-05
204.3033,-5.585859E-05
204.4033,-5.58454E-05
204.5033,-5.586706E-05
204.6033,-5.581621E-05
204.7033,-5.587177E-05
204.8033,-5.590096E-05
204.9033,-5.587648E-05
205.0033,-5.582186E-05
205.1033,-5.578325E-05
205.2033,-5.575029E-05
205.3033,-5.572674E-05
205.4033,-5.573993E-05
205.5033,-5.569284E-05
205.6033,-5.568342E-05
205.7034,-5.569378E-05
205.8034,-5.562786E-05
205.9034,-5.558266E-05
206.0034,-5.561562E-05
206.1034,-5.561844E-05
206.2034,-5.559396E-05
206.3034,-5.560714E-05
206.4034,-5.558454E-05
206.5034,-5.555818E-05
206.6034,-5.556006E-05
206.7034,-5.550072E-05
206.8034,-5.547624E-05
206.9034,-5.551674E-05
207.0034,-5.551297E-05
207.1034,-5.551768E-05
207.2034,-5.555535E-05
207.3035,-5.55092E-05
207.4035,-5.546494E-05
207.5035,-5.550072E-05
207.6035,-5.54414E-05
207.7035,-5.539149E-05
207.8035,-5.539337E-05
207.9035,-5.537453E-05
208.0035,-5.539431E-05
208.1035,-5.538678E-05
208.2035,-5.531144E-05
208.3035,-5.529637E-05
208.4035,-5.534911E-05
208.5035,-5.534252E-05
208.6035,-5.528319E-05
208.7035,-5.530014E-05
208.8035,-5.529449E-05
208.9035,-5.527565E-05
209.0036,-5.529166E-05
209.1036,-5.524175E-05
209.2036,-5.527E-05
209.3036,-5.529261E-05
209.4036,-5.517206E-05
209.5036,-5.525682E-05
209.6036,-5.527942E-05
209.7036,-5.527848E-05
209.8036,-5.520596E-05
209.9036,-5.516265E-05
210.0036,-5.51504E-05
210.1036,-5.509484E-05
210.2036,-5.508166E-05
210.3036,-5.507412E-05
210.4036,-5.506753E-05
210.5036,-5.504493E-05
210.6037,-5.502798E-05
210.7037,-5.505717E-05
210.8037,-5.507695E-05
210.9037,-5.501197E-05
211.0037,-5.507224E-05
211.1037,-5.512968E-05
211.2037,-5.502045E-05
211.3037,-5.498842E-05
211.4037,-5.499125E-05
211.5037,-5.498277E-05
211.6037,-5.4963E-05
211.7037,-5.494511E-05
211.8037,-5.493663E-05
211.9037,-5.489991E-05
212.0037,-5.487259E-05
212.1037,-5.482834E-05
212.2038,-5.484246E-05
212.3038,-5.483398E-05
212.4038,-5.481138E-05
212.5038,-5.477559E-05
212.6038,-5.476994E-05
212.7038,-5.475488E-05
212.8038,-5.473322E-05
212.9038,-5.470967E-05
213.0038,-5.469837E-05
213.1038,-5.470308E-05
213.2038,-5.469743E-05
213.3038,-5.467483E-05
213.4038,-5.474169E-05
213.5038,-5.46607E-05
213.6038,-5.46381E-05
213.7038,-5.464375E-05
213.8038,-5.459666E-05
213.9039,-5.45524E-05
214.0039,-5.455429E-05
214.1039,-5.454393E-05
214.2039,-5.45072E-05
214.3039,-5.452133E-05
214.4039,-5.451285E-05
214.5039,-5.452039E-05
214.6039,-5.448083E-05
214.7039,-5.443657E-05
214.8039,-5.442715E-05
214.9039,-5.443092E-05
215.0039,-5.44281E-05
215.1039,-5.439514E-05
215.2039,-5.438666E-05
215.3039,-5.437065E-05
215.4039,-5.44328E-05
215.504,-5.444222E-05
215.604,-5.443092E-05
215.704,-5.433298E-05
215.804,-5.434334E-05
215.904,-5.43245E-05
216.004,-5.424163E-05
216.104,-5.424163E-05
216.204,-5.424917E-05
216.304,-5.420585E-05
216.404,-5.421526E-05
216.504,-5.418042E-05
216.604,-5.4171E-05
216.704,-5.417948E-05
216.804,-5.414181E-05
216.904,-5.409943E-05
217.004,-5.413993E-05
217.104,-5.41371E-05
217.2041,-5.411921E-05
217.3041,-5.411168E-05
217.4041,-5.408342E-05
217.5041,-5.404293E-05
217.6041,-5.411356E-05
217.7041,-5.408153E-05
217.8041,-5.40627E-05
217.9041,-5.406365E-05
218.0041,-5.404858E-05
218.1041,-5.403539E-05
218.2041,-5.40514E-05
218.3041,-5.400808E-05
218.4041,-5.399866E-05
218.5041,-5.400808E-05
218.6041,-5.401279E-05
218.7041,-5.397795E-05
218.8042,-5.3961E-05
218.9042,-5.393275E-05
219.0042,-5.391485E-05
219.1042,-5.393086E-05
219.2042,-5.389413E-05
219.3042,-5.388284E-05
219.4042,-5.389507E-05
219.5042,-5.386023E-05
219.6042,-5.382445E-05
219.7042,-5.383386E-05
219.8042,-5.383386E-05
219.9042,-5.380184E-05
220.0042,-5.381126E-05
220.1042,-5.376229E-05
220.2042,-5.37218E-05
220.3042,-5.373969E-05
220.4043,-5.369919E-05
220.5043,-5.373215E-05
220.6043,-5.371709E-05
220.7043,-5.365682E-05
220.8043,-5.367565E-05
220.9043,-5.368413E-05
221.0043,-5.367848E-05
221.1043,-5.364363E-05
221.2043,-5.362762E-05
221.3043,-5.360219E-05
221.4043,-5.361538E-05
221.5043,-5.359654E-05
221.6043,-5.355982E-05
221.7043,-5.356453E-05
221.8043,-5.357206E-05
221.9043,-5.354758E-05
222.0043,-5.351462E-05
222.1044,-5.348825E-05
222.2044,-5.349861E-05
222.3044,-5.349767E-05
222.4044,-5.349201E-05
222.5044,-5.34534E-05
222.6044,-5.342986E-05
222.7044,-5.34082E-05
222.8044,-5.338748E-05
222.9044,-5.340726E-05
223.0044,-5.337995E-05
223.1044,-5.336582E-05
223.2044,-5.335452E-05
223.3044,-5.331026E-05
223.4044,-5.327918E-05
223.5044,-5.330838E-05
223.6044,-5.331309E-05
223.7045,-5.326882E-05
223.8045,-5.327071E-05
223.9045,-5.326977E-05
224.0045,-5.324152E-05
224.1045,-5.324905E-05
224.2045,-5.320949E-05
224.3045,-5.320385E-05
224.4045,-5.323775E-05
224.5045,-5.327165E-05
224.6045,-5.318878E-05
224.7045,-5.318501E-05
224.8045,-5.318407E-05
224.9045,-5.317842E-05
225.0045,-5.321892E-05
225.1045,-5.313133E-05
225.2045,-5.306918E-05
225.3046,-5.311344E-05
225.4046,-5.308424E-05
225.5046,-5.304752E-05
225.6046,-5.304469E-05
225.7046,-5.302586E-05
225.8046,-5.308236E-05
225.9046,-5.312285E-05
226.0046,-5.310025E-05
226.1046,-5.304469E-05
226.2046,-5.305787E-05
226.3046,-5.301927E-05
226.4046,-5.29929E-05
226.5046,-5.296088E-05
226.6046,-5.292132E-05
226.7046,-5.292415E-05
226.8046,-5.293357E-05
226.9046,-5.29185E-05
227.0047,-5.290532E-05
227.1047,-5.286953E-05
227.2047,-5.288742E-05
227.3047,-5.285446E-05
227.4047,-5.28959E-05
227.5047,-5.293545E-05
227.6047,-5.286105E-05
227.7047,-5.2862E-05
227.8047,-5.281868E-05
227.9047,-5.281679E-05
228.0047,-5.282056E-05
228.1047,-5.279325E-05
228.2047,-5.276123E-05
228.3047,-5.279231E-05
228.4047,-5.278383E-05
228.5047,-5.278854E-05
228.6048,-5.27876E-05
228.7048,-5.273863E-05
228.8048,-5.273109E-05
228.9048,-5.275087E-05
229.0048,-5.279325E-05
229.1048,-5.278383E-05
229.2048,-5.274993E-05
229.3048,-5.271603E-05
229.4048,-5.271603E-05
229.5048,-5.272262E-05
229.6048,-5.27019E-05
229.7048,-5.269908E-05
229.8048,-5.270096E-05
229.9048,-5.268589E-05
230.0048,-5.271132E-05
230.1048,-5.266517E-05
230.2048,-5.261997E-05
230.3049,-5.264069E-05
230.4049,-5.264822E-05
230.5049,-5.259548E-05
230.6049,-5.257853E-05
230.7049,-5.257947E-05
230.8049,-5.260961E-05
230.9049,-5.260208E-05
231.0049,-5.260396E-05
231.1049,-5.258701E-05
231.2049,-5.253051E-05
231.3049,-5.251638E-05
231.4049,-5.248153E-05
231.5049,-5.248342E-05
231.6049,-5.249189E-05
231.7049,-5.247212E-05
231.8049,-5.245234E-05
231.905,-5.239678E-05
232.005,-5.238171E-05
232.105,-5.242409E-05
232.205,-5.238642E-05
232.305,-5.235252E-05
232.405,-5.239867E-05
232.505,-5.23544E-05
232.605,-5.232521E-05
232.705,-5.233839E-05
232.805,-5.234687E-05
232.905,-5.230638E-05
233.005,-5.23431E-05
233.105,-5.228377E-05
233.205,-5.227718E-05
233.305,-5.228377E-05
233.405,-5.229884E-05
233.5051,-5.227907E-05
233.6051,-5.229507E-05
233.7051,-5.225458E-05
233.8051,-5.224328E-05
233.9051,-5.222444E-05
234.0051,-5.219525E-05
234.1051,-5.219337E-05
234.2051,-5.224328E-05
234.3051,-5.220655E-05
234.4051,-5.215758E-05
234.5051,-5.213969E-05
234.6051,-5.214534E-05
234.7051,-5.210955E-05
234.8051,-5.210108E-05
234.9051,-5.207659E-05
235.0051,-5.213404E-05
235.1051,-5.216323E-05
235.2052,-5.219055E-05
235.3052,-5.210673E-05
235.4052,-5.20587E-05
235.5052,-5.202762E-05
235.6052,-5.200785E-05
235.7052,-5.196924E-05
235.8052,-5.201444E-05
235.9052,-5.196076E-05
236.0052,-5.193439E-05
236.1052,-5.191085E-05
236.2052,-5.192686E-05
236.3052,-5.195323E-05
236.4052,-5.198807E-05
236.5052,-5.199843E-05
236.6052,-5.198524E-05
236.7052,-5.19956E-05
236.8053,-5.194851E-05
236.9053,-5.195228E-05
237.0053,-5.192874E-05
237.1053,-5.191932E-05
237.2053,-5.195981E-05
237.3053,-5.192874E-05
237.4053,-5.187694E-05
237.5053,-5.187129E-05
237.6053,-5.187035E-05
237.7053,-5.184587E-05
237.8053,-5.186941E-05
237.9053,-5.185999E-05
238.0053,-5.187224E-05
238.1053,-5.186376E-05
238.2053,-5.186376E-05
238.3053,-5.18421E-05
238.4053,-5.184304E-05
238.5054,-5.183833E-05
238.6054,-5.191179E-05
238.7054,-5.190143E-05
238.8054,-5.18647E-05
238.9054,-5.185623E-05
239.0054,-5.182986E-05
239.1054,-5.180726E-05
239.2054,-5.180161E-05
239.3054,-5.180631E-05
239.4054,-5.181856E-05
239.5054,-5.177053E-05
239.6054,-5.177241E-05
239.7054,-5.174322E-05
239.8054,-5.175169E-05
239.9054,-5.178371E-05
240.0054,-5.178183E-05
240.1055,-5.174699E-05
240.2055,-5.175735E-05
240.3055,-5.176205E-05
240.4055,-5.174134E-05
240.5055,-5.172533E-05
240.6055,-5.173286E-05
240.7055,-5.171685E-05
240.8055,-5.173097E-05
240.9055,-5.17338E-05
241.0055,-5.167918E-05
241.1055,-5.170084E-05
241.2055,-5.168671E-05
241.3055,-5.165846E-05
241.4055,-5.16434E-05
241.5055,-5.163868E-05
241.6055,-5.163304E-05
241.7056,-5.165564E-05
241.8056,-5.162645E-05
241.9056,-5.160761E-05
242.0056,-5.160385E-05
242.1056,-5.160196E-05
242.2056,-5.160573E-05
242.3056,-5.159348E-05
242.4056,-5.157277E-05
242.5056,-5.153698E-05
242.6056,-5.152191E-05
242.7056,-5.151909E-05
242.8056,-5.152097E-05
242.9056,-5.153039E-05
243.0056,-5.147577E-05
243.1056,-5.154451E-05
243.2056,-5.152945E-05
243.3056,-5.151343E-05
243.4057,-5.147012E-05
243.5057,-5.1472E-05
243.6057,-5.144563E-05
243.7057,-5.142115E-05
243.8057,-5.145882E-05
243.9057,-5.142962E-05
244.0057,-5.139195E-05
244.1057,-5.139572E-05
244.2057,-5.134486E-05
244.3057,-5.132415E-05
244.4057,-5.132603E-05
244.5057,-5.13185E-05
244.6057,-5.131097E-05
244.7057,-5.130814E-05
244.8057,-5.124975E-05
244.9057,-5.125163E-05
245.0058,-5.124033E-05
245.1058,-5.12667E-05
245.2058,-5.127235E-05
245.3058,-5.127329E-05
245.4058,-5.11989E-05
245.5058,-5.122621E-05
245.6058,-5.122527E-05
245.7058,-5.120643E-05
245.8058,-5.124316E-05
245.9058,-5.125258E-05
246.0058,-5.12394E-05
246.1058,-5.120643E-05
246.2058,-5.116876E-05
246.3058,-5.114899E-05
246.4058,-5.113957E-05
246.5058,-5.117441E-05
246.6059,-5.10906E-05
246.7059,-5.109248E-05
246.8059,-5.109343E-05
246.9059,-5.108871E-05
247.0059,-5.110284E-05
247.1059,-5.104351E-05
247.2059,-5.103975E-05
247.3059,-5.105764E-05
247.4059,-5.101338E-05
247.5059,-5.100584E-05
247.6059,-5.100301E-05
247.7059,-5.103127E-05
247.8059,-5.100396E-05
247.9059,-5.100019E-05
248.0059,-5.094934E-05
248.1059,-5.095687E-05
248.2059,-5.097759E-05
248.306,-5.099078E-05
248.406,-5.095782E-05
248.506,-5.093804E-05
248.606,-5.090319E-05
248.706,-5.088436E-05
248.806,-5.090978E-05
248.906,-5.089284E-05
249.006,-5.087118E-05
249.106,-5.085517E-05
249.206,-5.082597E-05
249.306,-5.080432E-05
249.406,-5.083539E-05
249.506,-5.08222E-05
249.606,-5.07996E-05
249.706,-5.079301E-05
249.806,-5.075534E-05
249.9061,-5.076947E-05
250.0061,-5.08222E-05
250.1061,-5.074216E-05
250.2061,-5.081655E-05
250.3061,-5.085799E-05
250.4061,-5.08175E-05
250.5061,-5.071768E-05
250.6061,-5.071296E-05
250.7061,-5.071768E-05
250.8061,-5.069131E-05
250.9061,-5.06866E-05
251.0061,-5.068848E-05
251.1061,-5.064987E-05
251.2061,-5.066965E-05
251.3061,-5.066588E-05
251.4061,-5.063386E-05
251.5061,-5.062162E-05
251.6062,-5.061691E-05
251.7062,-5.063762E-05
251.8062,-5.061879E-05
251.9062,-5.056417E-05
252.0062,-5.061314E-05
252.1062,-5.06122E-05
252.2062,-5.067153E-05
252.3062,-5.062068E-05
252.4062,-5.060561E-05
252.5062,-5.062256E-05
252.6062,-5.06009E-05
252.7062,-5.058677E-05
252.8062,-5.052367E-05
252.9062,-5.053874E-05
253.0062,-5.054345E-05
253.1062,-5.049542E-05
253.2063,-5.046529E-05
253.3063,-5.047E-05
253.4063,-5.047471E-05
253.5063,-5.044175E-05
253.6063,-5.043798E-05
253.7063,-5.04295E-05
253.8063,-5.04361E-05
253.9063,-5.046341E-05
254.0063,-5.043421E-05
254.1063,-5.040314E-05
254.2063,-5.037206E-05
254.3063,-5.036547E-05
254.4063,-5.035228E-05
254.5063,-5.03504E-05
254.6063,-5.035134E-05
254.7063,-5.031555E-05
254.8064,-5.032309E-05
254.9064,-5.029201E-05
255.0064,-5.029107E-05
255.1064,-5.02873E-05
255.2064,-5.029955E-05
255.3064,-5.027977E-05
255.4064,-5.026282E-05
255.5064,-5.022609E-05
255.6064,-5.024398E-05
255.7064,-5.02534E-05
255.8064,-5.022138E-05
255.9064,-5.022891E-05
256.0064,-5.022232E-05
256.1064,-5.031838E-05
256.2064,-5.032121E-05
256.3064,-5.027883E-05
256.4064,-5.022327E-05
256.5064,-5.022515E-05
256.6064,-5.020819E-05
256.7065,-5.016393E-05
256.8065,-5.013662E-05
256.9065,-5.013851E-05
257.0065,-5.013286E-05
257.1065,-5.016017E-05
257.2065,-5.010649E-05
257.3065,-5.007353E-05
257.4065,-5.006788E-05
257.5065,-5.006505E-05
257.6065,-5.008483E-05
257.7065,-5.005564E-05
257.8065,-5.004622E-05
257.9065,-5.00434E-05
258.0065,-5.00547E-05
258.1065,-5.002927E-05
258.2065,-5.004905E-05
258.3065,-5.006788E-05
258.4066,-5.003774E-05
258.5066,-4.998783E-05
258.6066,-4.995393E-05
258.7066,-4.997276E-05
258.8066,-4.998407E-05
258.9066,-4.998407E-05
259.0066,-4.992191E-05
259.1066,-4.98946E-05
259.2066,-4.990213E-05
259.3066,-4.987388E-05
259.4066,-4.987105E-05
259.5066,-4.987388E-05
259.6066,-4.985882E-05
259.7066,-4.985222E-05
259.8066,-4.984657E-05
259.9066,-4.984657E-05
260.0067,-4.984657E-05
260.1067,-4.983245E-05
260.2067,-4.981267E-05
260.3067,-4.982774E-05
260.4067,-4.984375E-05
260.5067,-4.976652E-05
260.6067,-4.976652E-05
260.7067,-4.978818E-05
260.8067,-4.979572E-05
260.9067,-4.982491E-05
261.0067,-4.979666E-05
261.1067,-4.977971E-05
261.2067,-4.977217E-05
261.3067,-4.977406E-05
261.4067,-4.974863E-05
261.5067,-4.975993E-05
261.6068,-4.973451E-05
261.7068,-4.974298E-05
261.8068,-4.974298E-05
261.9068,-4.971756E-05
262.0068,-4.968742E-05
262.1068,-4.972226E-05
262.2068,-4.97006E-05
262.3068,-4.966482E-05
262.4068,-4.964598E-05
262.5068,-4.965823E-05
262.6068,-4.968648E-05
262.7068,-4.973545E-05
262.8068,-4.970343E-05
262.9068,-4.970908E-05
263.0068,-4.967047E-05
263.1068,-4.961585E-05
263.2068,-4.963563E-05
263.3069,-4.964221E-05
263.4069,-4.964693E-05
263.5069,-4.958759E-05
263.6069,-4.958854E-05
263.7069,-4.957347E-05
263.8069,-4.95537E-05
263.9069,-4.957912E-05
264.0069,-4.957724E-05
264.1069,-4.952921E-05
264.2069,-4.954333E-05
264.3069,-4.957441E-05
264.4069,-4.955275E-05
264.5069,-4.955558E-05
264.6069,-4.953863E-05
264.7069,-4.964881E-05
264.8069,-4.966106E-05
264.907,-4.961962E-05
265.007,-4.955464E-05
265.107,-4.959984E-05
265.207,-4.959325E-05
265.307,-4.952544E-05
265.407,-4.957064E-05
265.507,-4.9581E-05
265.607,-4.953298E-05
265.707,-4.951132E-05
265.807,-4.950378E-05
265.907,-4.948777E-05
266.007,-4.949248E-05
266.107,-4.945575E-05
266.207,-4.954333E-05
266.307,-4.960078E-05
266.407,-4.961397E-05
266.507,-4.956405E-05
266.6071,-4.950943E-05
266.7071,-4.948306E-05
266.8071,-4.943692E-05
266.9071,-4.947176E-05
267.0071,-4.944069E-05
267.1071,-4.943597E-05
267.2071,-4.947553E-05
267.3071,-4.944728E-05
267.4071,-4.94162E-05
267.5071,-4.943221E-05
267.6071,-4.944634E-05
267.7071,-4.939925E-05
267.8071,-4.94275E-05
267.9071,-4.942656E-05
268.0071,-4.938795E-05
268.1071,-4.940208E-05
268.2072,-4.936346E-05
268.3072,-4.941997E-05
268.4072,-4.938418E-05
268.5072,-4.937194E-05
268.6072,-4.938418E-05
268.7072,-4.943504E-05
268.8072,-4.941714E-05
268.9072,-4.938136E-05
269.0072,-4.936818E-05
269.1072,-4.935499E-05
269.2072,-4.933709E-05
269.3072,-4.935216E-05
269.4072,-4.930414E-05
269.5072,-4.930602E-05
269.6072,-4.93258E-05
269.7072,-4.930225E-05
269.8073,-4.930602E-05
269.9073,-4.926082E-05
270.0073,-4.925987E-05
270.1073,-4.928812E-05
270.2073,-4.928812E-05
270.3073,-4.923445E-05
270.4073,-4.924292E-05
270.5073,-4.92514E-05
270.6073,-4.929001E-05
270.7073,-4.934557E-05
270.8073,-4.933615E-05
270.9073,-4.932203E-05
271.0073,-4.931826E-05
271.1073,-4.926741E-05
271.2073,-4.927588E-05
271.3073,-4.929377E-05
271.4073,-4.926082E-05
271.5074,-4.924669E-05
271.6074,-4.924386E-05
271.7074,-4.922314E-05
271.8074,-4.919678E-05
271.9074,-4.923351E-05
272.0074,-4.919395E-05
272.1074,-4.916194E-05
272.2074,-4.917417E-05
272.3074,-4.917512E-05
272.4074,-4.91431E-05
272.5074,-4.912991E-05
272.6074,-4.91205E-05
272.7074,-4.914027E-05
272.8074,-4.914875E-05
272.9074,-4.913744E-05
273.0074,-4.909036E-05
273.1075,-4.909695E-05
273.2075,-4.910731E-05
273.3075,-4.908565E-05
273.4075,-4.908942E-05
273.5075,-4.908189E-05
273.6075,-4.904516E-05
273.7075,-4.903292E-05
273.8075,-4.90574E-05
273.9075,-4.903386E-05
274.0075,-4.909601E-05
274.1075,-4.902727E-05
274.2075,-4.902821E-05
274.3075,-4.904516E-05
274.4075,-4.897641E-05
274.5075,-4.894251E-05
274.6075,-4.894628E-05
274.7076,-4.901785E-05
274.8076,-4.896605E-05
274.9076,-4.894816E-05
275.0076,-4.892556E-05
275.1076,-4.889919E-05
275.2076,-4.892838E-05
275.3076,-4.888412E-05
275.4076,-4.885116E-05
275.5076,-4.884928E-05
275.6076,-4.881349E-05
275.7076,-4.884646E-05
275.8076,-4.884646E-05
275.9076,-4.883798E-05
276.0076,-4.881726E-05
276.1076,-4.880972E-05
276.2076,-4.881726E-05
276.3076,-4.882762E-05
276.4077,-4.880125E-05
276.5077,-4.878148E-05
276.6077,-4.877394E-05
276.7077,-4.875887E-05
276.8077,-4.873627E-05
276.9077,-4.874286E-05
277.0077,-4.877771E-05
277.1077,-4.882574E-05
277.2077,-4.875134E-05
277.3077,-4.870802E-05
277.4077,-4.868071E-05
277.5077,-4.865999E-05
277.6077,-4.868448E-05
277.7077,-4.86355E-05
277.8077,-4.863456E-05
277.9077,-4.862044E-05
278.0078,-4.861196E-05
278.1078,-4.861008E-05
278.2078,-4.859878E-05
278.3078,-4.85564E-05
278.4078,-4.858277E-05
278.5078,-4.860254E-05
278.6078,-4.856581E-05
278.7078,-4.857335E-05
278.8078,-4.856959E-05
278.9078,-4.856393E-05
279.0078,-4.853757E-05
279.1078,-4.855263E-05
279.2078,-4.858277E-05
279.3078,-4.858748E-05
279.4078,-4.855828E-05
279.5078,-4.855263E-05
279.6078,-4.854792E-05
279.7079,-4.852155E-05
279.8079,-4.84886E-05
279.9079,-4.849236E-05
280.0079,-4.846882E-05
280.1079,-4.84481E-05
280.2079,-4.847353E-05
280.3079,-4.844151E-05
280.4079,-4.840667E-05
280.5079,-4.841985E-05
280.6079,-4.84142E-05
280.7079,-4.841985E-05
280.8079,-4.840572E-05
280.9079,-4.838595E-05
281.0079,-4.839066E-05
281.1079,-4.838312E-05
281.2079,-4.837088E-05
281.308,-4.833792E-05
281.408,-4.83511E-05
281.508,-4.838972E-05
281.608,-4.834169E-05
281.708,-4.834734E-05
281.808,-4.838783E-05
281.908,-4.837088E-05
282.008,-4.834828E-05
282.108,-4.833415E-05
282.208,-4.828613E-05
282.308,-4.833698E-05
282.408,-4.832097E-05
282.508,-4.827671E-05
282.608,-4.829083E-05
282.708,-4.830872E-05
282.808,-4.834828E-05
282.9081,-4.83285E-05
283.0081,-4.832379E-05
283.1081,-4.837182E-05
283.2081,-4.83172E-05
283.3081,-4.829931E-05
283.4081,-4.831626E-05
283.5081,-4.828518E-05
283.6081,-4.824752E-05
283.7081,-4.821079E-05
283.8081,-4.822867E-05
283.9081,-4.821926E-05
284.0081,-4.819289E-05
284.1081,-4.815805E-05
284.2081,-4.817311E-05
284.3081,-4.81524E-05
284.4081,-4.819572E-05
284.5081,-4.814863E-05
284.6082,-4.812885E-05
284.7082,-4.814392E-05
284.8082,-4.813921E-05
284.9082,-4.807988E-05
285.0082,-4.810625E-05
285.1082,-4.80893E-05
285.2082,-4.809119E-05
285.3082,-4.807612E-05
285.4082,-4.808647E-05
285.5082,-4.804127E-05
285.6082,-4.802621E-05
285.7082,-4.803656E-05
285.8082,-4.803374E-05
285.9082,-4.801208E-05
286.0082,-4.801868E-05
286.1082,-4.79697E-05
286.2083,-4.797724E-05
286.3083,-4.796499E-05
286.4083,-4.792638E-05
286.5083,-4.793957E-05
286.6083,-4.789625E-05
286.7083,-4.788306E-05
286.8083,-4.791508E-05
286.9083,-4.789248E-05
287.0083,-4.788024E-05
287.1083,-4.786234E-05
287.2083,-4.783409E-05
287.3083,-4.780678E-05
287.4083,-4.783409E-05
287.5083,-4.779549E-05
287.6083,-4.778606E-05
287.7083,-4.777947E-05
287.8083,-4.777382E-05
287.9084,-4.77484E-05
288.0084,-4.773992E-05
288.1084,-4.775781E-05
288.2084,-4.776911E-05
288.3084,-4.773898E-05
288.4084,-4.771355E-05
288.5084,-4.769942E-05
288.6084,-4.767964E-05
288.7084,-4.765516E-05
288.8084,-4.768718E-05
288.9084,-4.765045E-05
289.0084,-4.761467E-05
289.1084,-4.766552E-05
289.2084,-4.763539E-05
289.3084,-4.763821E-05
289.4084,-4.759301E-05
289.5085,-4.755063E-05
289.6085,-4.757512E-05
289.7085,-4.757135E-05
289.8085,-4.754969E-05
289.9085,-4.751391E-05
290.0085,-4.751296E-05
290.1085,-4.751014E-05
290.2085,-4.746211E-05
290.3085,-4.746493E-05
290.4085,-4.743762E-05
290.5085,-4.739242E-05
290.6085,-4.741314E-05
290.7085,-4.743103E-05
290.8085,-4.737924E-05
290.9085,-4.737547E-05
291.0085,-4.736888E-05
291.1086,-4.733403E-05
291.2086,-4.737453E-05
291.3086,-4.736323E-05
291.4086,-4.731614E-05
291.5086,-4.73086E-05
291.6086,-4.730672E-05
291.7086,-4.740655E-05
291.8086,-4.742632E-05
291.9086,-4.733968E-05
292.0086,-4.73265E-05
292.1086,-4.736229E-05
292.2086,-4.730202E-05
292.3086,-4.726717E-05
292.4086,-4.729165E-05
292.5086,-4.726623E-05
292.6086,-4.725399E-05
292.7086,-4.722385E-05
292.8087,-4.722668E-05
292.9087,-4.719466E-05
293.0087,-4.718336E-05
293.1087,-4.717677E-05
293.2087,-4.718995E-05
293.3087,-4.724928E-05
293.4087,-4.722856E-05
293.5087,-4.71843E-05
293.6087,-4.717677E-05
293.7087,-4.715981E-05
293.8087,-4.710425E-05
293.9087,-4.71325E-05
294.0087,-4.711649E-05
294.1087,-4.70534E-05
294.2087,-4.710237E-05
294.3087,-4.708918E-05
294.4088,-4.705246E-05
294.5088,-4.709483E-05
294.6088,-4.704492E-05
294.7088,-4.698653E-05
294.8088,-4.701572E-05
294.9088,-4.698936E-05
295.0088,-4.696393E-05
295.1088,-4.695452E-05
295.2088,-4.696864E-05
295.3088,-4.696582E-05
295.4088,-4.698465E-05
295.5088,-4.692815E-05
295.6088,-4.692249E-05
295.7088,-4.693097E-05
295.8088,-4.691967E-05
295.9088,-4.690272E-05
296.0089,-4.690554E-05
296.1089,-4.689142E-05
296.2089,-4.690084E-05
296.3089,-4.68886E-05
296.4089,-4.687447E-05
296.5089,-4.689707E-05
296.6089,-4.689424E-05
296.7089,-4.685846E-05
296.8089,-4.686222E-05
296.9089,-4.68594E-05
297.0089,-4.683586E-05
297.1089,-4.681326E-05
297.2089,-4.681891E-05
297.3089,-4.680101E-05
297.4089,-4.67737E-05
297.5089,-4.678877E-05
297.6089,-4.675864E-05
297.709,-4.67511E-05
297.809,-4.674922E-05
297.909,-4.673133E-05
298.009,-4.675864E-05
298.109,-4.676522E-05
298.209,-4.676334E-05
298.309,-4.67285E-05
298.409,-4.67172E-05
298.509,-4.668989E-05
298.609,-4.670213E-05
298.709,-4.669271E-05
298.809,-4.66428E-05
298.909,-4.667294E-05
299.009,-4.671343E-05
299.109,-4.671437E-05
299.209,-4.668612E-05
299.3091,-4.66541E-05
299.4091,-4.663056E-05
299.5091,-4.659854E-05
299.6091,-4.663056E-05
299.7091,-4.659289E-05
299.8091,-4.658724E-05
299.9091,-4.660796E-05
300.0091,-4.657311E-05
300.1091,-4.656746E-05
300.2091,-4.655805E-05
300.3091,-4.654015E-05
300.4091,-4.655334E-05
300.5091,-4.649966E-05
300.6091,-4.652697E-05
300.7091,-4.65524E-05
300.8091,-4.653921E-05
300.9091,-4.651284E-05
301.0092,-4.650531E-05
301.1092,-4.65006E-05
301.2092,-4.64893E-05
301.3092,-4.645822E-05
301.4092,-4.647141E-05
301.5092,-4.645446E-05
301.6092,-4.644504E-05
301.7092,-4.644598E-05
301.8092,-4.642526E-05
301.9092,-4.640455E-05
302.0092,-4.638006E-05
302.1092,-4.642432E-05
302.2092,-4.642432E-05
302.3092,-4.641584E-05
302.4092,-4.64102E-05
302.5092,-4.640078E-05
302.6093,-4.639701E-05
302.7093,-4.634051E-05
302.8093,-4.634333E-05
302.9093,-4.63763E-05
303.0093,-4.636499E-05
303.1093,-4.644409E-05
303.2093,-4.646293E-05
303.3093,-4.644033E-05
303.4093,-4.643186E-05
303.5093,-4.644409E-05
303.6093,-4.637818E-05
303.7093,-4.63584E-05
303.8093,-4.638571E-05
303.9093,-4.636499E-05
304.0093,-4.632544E-05
304.1093,-4.63518E-05
304.2094,-4.632167E-05
304.3094,-4.630943E-05
304.4094,-4.631791E-05
304.5094,-4.628777E-05
304.6094,-4.630661E-05
304.7094,-4.632638E-05
304.8094,-4.628683E-05
304.9094,-4.631319E-05
305.0094,-4.630754E-05
305.1094,-4.633957E-05
305.2094,-4.629436E-05
305.3094,-4.628306E-05
305.4094,-4.626705E-05
305.5094,-4.628023E-05
305.6094,-4.63358E-05
305.7094,-4.624068E-05
305.8094,-4.634427E-05
305.9095,-4.64102E-05
306.0095,-4.642056E-05
306.1095,-4.631979E-05
306.2095,-4.634898E-05
306.3095,-4.633674E-05
306.4095,-4.629625E-05
306.5095,-4.633674E-05
306.6095,-4.633014E-05
306.7095,-4.629059E-05
306.8095,-4.631884E-05
306.9095,-4.626893E-05
307.0095,-4.629531E-05
307.1095,-4.633486E-05
307.2095,-4.633957E-05
307.3095,-4.627553E-05
307.4095,-4.6268E-05
307.5096,-4.627553E-05
307.6096,-4.624162E-05
307.7096,-4.624351E-05
307.8096,-4.623315E-05
307.9096,-4.627364E-05
308.0096,-4.632261E-05
308.1096,-4.627835E-05
308.2096,-4.625952E-05
308.3096,-4.632073E-05
308.4096,-4.63245E-05
308.5096,-4.625198E-05
308.6096,-4.626423E-05
308.7096,-4.627082E-05
308.8096,-4.62501E-05
308.9096,-4.628212E-05
309.0096,-4.622185E-05
309.1096,-4.620961E-05
309.2097,-4.626423E-05
309.3097,-4.621149E-05
309.4097,-4.630095E-05
309.5097,-4.631037E-05
309.6097,-4.628965E-05
309.7097,-4.623503E-05
309.8097,-4.627741E-05
309.9097,-4.626046E-05
310.0097,-4.625104E-05
310.1097,-4.624445E-05
310.2097,-4.621808E-05
310.3097,-4.622279E-05
310.4097,-4.628588E-05
310.5097,-4.622938E-05
310.6097,-4.625198E-05
310.7097,-4.628588E-05
310.8098,-4.626517E-05
310.9098,-4.625198E-05
311.0098,-4.626046E-05
311.1098,-4.624351E-05
311.2098,-4.621431E-05
311.3098,-4.62162E-05
311.4098,-4.61936E-05
311.5098,-4.620584E-05
311.6098,-4.622373E-05
311.7098,-4.616723E-05
311.8098,-4.621337E-05
311.9098,-4.62275E-05
312.0098,-4.618418E-05
312.1098,-4.622373E-05
312.2098,-4.623974E-05
312.3098,-4.622373E-05
312.4099,-4.621996E-05
312.5099,-4.621525E-05
312.6099,-4.619171E-05
312.7099,-4.620772E-05
312.8099,-4.620019E-05
312.9099,-4.617664E-05
313.0099,-4.621996E-05
313.1099,-4.623974E-05
313.2099,-4.621714E-05
313.3099,-4.621149E-05
313.4099,-4.621149E-05
313.5099,-4.617288E-05
313.6099,-4.620207E-05
313.7099,-4.620584E-05
313.8099,-4.613992E-05
313.9099,-4.616534E-05
314.0099,-4.615593E-05
314.11,-4.613333E-05
314.21,-4.613521E-05
314.31,-4.612391E-05
314.41,-4.611732E-05
314.51,-4.610413E-05
314.61,-4.607776E-05
314.71,-4.609754E-05
314.81,-4.616911E-05
314.91,-4.618324E-05
315.01,-4.613426E-05
315.11,-4.617476E-05
315.21,-4.614745E-05
315.31,-4.609566E-05
315.41,-4.612108E-05
315.51,-4.61192E-05
315.61,-4.607117E-05
315.7101,-4.607494E-05
315.8101,-4.60448E-05
315.9101,-4.602503E-05
316.0101,-4.60448E-05
316.1101,-4.605704E-05
316.2101,-4.601843E-05
316.3101,-4.604669E-05
316.4101,-4.600619E-05
316.5101,-4.599018E-05
316.6101,-4.598077E-05
316.7101,-4.596947E-05
316.8101,-4.598265E-05
316.9101,-4.597794E-05
317.0101,-4.593839E-05
317.1101,-4.593744E-05
317.2101,-4.591673E-05
317.3102,-4.592897E-05
317.4102,-4.593462E-05
317.5102,-4.596287E-05
317.6102,-4.589789E-05
317.7102,-4.589507E-05
317.8102,-4.588942E-05
317.9102,-4.588753E-05
318.0102,-4.588094E-05
318.1102,-4.585269E-05
318.2102,-4.579148E-05
318.3102,-4.58508E-05
318.4102,-4.585551E-05
318.5102,-4.583385E-05
318.6102,-4.589507E-05
318.7102,-4.587058E-05
318.8102,-4.586399E-05
318.9102,-4.58395E-05
319.0103,-4.580843E-05
319.1103,-4.578112E-05
319.2103,-4.578206E-05
319.3103,-4.577453E-05
319.4103,-4.579713E-05
319.5103,-4.586305E-05
319.6103,-4.588E-05
319.7103,-4.579524E-05
319.8103,-4.584798E-05
319.9103,-4.583857E-05
320.0103,-4.57943E-05
320.1103,-4.582538E-05
320.2103,-4.579901E-05
320.3103,-4.576323E-05
320.4103,-4.577453E-05
320.5103,-4.575098E-05
320.6104,-4.573121E-05
320.7104,-4.575852E-05
320.8104,-4.582632E-05
320.9104,-4.576511E-05
321.0104,-4.57717E-05
321.1104,-4.575287E-05
321.2104,-4.570955E-05
321.3104,-4.571237E-05
321.4104,-4.568506E-05
321.5104,-4.568977E-05
321.6104,-4.570107E-05
321.7104,-4.567565E-05
321.8104,-4.566434E-05
321.9104,-4.569354E-05
322.0104,-4.568789E-05
322.1104,-4.56408E-05
322.2104,-4.565304E-05
322.3105,-4.569448E-05
322.4105,-4.569165E-05
322.5105,-4.565964E-05
322.6105,-4.566811E-05
322.7105,-4.563515E-05
322.8105,-4.563609E-05
322.9105,-4.563892E-05
323.0105,-4.561914E-05
323.1105,-4.561349E-05
323.2105,-4.55956E-05
323.3105,-4.561443E-05
323.4105,-4.561537E-05
323.5105,-4.558995E-05
323.6105,-4.56003E-05
323.7105,-4.559654E-05
323.8105,-4.559748E-05
323.9106,-4.555699E-05
324.0106,-4.553062E-05
324.1106,-4.550896E-05
324.2106,-4.555322E-05
324.3106,-4.556829E-05
324.4106,-4.556829E-05
324.5106,-4.55664E-05
324.6106,-4.559371E-05
324.7106,-4.559936E-05
324.8106,-4.554851E-05
324.9106,-4.552308E-05
325.0106,-4.554192E-05
325.1106,-4.555604E-05
325.2106,-4.552685E-05
325.3106,-4.553533E-05
325.4106,-4.557582E-05
325.5107,-4.553815E-05
325.6107,-4.554192E-05
325.7107,-4.554663E-05
325.8107,-4.551932E-05
325.9107,-4.55438E-05
326.0107,-4.555981E-05
326.1107,-4.554192E-05
326.2107,-4.552026E-05
326.3107,-4.555228E-05
326.4107,-4.554004E-05
326.5107,-4.548071E-05
326.6107,-4.553062E-05
326.7107,-4.551367E-05
326.8107,-4.551367E-05
326.9107,-4.553815E-05
327.0107,-4.548165E-05
327.1107,-4.547882E-05
327.2108,-4.549012E-05
327.3108,-4.549766E-05
327.4108,-4.546752E-05
327.5108,-4.545904E-05
327.6108,-4.54534E-05
327.7108,-4.542608E-05
327.8108,-4.547788E-05
327.9108,-4.548259E-05
328.0108,-4.546941E-05
328.1108,-4.544115E-05
328.2108,-4.546281E-05
328.3108,-4.543833E-05
328.4108,-4.542608E-05
328.5108,-4.541855E-05
328.6108,-4.537994E-05
328.7108,-4.540537E-05
328.8109,-4.540819E-05
328.9109,-4.535922E-05
329.0109,-4.536205E-05
329.1109,-4.536958E-05
329.2109,-4.535075E-05
329.3109,-4.538182E-05
329.4109,-4.535828E-05
329.5109,-4.530648E-05
329.6109,-4.533191E-05
329.7109,-4.535546E-05
329.8109,-4.532438E-05
329.9109,-4.532344E-05
330.0109,-4.536111E-05
330.1109,-4.529989E-05
330.2109,-4.534039E-05
330.3109,-4.53451E-05
330.4109,-4.531308E-05
330.511,-4.531779E-05
330.611,-4.53112E-05
330.711,-4.527258E-05
330.811,-4.525752E-05
330.911,-4.523962E-05
331.011,-4.524339E-05
331.111,-4.521984E-05
331.211,-4.521608E-05
331.311,-4.518688E-05
331.411,-4.520196E-05
331.511,-4.519065E-05
331.611,-4.515204E-05
331.711,-4.517747E-05
331.811,-4.520384E-05
331.911,-4.518029E-05
332.011,-4.515015E-05
332.1111,-4.514733E-05
332.2111,-4.518971E-05
332.3111,-4.520949E-05
332.4111,-4.521326E-05
332.5111,-4.514168E-05
332.6111,-4.515204E-05
332.7111,-4.513886E-05
332.8111,-4.511437E-05
332.9111,-4.508895E-05
333.0111,-4.507105E-05
333.1111,-4.505693E-05
333.2111,-4.508235E-05
333.3111,-4.505975E-05
333.4111,-4.505222E-05
333.5111,-4.501643E-05
333.6111,-4.498536E-05
333.7112,-4.499383E-05
333.8112,-4.499572E-05
333.9112,-4.495616E-05
334.0112,-4.494863E-05
334.1112,-4.497406E-05
334.2112,-4.499572E-05
334.3112,-4.502679E-05
334.4112,-4.498912E-05
334.5112,-4.497217E-05
334.6112,-4.495993E-05
334.7112,-4.495899E-05
334.8112,-4.489965E-05
334.9112,-4.492696E-05
335.0112,-4.494109E-05
335.1112,-4.496276E-05
335.2112,-4.503244E-05
335.3112,-4.500984E-05
335.4113,-4.499665E-05
335.5113,-4.499477E-05
335.6113,-4.497217E-05
335.7113,-4.493262E-05
335.8113,-4.492508E-05
335.9113,-4.493356E-05
336.0113,-4.48827E-05
336.1113,-4.491284E-05
336.2113,-4.490908E-05
336.3113,-4.489683E-05
336.4113,-4.491378E-05
336.5113,-4.491567E-05
336.6113,-4.490154E-05
336.7113,-4.487706E-05
336.8113,-4.48667E-05
336.9113,-4.487423E-05
337.0114,-4.485257E-05
337.1114,-4.484786E-05
337.2114,-4.483939E-05
337.3114,-4.485539E-05
337.4114,-4.484221E-05
337.5114,-4.479513E-05
337.6114,-4.485351E-05
337.7114,-4.484598E-05
337.8114,-4.479983E-05
337.9114,-4.482903E-05
338.0114,-4.479418E-05
338.1114,-4.479136E-05
338.2114,-4.47923E-05
338.3114,-4.478948E-05
338.4114,-4.476311E-05
338.5114,-4.481019E-05
338.6115,-4.479795E-05
338.7115,-4.478476E-05
338.8115,-4.47584E-05
338.9115,-4.474333E-05
339.0115,-4.471225E-05
339.1115,-4.474427E-05
339.2115,-4.471225E-05
339.3115,-4.469719E-05
339.4115,-4.467835E-05
339.5115,-4.46727E-05
339.6115,-4.466988E-05
339.7115,-4.468306E-05
339.8115,-4.469154E-05
339.9115,-4.465857E-05
340.0115,-4.46435E-05
340.1115,-4.46388E-05
340.2115,-4.463409E-05
340.3116,-4.464256E-05
340.4116,-4.464162E-05
340.5116,-4.461808E-05
340.6116,-4.461149E-05
340.7116,-4.461525E-05
340.8116,-4.459171E-05
340.9116,-4.458418E-05
341.0116,-4.458983E-05
341.1116,-4.4587E-05
341.2116,-4.463127E-05
341.3116,-4.461808E-05
341.4116,-4.458512E-05
341.5116,-4.460866E-05
341.6116,-4.461997E-05
341.7116,-4.459454E-05
341.8116,-4.463409E-05
341.9117,-4.45823E-05
342.0117,-4.45983E-05
342.1117,-4.460584E-05
342.2117,-4.462562E-05
342.3117,-4.460207E-05
342.4117,-4.458889E-05
342.5117,-4.45823E-05
342.6117,-4.456817E-05
342.7117,-4.454274E-05
342.8117,-4.455404E-05
342.9117,-4.451638E-05
343.0117,-4.454274E-05
343.1117,-4.449848E-05
343.2117,-4.457287E-05
343.3117,-4.462844E-05
343.4117,-4.462467E-05
343.5117,-4.455687E-05
343.6118,-4.456723E-05
343.7118,-4.452956E-05
343.8118,-4.451638E-05
343.9118,-4.454933E-05
344.0118,-4.457853E-05
344.1118,-4.455028E-05
344.2118,-4.460584E-05
344.3118,-4.460584E-05
344.4118,-4.460019E-05
344.5118,-4.461714E-05
344.6118,-4.459642E-05
344.7118,-4.457476E-05
344.8118,-4.458983E-05
344.9118,-4.457382E-05
345.0118,-4.455781E-05
345.1118,-4.455687E-05
345.2119,-4.455593E-05
345.3119,-4.451826E-05
345.4119,-4.451638E-05
345.5119,-4.452861E-05
345.6119,-4.451638E-05
345.7119,-4.454463E-05
345.8119,-4.452579E-05
345.9119,-4.446835E-05
346.0119,-4.452014E-05
346.1119,-4.45079E-05
346.2119,-4.450884E-05
346.3119,-4.45079E-05
346.4119,-4.450884E-05
346.5119,-4.448906E-05
346.6119,-4.452296E-05
346.7119,-4.450036E-05
346.812,-4.447588E-05
346.912,-4.449848E-05
347.012,-4.453332E-05
347.112,-4.447494E-05
347.212,-4.449377E-05
347.312,-4.446552E-05
347.412,-4.445045E-05
347.512,-4.446647E-05
347.612,-4.446929E-05
347.712,-4.446081E-05
347.812,-4.445704E-05
347.912,-4.442973E-05
348.012,-4.443821E-05
348.112,-4.44561E-05
348.212,-4.443068E-05
348.312,-4.442409E-05
348.412,-4.442126E-05
348.5121,-4.447776E-05
348.6121,-4.446552E-05
348.7121,-4.444009E-05
348.8121,-4.440525E-05
348.9121,-4.440336E-05
349.0121,-4.444197E-05
349.1121,-4.439866E-05
349.2121,-4.440901E-05
349.3121,-4.439772E-05
349.4121,-4.43704E-05
349.5121,-4.441561E-05
349.6121,-4.4377E-05
349.7121,-4.437135E-05
349.8121,-4.437982E-05
349.9121,-4.43544E-05
350.0121,-4.436099E-05
350.1122,-4.431861E-05
350.2122,-4.431673E-05
350.3122,-4.430919E-05
350.4122,-4.427999E-05
350.5122,-4.428659E-05
350.6122,-4.426776E-05
350.7122,-4.427811E-05
350.8122,-4.425834E-05
350.9122,-4.42395E-05
351.0122,-4.436664E-05
351.1122,-4.435346E-05
351.2122,-4.430731E-05
351.3122,-4.426211E-05
351.4122,-4.427152E-05
351.5122,-4.427435E-05
351.6122,-4.424892E-05
351.7122,-4.422632E-05
351.8123,-4.42235E-05
351.9123,-4.423573E-05
352.0123,-4.426399E-05
352.1123,-4.421596E-05
352.2123,-4.420089E-05
352.3123,-4.423385E-05
352.4123,-4.421031E-05
352.5123,-4.419619E-05
352.6123,-4.415851E-05
352.7123,-4.417453E-05
352.8123,-4.416699E-05
352.9123,-4.41491E-05
353.0123,-4.412461E-05
353.1123,-4.413497E-05
353.2123,-4.411331E-05
353.3123,-4.410296E-05
353.4124,-4.410201E-05
353.5124,-4.408694E-05
353.6124,-4.408694E-05
353.7124,-4.407187E-05
353.8124,-4.402761E-05
353.9124,-4.403515E-05
354.0124,-4.405492E-05
354.1124,-4.406528E-05
354.2124,-4.402196E-05
354.3124,-4.401632E-05
354.4124,-4.401632E-05
354.5124,-4.400501E-05
354.6124,-4.402385E-05
354.7124,-4.400407E-05
354.8124,-4.398053E-05
354.9124,-4.399371E-05
355.0125,-4.39843E-05
355.1125,-4.396358E-05
355.2125,-4.398618E-05
355.3125,-4.395228E-05
355.4125,-4.393909E-05
355.5125,-4.395416E-05
355.6125,-4.393721E-05
355.7125,-4.391272E-05
355.8125,-4.398335E-05
355.9125,-4.395604E-05
356.0125,-4.390331E-05
356.1125,-4.39099E-05
356.2125,-4.392026E-05
356.3125,-4.387788E-05
356.4125,-4.390425E-05
356.5125,-4.391272E-05
356.6125,-4.388259E-05
356.7126,-4.388541E-05
356.8126,-4.386752E-05
356.9126,-4.381949E-05
357.0126,-4.388071E-05
357.1126,-4.385904E-05
357.2126,-4.383456E-05
357.3126,-4.38581E-05
357.4126,-4.386469E-05
357.5126,-4.38355E-05
357.6126,-4.38355E-05
357.7126,-4.380913E-05
357.8126,-4.378277E-05
357.9126,-4.381949E-05
358.0126,-4.379972E-05
358.1126,-4.377429E-05
358.2126,-4.377711E-05
358.3127,-4.377146E-05
358.4127,-4.374227E-05
358.5127,-4.376204E-05
358.6127,-4.375451E-05
358.7127,-4.371873E-05
358.8127,-4.373191E-05
358.9127,-4.373662E-05
359.0127,-4.371966E-05
359.1127,-4.375546E-05
359.2127,-4.373662E-05
359.3127,-4.370366E-05
359.4127,-4.371966E-05
359.5127,-4.369519E-05
359.6127,-4.369613E-05
359.7127,-4.370366E-05
359.8127,-4.369424E-05
359.9128,-4.370272E-05
360.0128,-4.370742E-05
360.1128,-4.369235E-05
360.2128,-4.366034E-05
360.3128,-4.367352E-05
360.4128,-4.366034E-05
360.5128,-4.364339E-05
360.6128,-4.366693E-05
360.7128,-4.361608E-05
360.8128,-4.366787E-05
360.9128,-4.370931E-05
361.0128,-4.368953E-05
361.1128,-4.362738E-05
361.2128,-4.367447E-05
361.3128,-4.367447E-05
361.4128,-4.362832E-05
361.5128,-4.363774E-05
361.6129,-4.36255E-05
361.7129,-4.360195E-05
361.8129,-4.36076E-05
361.9129,-4.358783E-05
362.0129,-4.356711E-05
362.1129,-4.357558E-05
362.2129,-4.352944E-05
362.3129,-4.353885E-05
362.4129,-4.350966E-05
362.5129,-4.346634E-05
362.6129,-4.348141E-05
362.7129,-4.348329E-05
362.8129,-4.345881E-05
362.9129,-4.34767E-05
363.0129,-4.346728E-05
363.1129,-4.343997E-05
363.213,-4.344751E-05
363.313,-4.348235E-05
363.413,-4.343432E-05
363.513,-4.340607E-05
363.613,-4.343526E-05
363.713,-4.344468E-05
363.813,-4.343715E-05
363.913,-4.340325E-05
364.013,-4.341832E-05
364.113,-4.344374E-05
364.213,-4.341549E-05
364.313,-4.339006E-05
364.413,-4.337123E-05
364.513,-4.337594E-05
364.613,-4.335616E-05
364.713,-4.337405E-05
364.813,-4.33571E-05
364.9131,-4.329024E-05
365.0131,-4.332885E-05
365.1131,-4.332037E-05
365.2131,-4.33119E-05
365.3131,-4.328365E-05
365.4131,-4.330248E-05
365.5131,-4.327612E-05
365.6131,-4.32714E-05
365.7131,-4.328741E-05
365.8131,-4.323185E-05
365.9131,-4.324409E-05
366.0131,-4.324221E-05
366.1131,-4.321113E-05
366.2131,-4.320077E-05
366.3131,-4.317158E-05
366.4131,-4.315934E-05
366.5132,-4.317064E-05
366.6132,-4.318948E-05
366.7132,-4.314427E-05
366.8132,-4.312638E-05
366.9132,-4.313673E-05
367.0132,-4.311225E-05
367.1132,-4.314898E-05
367.2132,-4.316122E-05
367.3132,-4.310472E-05
367.4132,-4.312355E-05
367.5132,-4.310001E-05
367.6132,-4.310283E-05
367.7132,-4.311507E-05
367.8132,-4.30614E-05
367.9132,-4.312167E-05
368.0132,-4.313203E-05
368.1133,-4.319042E-05
368.2133,-4.310566E-05
368.3133,-4.316311E-05
368.4133,-4.314992E-05
368.5133,-4.313768E-05
368.6133,-4.322149E-05
368.7133,-4.317629E-05
368.8133,-4.315275E-05
368.9133,-4.322055E-05
369.0133,-4.323374E-05
369.1133,-4.31405E-05
369.2133,-4.319889E-05
369.3133,-4.317346E-05
369.4133,-4.314238E-05
369.5133,-4.316028E-05
369.6133,-4.313015E-05
369.7133,-4.308777E-05
369.8134,-4.309624E-05
369.9134,-4.310189E-05
370.0134,-4.31471E-05
370.1134,-4.322055E-05
370.2134,-4.319136E-05
370.3134,-4.315181E-05
370.4134,-4.316499E-05
370.5134,-4.310189E-05
370.6134,-4.306422E-05
370.7134,-4.310189E-05
370.8134,-4.311225E-05
370.9134,-4.308871E-05
371.0134,-4.31066E-05
371.1134,-4.305575E-05
371.2134,-4.299642E-05
371.3134,-4.302938E-05
371.4135,-4.304821E-05
371.5135,-4.302279E-05
371.6135,-4.302843E-05
371.7135,-4.306516E-05
371.8135,-4.299454E-05
371.9135,-4.299265E-05
372.0135,-4.297099E-05
372.1135,-4.299548E-05
372.2135,-4.301055E-05
372.3135,-4.298606E-05
372.4135,-4.30501E-05
372.5135,-4.306893E-05
372.6135,-4.306987E-05
372.7135,-4.303974E-05
372.8135,-4.305858E-05
372.9135,-4.305198E-05
373.0135,-4.308117E-05
373.1136,-4.307835E-05
373.2136,-4.305481E-05
373.3136,-4.305293E-05
373.4136,-4.307741E-05
373.5136,-4.310001E-05
373.6136,-4.304539E-05
373.7136,-4.301808E-05
373.8136,-4.300772E-05
373.9136,-4.301337E-05
374.0136,-4.302938E-05
374.1136,-4.295498E-05
374.2136,-4.299171E-05
374.3136,-4.301525E-05
374.4136,-4.297099E-05
374.5136,-4.300678E-05
374.6136,-4.306611E-05
374.7137,-4.304821E-05
374.8137,-4.299548E-05
374.9137,-4.298041E-05
375.0137,-4.301902E-05
375.1137,-4.301055E-05
375.2137,-4.302185E-05
375.3137,-4.300584E-05
375.4137,-4.303974E-05
375.5137,-4.308494E-05
375.6137,-4.30953E-05
375.7137,-4.30209E-05
375.8137,-4.311319E-05
375.9137,-4.308871E-05
376.0137,-4.306893E-05
376.1137,-4.31066E-05
376.2137,-4.305293E-05
376.3138,-4.304162E-05
376.4138,-4.310566E-05
376.5138,-4.307364E-05
376.6138,-4.306893E-05
376.7138,-4.308588E-05
376.8138,-4.306799E-05
376.9138,-4.306893E-05
377.0138,-4.309812E-05
377.1138,-4.308212E-05
377.2138,-4.30388E-05
377.3138,-4.307364E-05
377.4138,-4.307081E-05
377.5138,-4.307741E-05
377.6138,-4.307741E-05
377.7138,-4.304727E-05
377.8138,-4.309154E-05
377.9138,-4.312355E-05
378.0139,-4.309342E-05
378.1139,-4.308588E-05
378.2139,-4.308682E-05
378.3139,-4.31292E-05
378.4139,-4.312261E-05
378.5139,-4.312167E-05
378.6139,-4.310283E-05
378.7139,-4.310943E-05
378.8139,-4.313391E-05
378.9139,-4.31179E-05
379.0139,-4.324127E-05
379.1139,-4.324598E-05
379.2139,-4.323185E-05
379.3139,-4.318853E-05
379.4139,-4.321867E-05
379.5139,-4.321773E-05
379.614,-4.324221E-05
379.714,-4.32714E-05
379.814,-4.334486E-05
379.914,-4.334203E-05
380.014,-4.335993E-05
380.114,-4.33684E-05
380.214,-4.33345E-05
380.314,-4.330813E-05
380.414,-4.328365E-05
380.514,-4.332602E-05
380.614,-4.332885E-05
380.714,-4.327612E-05
380.814,-4.331001E-05
380.914,-4.332696E-05
381.014,-4.330154E-05
381.114,-4.32893E-05
381.2141,-4.334957E-05
381.3141,-4.334298E-05
381.4141,-4.332414E-05
381.5141,-4.332131E-05
381.6141,-4.331378E-05
381.7141,-4.331001E-05
381.8141,-4.33571E-05
381.9141,-4.332037E-05
382.0141,-4.332791E-05
382.1141,-4.333638E-05
382.2141,-4.333733E-05
382.3141,-4.333733E-05
382.4141,-4.332602E-05
382.5141,-4.335993E-05
382.6141,-4.333827E-05
382.7141,-4.334203E-05
382.8141,-4.334862E-05
382.9142,-4.333356E-05
383.0142,-4.33345E-05
383.1142,-4.332508E-05
383.2142,-4.332696E-05
383.3142,-4.332226E-05
383.4142,-4.33006E-05
383.5142,-4.33571E-05
383.6142,-4.333733E-05
383.7142,-4.331378E-05
383.8142,-4.331284E-05
383.9142,-4.325539E-05
384.0142,-4.32667E-05
384.1142,-4.329118E-05
384.2142,-4.330248E-05
384.3142,-4.324598E-05
384.4142,-4.329495E-05
384.5143,-4.332037E-05
384.6143,-4.329683E-05
384.7143,-4.33119E-05
384.8143,-4.33345E-05
384.9143,-4.334015E-05
385.0143,-4.329871E-05
385.1143,-4.328365E-05
385.2143,-4.322243E-05
385.3143,-4.32149E-05
385.4143,-4.324409E-05
385.5143,-4.320831E-05
385.6143,-4.319701E-05
385.7143,-4.31857E-05
385.8143,-4.315651E-05
385.9143,-4.316687E-05
386.0143,-4.314144E-05
386.1143,-4.310943E-05
386.2144,-4.313862E-05
386.3144,-4.311696E-05
386.4144,-4.308965E-05
386.5144,-4.309059E-05
386.6144,-4.307269E-05
386.7144,-4.306422E-05
386.8144,-4.30953E-05
386.9144,-4.311413E-05
387.0144,-4.304633E-05
387.1144,-4.32149E-05
387.2144,-4.317629E-05
387.3144,-4.319889E-05
387.4144,-4.313579E-05
387.5144,-4.30953E-05
387.6144,-4.305293E-05
387.7144,-4.30614E-05
387.8145,-4.303691E-05
387.9145,-4.300395E-05
388.0145,-4.29983E-05
388.1145,-4.300584E-05
388.2145,-4.297664E-05
388.3145,-4.300112E-05
388.4145,-4.299171E-05
388.5145,-4.295592E-05
388.6145,-4.300207E-05
388.7145,-4.297476E-05
388.8145,-4.289942E-05
388.9145,-4.292673E-05
389.0145,-4.294651E-05
389.1145,-4.291072E-05
389.2145,-4.292297E-05
389.3145,-4.292861E-05
389.4146,-4.29079E-05
389.5146,-4.290131E-05
389.6146,-4.288247E-05
389.7146,-4.284009E-05
389.8146,-4.287493E-05
389.9146,-4.286835E-05
390.0146,-4.283444E-05
390.1146,-4.278924E-05
390.2146,-4.2793E-05
390.3146,-4.282502E-05
390.4146,-4.28514E-05
390.5146,-4.281278E-05
390.6146,-4.278924E-05
390.7146,-4.277511E-05
390.8146,-4.278359E-05
390.9146,-4.273933E-05
391.0146,-4.277135E-05
391.1147,-4.274874E-05
391.2147,-4.270354E-05
391.3147,-4.275157E-05
391.4147,-4.273085E-05
391.5147,-4.268188E-05
391.6147,-4.270071E-05
391.7147,-4.266493E-05
391.8147,-4.263385E-05
391.9147,-4.263856E-05
392.0147,-4.26282E-05
392.1147,-4.259053E-05
392.2147,-4.259524E-05
392.3147,-4.263479E-05
392.4147,-4.258582E-05
392.5147,-4.256605E-05
392.6147,-4.253779E-05
392.7148,-4.252461E-05
392.8148,-4.255286E-05
392.9148,-4.256605E-05
393.0148,-4.251519E-05
393.1148,-4.251802E-05
393.2148,-4.251896E-05
393.3148,-4.250201E-05
393.4148,-4.250672E-05
393.5148,-4.245021E-05
393.6148,-4.255569E-05
393.7148,-4.262538E-05
393.8148,-4.260089E-05
393.9148,-4.255663E-05
394.0148,-4.253779E-05
394.1148,-4.255381E-05
394.2148,-4.250766E-05
394.3148,-4.2486E-05
394.4149,-4.248506E-05
394.5149,-4.248977E-05
394.6149,-4.244457E-05
394.7149,-4.243515E-05
394.8149,-4.245586E-05
394.9149,-4.242761E-05
395.0149,-4.24634E-05
395.1149,-4.244927E-05
395.2149,-4.242761E-05
395.3149,-4.239183E-05
395.4149,-4.236734E-05
395.5149,-4.239183E-05
395.6149,-4.235039E-05
395.7149,-4.236169E-05
395.8149,-4.237582E-05
395.9149,-4.230801E-05
396.015,-4.234568E-05
396.115,-4.235698E-05
396.215,-4.243703E-05
396.315,-4.234663E-05
396.415,-4.233532E-05
396.515,-4.23259E-05
396.615,-4.231084E-05
396.715,-4.232308E-05
396.815,-4.229389E-05
396.915,-4.226846E-05
397.015,-4.22694E-05
397.115,-4.225716E-05
397.215,-4.226187E-05
397.315,-4.225998E-05
397.415,-4.22289E-05
397.515,-4.224209E-05
397.6151,-4.225151E-05
397.7151,-4.22016E-05
397.8151,-4.219783E-05
397.9151,-4.221101E-05
398.0151,-4.22016E-05
398.1151,-4.221007E-05
398.2151,-4.219124E-05
398.3151,-4.21903E-05
398.4151,-4.222514E-05
398.5151,-4.219689E-05
398.6151,-4.21677E-05
398.7151,-4.215357E-05
398.8151,-4.219312E-05
398.9151,-4.213191E-05
399.0151,-4.212532E-05
399.1151,-4.214321E-05
399.2151,-4.210271E-05
399.3152,-4.213944E-05
399.4152,-4.212908E-05
399.5152,-4.207446E-05
399.6152,-4.209141E-05
399.7152,-4.210648E-05
399.8152,-4.206787E-05
399.9152,-4.206505E-05
400.0152,-4.206222E-05
400.1152,-4.202267E-05
400.2152,-4.205845E-05
400.3152,-4.204997E-05
400.4152,-4.201325E-05
400.5152,-4.200855E-05
400.6152,-4.200666E-05
400.7152,-4.197746E-05
400.8152,-4.199159E-05
400.9153,-4.199159E-05
401.0153,-4.195863E-05
401.1153,-4.197652E-05
401.2153,-4.194545E-05
401.3153,-4.197464E-05
401.4153,-4.199912E-05
401.5153,-4.193886E-05
401.6153,-4.19332E-05
401.7153,-4.199442E-05
401.8153,-4.195298E-05
401.9153,-4.194262E-05
402.0153,-4.190213E-05
402.1153,-4.189459E-05
402.2153,-4.189082E-05
402.3153,-4.189271E-05
402.4153,-4.18654E-05
402.5154,-4.188612E-05
402.6154,-4.188047E-05
402.7154,-4.191814E-05
402.8154,-4.19737E-05
402.9154,-4.192002E-05
403.0154,-4.190495E-05
403.1154,-4.192661E-05
403.2154,-4.189365E-05
403.3154,-4.185316E-05
403.4154,-4.185692E-05
403.5154,-4.187764E-05
403.6154,-4.180136E-05
403.7154,-4.179288E-05
403.8154,-4.180984E-05
403.9154,-4.187387E-05
404.0154,-4.189554E-05
404.1154,-4.183809E-05
404.2155,-4.179948E-05
404.3155,-4.180701E-05
404.4155,-4.181455E-05
404.5155,-4.177499E-05
404.6155,-4.176463E-05
404.7155,-4.174486E-05
404.8155,-4.173262E-05
404.9155,-4.173262E-05
405.0155,-4.172885E-05
405.1155,-4.170907E-05
405.2155,-4.175899E-05
405.3155,-4.184939E-05
405.4155,-4.176934E-05
405.5155,-4.179759E-05
405.6155,-4.178818E-05
405.7155,-4.174392E-05
405.8156,-4.176369E-05
405.9156,-4.17571E-05
406.0156,-4.175145E-05
406.1156,-4.174768E-05
406.2156,-4.171378E-05
406.3156,-4.171189E-05
406.4156,-4.169401E-05
406.5156,-4.168647E-05
406.6156,-4.16827E-05
406.7156,-4.167517E-05
406.8156,-4.16714E-05
406.9156,-4.167893E-05
407.0156,-4.168082E-05
407.1156,-4.165916E-05
407.2156,-4.166293E-05
407.3156,-4.163562E-05
407.4156,-4.161961E-05
407.5157,-4.160831E-05
407.6157,-4.162432E-05
407.7157,-4.16441E-05
407.8157,-4.164032E-05
407.9157,-4.165163E-05
408.0157,-4.169024E-05
408.1157,-4.16893E-05
408.2157,-4.173732E-05
408.3157,-4.173544E-05
408.4157,-4.171943E-05
408.5157,-4.171849E-05
408.6157,-4.169401E-05
408.7157,-4.168082E-05
408.8157,-4.168647E-05
408.9157,-4.16262E-05
409.0157,-4.161961E-05
409.1158,-4.160548E-05
409.2158,-4.159041E-05
409.3158,-4.161113E-05
409.4158,-4.159983E-05
409.5158,-4.158288E-05
409.6158,-4.155557E-05
409.7158,-4.15471E-05
409.8158,-4.153579E-05
409.9158,-4.156875E-05
410.0158,-4.155745E-05
410.1158,-4.152073E-05
410.2158,-4.153203E-05
410.3158,-4.157629E-05
410.4158,-4.154615E-05
410.5158,-4.155934E-05
410.6158,-4.153297E-05
410.7159,-4.154238E-05
410.8159,-4.155745E-05
410.9159,-4.15584E-05
411.0159,-4.150472E-05
411.1159,-4.149718E-05
411.2159,-4.152449E-05
411.3159,-4.150283E-05
411.4159,-4.152449E-05
411.5159,-4.148212E-05
411.6159,-4.145386E-05
411.7159,-4.152167E-05
411.8159,-4.151696E-05
411.9159,-4.14548E-05
412.0159,-4.147552E-05
412.1159,-4.149341E-05
412.2159,-4.143879E-05
412.3159,-4.145386E-05
412.416,-4.147458E-05
412.516,-4.141808E-05
412.616,-4.143597E-05
412.716,-4.143597E-05
412.816,-4.137852E-05
412.916,-4.142373E-05
413.016,-4.140772E-05
413.116,-4.137664E-05
413.216,-4.137005E-05
413.316,-4.136722E-05
413.416,-4.137287E-05
413.516,-4.136628E-05
413.616,-4.131637E-05
413.716,-4.13531E-05
413.816,-4.134462E-05
413.916,-4.133803E-05
414.0161,-4.131825E-05
414.1161,-4.132767E-05
414.2161,-4.131825E-05
414.3161,-4.131637E-05
414.4161,-4.128906E-05
414.5161,-4.128153E-05
414.6161,-4.127493E-05
414.7161,-4.128906E-05
414.8161,-4.126457E-05
414.9161,-4.128529E-05
415.0161,-4.127493E-05
415.1161,-4.123444E-05
415.2161,-4.125139E-05
415.3161,-4.127399E-05
415.4161,-4.125893E-05
415.5161,-4.124009E-05
415.6161,-4.120242E-05
415.7162,-4.120524E-05
415.8162,-4.122597E-05
415.9162,-4.12495E-05
416.0162,-4.125045E-05
416.1162,-4.123632E-05
416.2162,-4.123067E-05
416.3162,-4.122219E-05
416.4162,-4.122502E-05
416.5162,-4.118829E-05
416.6162,-4.11591E-05
416.7162,-4.116475E-05
416.8162,-4.117605E-05
416.9162,-4.115816E-05
417.0162,-4.114874E-05
417.1162,-4.114592E-05
417.2162,-4.113367E-05
417.3163,-4.116664E-05
417.4163,-4.118829E-05
417.5163,-4.113462E-05
417.6163,-4.111955E-05
417.7163,-4.114215E-05
417.8163,-4.114403E-05
417.9163,-4.116664E-05
418.0163,-4.116286E-05
418.1163,-4.112708E-05
418.2163,-4.114215E-05
418.3163,-4.118829E-05
418.4163,-4.112237E-05
418.5163,-4.117228E-05
418.6163,-4.116758E-05
418.7163,-4.116193E-05
418.8163,-4.116098E-05
418.9164,-4.115439E-05
419.0164,-4.110825E-05
419.1164,-4.114027E-05
419.2164,-4.110448E-05
419.3164,-4.105739E-05
419.4164,-4.106398E-05
419.5164,-4.104986E-05
419.6164,-4.102632E-05
419.7164,-4.106116E-05
419.8164,-4.113085E-05
419.9164,-4.104892E-05
420.0164,-4.10734E-05
420.1164,-4.107905E-05
420.2164,-4.10282E-05
420.3164,-4.10508E-05
420.4164,-4.105551E-05
420.5164,-4.102443E-05
420.6165,-4.102914E-05
420.7165,-4.100089E-05
420.8165,-4.102914E-05
420.9165,-4.105834E-05
421.0165,-4.106587E-05
421.1165,-4.099241E-05
421.2165,-4.105268E-05
421.3165,-4.105739E-05
421.4165,-4.099241E-05
421.5165,-4.100748E-05
421.6165,-4.103479E-05
421.7165,-4.102161E-05
421.8165,-4.103009E-05
421.9165,-4.100936E-05
422.0165,-4.096793E-05
422.1165,-4.098205E-05
422.2166,-4.096699E-05
422.3166,-4.09312E-05
422.4166,-4.095098E-05
422.5166,-4.098677E-05
422.6166,-4.094062E-05
422.7166,-4.096134E-05
422.8166,-4.097546E-05
422.9166,-4.093214E-05
423.0166,-4.096793E-05
423.1166,-4.097264E-05
423.2166,-4.093497E-05
423.3166,-4.096228E-05
423.4166,-4.096416E-05
423.5166,-4.089541E-05
423.6166,-4.094909E-05
423.7166,-4.096793E-05
423.8167,-4.090295E-05
423.9167,-4.091614E-05
424.0167,-4.092837E-05
424.1167,-4.091236E-05
424.2167,-4.093591E-05
424.3167,-4.093874E-05
424.4167,-4.090578E-05
424.5167,-4.090389E-05
424.6167,-4.090013E-05
424.7167,-4.091708E-05
424.8167,-4.091614E-05
424.9167,-4.090013E-05
425.0167,-4.087846E-05
425.1167,-4.085021E-05
425.2167,-4.080878E-05
425.3167,-4.08747E-05
425.4167,-4.087282E-05
425.5168,-4.083891E-05
425.6168,-4.083609E-05
425.7168,-4.084739E-05
425.8168,-4.083985E-05
425.9168,-4.082008E-05
426.0168,-4.084267E-05
426.1168,-4.080595E-05
426.2168,-4.083044E-05
426.3168,-4.082479E-05
426.4168,-4.077582E-05
426.5168,-4.078241E-05
426.6168,-4.080219E-05
426.7168,-4.081254E-05
426.8168,-4.081066E-05
426.9168,-4.079653E-05
427.0168,-4.080501E-05
427.1169,-4.078147E-05
427.2169,-4.0789E-05
427.3169,-4.076828E-05
427.4169,-4.081914E-05
427.5169,-4.082573E-05
427.6169,-4.077864E-05
427.7169,-4.080595E-05
427.8169,-4.078147E-05
427.9169,-4.077205E-05
428.0169,-4.078806E-05
428.1169,-4.077959E-05
428.2169,-4.074756E-05
428.3169,-4.074851E-05
428.4169,-4.077016E-05
428.5169,-4.074945E-05
428.6169,-4.073909E-05
428.7169,-4.07664E-05
428.817,-4.073909E-05
428.917,-4.077205E-05
429.017,-4.073721E-05
429.117,-4.069106E-05
429.217,-4.07146E-05
429.317,-4.072873E-05
429.417,-4.071083E-05
429.517,-4.070519E-05
429.617,-4.07099E-05
429.717,-4.067128E-05
429.817,-4.06807E-05
429.917,-4.069012E-05
430.017,-4.068259E-05
430.117,-4.069954E-05
430.217,-4.07212E-05
430.317,-4.070142E-05
430.4171,-4.065527E-05
430.5171,-4.067505E-05
430.6171,-4.065339E-05
430.7171,-4.068729E-05
430.8171,-4.067222E-05
430.9171,-4.064868E-05
431.0171,-4.064868E-05
431.1171,-4.071083E-05
431.2171,-4.073626E-05
431.3171,-4.071931E-05
431.4171,-4.071083E-05
431.5171,-4.066752E-05
431.6171,-4.064868E-05
431.7171,-4.065433E-05
431.8171,-4.062985E-05
431.9171,-4.062514E-05
432.0172,-4.061478E-05
432.1172,-4.06289E-05
432.2172,-4.059877E-05
432.3172,-4.055828E-05
432.4172,-4.069954E-05
432.5172,-4.073909E-05
432.6172,-4.069483E-05
432.7172,-4.062608E-05
432.8172,-4.06176E-05
432.9172,-4.063738E-05
433.0172,-4.064303E-05
433.1172,-4.063079E-05
433.2172,-4.060819E-05
433.3172,-4.062985E-05
433.4172,-4.064397E-05
433.5172,-4.06063E-05
433.6172,-4.059595E-05
433.7173,-4.057523E-05
433.8173,-4.055639E-05
433.9173,-4.061007E-05
434.0173,-4.054791E-05
434.1173,-4.054886E-05
434.2173,-4.057994E-05
434.3173,-4.056581E-05
434.4173,-4.055169E-05
434.5173,-4.058747E-05
434.6173,-4.055639E-05
434.7173,-4.053662E-05
434.8173,-4.055922E-05
434.9173,-4.051778E-05
435.0173,-4.0482E-05
435.1173,-4.053002E-05
435.2173,-4.051778E-05
435.3174,-4.04641E-05
435.4174,-4.048859E-05
435.5174,-4.048106E-05
435.6174,-4.048482E-05
435.7174,-4.049894E-05
435.8174,-4.045563E-05
435.9174,-4.042926E-05
436.0174,-4.044621E-05
436.1174,-4.045845E-05
436.2174,-4.040383E-05
436.3174,-4.040949E-05
436.4174,-4.041796E-05
436.5174,-4.04415E-05
436.6174,-4.05498E-05
436.7174,-4.052249E-05
436.8174,-4.050177E-05
436.9174,-4.051025E-05
437.0175,-4.049801E-05
437.1175,-4.045092E-05
437.2175,-4.045468E-05
437.3175,-4.042832E-05
437.4175,-4.039159E-05
437.5175,-4.044997E-05
437.6175,-4.045092E-05
437.7175,-4.040477E-05
437.8175,-4.042078E-05
437.9175,-4.038971E-05
438.0175,-4.040006E-05
438.1175,-4.04415E-05
438.2175,-4.040759E-05
438.3175,-4.037746E-05
438.4175,-4.037746E-05
438.5175,-4.036899E-05
438.6176,-4.03558E-05
438.7176,-4.03445E-05
438.8176,-4.033602E-05
438.9176,-4.031813E-05
439.0176,-4.031248E-05
439.1176,-4.032567E-05
439.2176,-4.036522E-05
439.3176,-4.044621E-05
439.4176,-4.045092E-05
439.5176,-4.040666E-05
439.6176,-4.039159E-05
439.7176,-4.041702E-05
439.8176,-4.039818E-05
439.9176,-4.038594E-05
440.0176,-4.038971E-05
440.1176,-4.036805E-05
440.2177,-4.034733E-05
440.3177,-4.035957E-05
440.4177,-4.034639E-05
440.5177,-4.03558E-05
440.6177,-4.038782E-05
440.7177,-4.031154E-05
440.8177,-4.035486E-05
440.9177,-4.034733E-05
441.0177,-4.030024E-05
441.1177,-4.035486E-05
441.2177,-4.037087E-05
441.3177,-4.037464E-05
441.4177,-4.039818E-05
441.5177,-4.04415E-05
441.6177,-4.042455E-05
441.7177,-4.04641E-05
441.8177,-4.050837E-05
441.9178,-4.052061E-05
442.0178,-4.053002E-05
442.1178,-4.053285E-05
442.2178,-4.050271E-05
442.3178,-4.050931E-05
442.4178,-4.05159E-05
442.5178,-4.049706E-05
442.6178,-4.048106E-05
442.7178,-4.048765E-05
442.8178,-4.047258E-05
442.9178,-4.051213E-05
443.0178,-4.046599E-05
443.1178,-4.042267E-05
443.2178,-4.048576E-05
443.3178,-4.046505E-05
443.4178,-4.046693E-05
443.5179,-4.04594E-05
443.6179,-4.049236E-05
443.7179,-4.044997E-05
443.8179,-4.049612E-05
443.9179,-4.050931E-05
444.0179,-4.048388E-05
444.1179,-4.049612E-05
444.2179,-4.051307E-05
444.3179,-4.048671E-05
444.4179,-4.053944E-05
444.5179,-4.057617E-05
444.6179,-4.05498E-05
444.7179,-4.053285E-05
444.8179,-4.05159E-05
444.9179,-4.056393E-05
445.0179,-4.0595E-05
445.118,-4.062796E-05
445.218,-4.05724E-05
445.318,-4.059406E-05
445.418,-4.059783E-05
445.518,-4.056393E-05
445.618,-4.057052E-05
445.718,-4.060348E-05
445.818,-4.059124E-05
445.918,-4.058841E-05
446.018,-4.056863E-05
446.118,-4.063456E-05
446.218,-4.066752E-05
446.318,-4.068824E-05
446.418,-4.059877E-05
446.518,-4.064209E-05
446.618,-4.068729E-05
446.718,-4.058935E-05
446.8181,-4.066093E-05
446.9181,-4.067882E-05
447.0181,-4.068918E-05
447.1181,-4.074097E-05
447.2181,-4.073438E-05
447.3181,-4.069859E-05
447.4181,-4.078429E-05
447.5181,-4.077488E-05
447.6181,-4.074663E-05
447.7181,-4.081819E-05
447.8181,-4.076263E-05
447.9181,-4.073061E-05
448.0181,-4.079936E-05
448.1181,-4.078994E-05
448.2181,-4.07438E-05
448.3181,-4.075133E-05
448.4182,-4.078429E-05
448.5182,-4.076922E-05
448.6182,-4.078429E-05
448.7182,-4.075981E-05
448.8182,-4.070707E-05
448.9182,-4.073438E-05
449.0182,-4.074285E-05
449.1182,-4.074097E-05
449.2182,-4.073626E-05
449.3182,-4.072496E-05
449.4182,-4.071743E-05
449.5182,-4.074474E-05
449.6182,-4.075604E-05
449.7182,-4.078994E-05
449.8182,-4.082667E-05
449.9182,-4.085021E-05
450.0182,-4.07777E-05
450.1183,-4.077959E-05
450.2183,-4.079842E-05
450.3183,-4.08003E-05
450.4183,-4.078523E-05
450.5183,-4.078617E-05
450.6183,-4.07664E-05
450.7183,-4.079371E-05
450.8183,-4.078335E-05
450.9183,-4.081066E-05
451.0183,-4.082102E-05
451.1183,-4.079842E-05
451.2183,-4.078523E-05
451.3183,-4.0789E-05
451.4183,-4.072967E-05
451.5183,-4.077394E-05
451.6183,-4.078052E-05
451.7184,-4.076451E-05
451.8184,-4.076734E-05
451.9184,-4.077676E-05
452.0184,-4.073721E-05
452.1184,-4.078806E-05
452.2184,-4.07711E-05
452.3184,-4.077582E-05
452.4184,-4.079088E-05
452.5184,-4.079842E-05
452.6184,-4.074191E-05
452.7184,-4.07551E-05
452.8184,-4.075981E-05
452.9184,-4.071648E-05
453.0184,-4.076451E-05
453.1184,-4.077676E-05
453.2184,-4.075604E-05
453.3185,-4.079182E-05
453.4185,-4.0789E-05
453.5185,-4.077299E-05
453.6185,-4.078712E-05
453.7185,-4.074191E-05
453.8185,-4.071743E-05
453.9185,-4.074285E-05
454.0185,-4.073815E-05
454.1185,-4.073532E-05
454.2185,-4.073156E-05
454.3185,-4.071555E-05
454.4185,-4.069012E-05
454.5185,-4.075039E-05
454.6185,-4.076169E-05
454.7185,-4.072213E-05
454.8185,-4.073721E-05
454.9185,-4.07325E-05
455.0186,-4.07033E-05
455.1186,-4.073156E-05
455.2186,-4.073815E-05
455.3186,-4.067505E-05
455.4186,-4.069577E-05
455.5186,-4.070613E-05
455.6186,-4.067317E-05
455.7186,-4.069577E-05
455.8186,-4.0692E-05
455.9186,-4.067128E-05
456.0186,-4.069577E-05
456.1186,-4.068352E-05
456.2186,-4.067505E-05
456.3186,-4.066375E-05
456.4186,-4.067505E-05
456.5186,-4.06581E-05
456.6187,-4.067222E-05
456.7187,-4.067787E-05
456.8187,-4.065904E-05
456.9187,-4.065151E-05
457.0187,-4.064209E-05
457.1187,-4.066752E-05
457.2187,-4.066846E-05
457.3187,-4.065621E-05
457.4187,-4.064491E-05
457.5187,-4.065904E-05
457.6187,-4.068164E-05
457.7187,-4.064115E-05
457.8187,-4.06581E-05
457.9187,-4.064868E-05
458.0187,-4.062232E-05
458.1187,-4.06176E-05
458.2188,-4.058088E-05
458.3188,-4.05837E-05
458.4188,-4.062326E-05
458.5188,-4.060819E-05
458.6188,-4.065904E-05
458.7188,-4.073156E-05
458.8188,-4.071837E-05
458.9188,-4.064115E-05
459.0188,-4.06807E-05
459.1188,-4.067222E-05
459.2188,-4.065433E-05
459.3188,-4.067694E-05
459.4188,-4.065056E-05
459.5188,-4.064962E-05
459.6188,-4.066657E-05
459.7188,-4.062232E-05
459.8188,-4.060254E-05
459.9189,-4.0692E-05
460.0189,-4.067882E-05
460.1189,-4.064303E-05
460.2189,-4.067599E-05
460.3189,-4.064303E-05
460.4189,-4.062232E-05
460.5189,-4.064586E-05
460.6189,-4.062326E-05
460.7189,-4.061572E-05
460.8189,-4.061478E-05
460.9189,-4.056487E-05
461.0189,-4.059877E-05
461.1189,-4.061007E-05
461.2189,-4.059406E-05
461.3189,-4.05903E-05
461.4189,-4.057523E-05
461.519,-4.054415E-05
461.619,-4.057994E-05
461.719,-4.056487E-05
461.819,-4.052437E-05
461.919,-4.05611E-05
462.019,-4.058747E-05
462.119,-4.059689E-05
462.219,-4.064021E-05
462.319,-4.057052E-05
462.419,-4.057334E-05
462.519,-4.05903E-05
462.619,-4.053379E-05
462.719,-4.054886E-05
462.819,-4.054697E-05
462.919,-4.053756E-05
463.019,-4.056299E-05
463.119,-4.057711E-05
463.2191,-4.052532E-05
463.3191,-4.051684E-05
463.4191,-4.054038E-05
463.5191,-4.055451E-05
463.6191,-4.050554E-05
463.7191,-4.053567E-05
463.8191,-4.05272E-05
463.9191,-4.061007E-05
464.0191,-4.064115E-05
464.1191,-4.062608E-05
464.2191,-4.059783E-05
464.3191,-4.060913E-05
464.4191,-4.06016E-05
464.5191,-4.058182E-05
464.6191,-4.057523E-05
464.7191,-4.055075E-05
464.8192,-4.051119E-05
464.9192,-4.056958E-05
465.0192,-4.056769E-05
465.1192,-4.052344E-05
465.2192,-4.052626E-05
465.3192,-4.053473E-05
465.4192,-4.052908E-05
465.5192,-4.054321E-05
465.6192,-4.057428E-05
465.7192,-4.053944E-05
465.8192,-4.055733E-05
465.9192,-4.058841E-05
466.0192,-4.054227E-05
466.1192,-4.060065E-05
466.2192,-4.064397E-05
466.3192,-4.058276E-05
466.4193,-4.061855E-05
466.5193,-4.060348E-05
466.6193,-4.056016E-05
466.7193,-4.062232E-05
466.8193,-4.060442E-05
466.9193,-4.055545E-05
467.0193,-4.056769E-05
467.1193,-4.0595E-05
467.2193,-4.055169E-05
467.3193,-4.057052E-05
467.4193,-4.057523E-05
467.5193,-4.056299E-05
467.6193,-4.057994E-05
467.7193,-4.057994E-05
467.8193,-4.055639E-05
467.9193,-4.059689E-05
468.0193,-4.056769E-05
468.1194,-4.052814E-05
468.2194,-4.054132E-05
468.3194,-4.054603E-05
468.4194,-4.054415E-05
468.5194,-4.053756E-05
468.6194,-4.052908E-05
468.7194,-4.049141E-05
468.8194,-4.051307E-05
468.9194,-4.05385E-05
469.0194,-4.053002E-05
469.1194,-4.052061E-05
469.2194,-4.051119E-05
469.3194,-4.054321E-05
469.4194,-4.056016E-05
469.5194,-4.053756E-05
469.6194,-4.050554E-05
469.7195,-4.051119E-05
469.8195,-4.051025E-05
469.9195,-4.049612E-05
470.0195,-4.048388E-05
470.1195,-4.046033E-05
470.2195,-4.049047E-05
470.3195,-4.046033E-05
470.4195,-4.046316E-05
470.5195,-4.048765E-05
470.6195,-4.04933E-05
470.7195,-4.04754E-05
470.8195,-4.048011E-05
470.9195,-4.049141E-05
471.0195,-4.045845E-05
471.1195,-4.04707E-05
471.2195,-4.04707E-05
471.3195,-4.043774E-05
471.4196,-4.048859E-05
471.5196,-4.051778E-05
471.6196,-4.045657E-05
471.7196,-4.04754E-05
471.8196,-4.049894E-05
471.9196,-4.047446E-05
472.0196,-4.051495E-05
472.1196,-4.049424E-05
472.2196,-4.046128E-05
472.3196,-4.048953E-05
472.4196,-4.050648E-05
472.5196,-4.04754E-05
472.6196,-4.046975E-05
472.7196,-4.051966E-05
472.8196,-4.045468E-05
472.9196,-4.045751E-05
473.0197,-4.048576E-05
473.1197,-4.057146E-05
473.2197,-4.063832E-05
473.3197,-4.056204E-05
473.4197,-4.052626E-05
473.5197,-4.052626E-05
473.6197,-4.052908E-05
473.7197,-4.048765E-05
473.8197,-4.048953E-05
473.9197,-4.046128E-05
474.0197,-4.045657E-05
474.1197,-4.04933E-05
474.2197,-4.044244E-05
474.3197,-4.039253E-05
474.4197,-4.042926E-05
474.5197,-4.043585E-05
474.6198,-4.04349E-05
474.7198,-4.041231E-05
474.8198,-4.040854E-05
474.9198,-4.036051E-05
475.0198,-4.044809E-05
475.1198,-4.042078E-05
475.2198,-4.038594E-05
475.3198,-4.043868E-05
475.4198,-4.043302E-05
475.5198,-4.037087E-05
475.6198,-4.039065E-05
475.7198,-4.04302E-05
475.8198,-4.039347E-05
475.9198,-4.04189E-05
476.0198,-4.041231E-05
476.1198,-4.03963E-05
476.2198,-4.039347E-05
476.3199,-4.038123E-05
476.4199,-4.03445E-05
476.5199,-4.037558E-05
476.6199,-4.038217E-05
476.7199,-4.032567E-05
476.8199,-4.035486E-05
476.9199,-4.036145E-05
477.0199,-4.037464E-05
477.1199,-4.038782E-05
477.2199,-4.034733E-05
477.3199,-4.031719E-05
477.4199,-4.032002E-05
477.5199,-4.031813E-05
477.6199,-4.032473E-05
477.7199,-4.031719E-05
477.8199,-4.031343E-05
477.92,-4.034545E-05
478.02,-4.033414E-05
478.12,-4.033791E-05
478.22,-4.03445E-05
478.32,-4.036333E-05
478.42,-4.037464E-05
478.52,-4.03398E-05
478.62,-4.037652E-05
478.72,-4.036428E-05
478.82,-4.036239E-05
478.92,-4.04349E-05
479.02,-4.041042E-05
479.12,-4.036711E-05
479.22,-4.040949E-05
479.32,-4.038217E-05
479.42,-4.031154E-05
479.5201,-4.036899E-05
479.6201,-4.037181E-05
479.7201,-4.030307E-05
479.8201,-4.038123E-05
479.9201,-4.03963E-05
480.0201,-4.043302E-05
480.1201,-4.045657E-05
480.2201,-4.040101E-05
480.3201,-4.035298E-05
480.4201,-4.038029E-05
480.5201,-4.03511E-05
480.6201,-4.032284E-05
480.7201,-4.034074E-05
480.8201,-4.032284E-05
480.9201,-4.031343E-05
481.0201,-4.032661E-05
481.1201,-4.028329E-05
481.2202,-4.02767E-05
481.3202,-4.027952E-05
481.4202,-4.029365E-05
481.5202,-4.029082E-05
481.6202,-4.026163E-05
481.7202,-4.026257E-05
481.8202,-4.024751E-05
481.9202,-4.025881E-05
482.0202,-4.024844E-05
482.1202,-4.025975E-05
482.2202,-4.025598E-05
482.3202,-4.024374E-05
482.4202,-4.023149E-05
482.5202,-4.021549E-05
482.6202,-4.026163E-05
482.7202,-4.028047E-05
482.8203,-4.028612E-05
482.9203,-4.022396E-05
483.0203,-4.024468E-05
483.1203,-4.025316E-05
483.2203,-4.027199E-05
483.3203,-4.032379E-05
483.4203,-4.029365E-05
483.5203,-4.029176E-05
483.6203,-4.031248E-05
483.7203,-4.026728E-05
483.8203,-4.028517E-05
483.9203,-4.029836E-05
484.0203,-4.027199E-05
484.1203,-4.027858E-05
484.2203,-4.030872E-05
484.3203,-4.026257E-05
484.4203,-4.028894E-05
484.5204,-4.031248E-05
484.6204,-4.029176E-05
484.7204,-4.029553E-05
484.8204,-4.031908E-05
484.9204,-4.026822E-05
485.0204,-4.025598E-05
485.1204,-4.031719E-05
485.2204,-4.028612E-05
485.3204,-4.02767E-05
485.4204,-4.027482E-05
485.5204,-4.026257E-05
485.6204,-4.025504E-05
485.7204,-4.023997E-05
485.8204,-4.025127E-05
485.9204,-4.022113E-05
486.0204,-4.022396E-05
486.1205,-4.023526E-05
486.2205,-4.024844E-05
486.3205,-4.029742E-05
486.4205,-4.025787E-05
486.5205,-4.026634E-05
486.6205,-4.027952E-05
486.7205,-4.026351E-05
486.8205,-4.027199E-05
486.9205,-4.028517E-05
487.0205,-4.024751E-05
487.1205,-4.022961E-05
487.2205,-4.026917E-05
487.3205,-4.025504E-05
487.4205,-4.021737E-05
487.5205,-4.021831E-05
487.6205,-4.024751E-05
487.7206,-4.023526E-05
487.8206,-4.024939E-05
487.9206,-4.027105E-05
488.0206,-4.026822E-05
488.1206,-4.023903E-05
488.2206,-4.024562E-05
488.3206,-4.023809E-05
488.4206,-4.022867E-05
488.5206,-4.028706E-05
488.6206,-4.025787E-05
488.7206,-4.030777E-05
488.8206,-4.030401E-05
488.9206,-4.029365E-05
489.0206,-4.026351E-05
489.1206,-4.0288E-05
489.2206,-4.026822E-05
489.3206,-4.028423E-05
489.4207,-4.029176E-05
489.5207,-4.025881E-05
489.6207,-4.026163E-05
489.7207,-4.026634E-05
489.8207,-4.024468E-05
489.9207,-4.023338E-05
490.0207,-4.023809E-05
490.1207,-4.031248E-05
490.2207,-4.034074E-05
490.3207,-4.03445E-05
490.4207,-4.029742E-05
490.5207,-4.030872E-05
490.6207,-4.030966E-05
490.7207,-4.029742E-05
490.8207,-4.030495E-05
490.9207,-4.033885E-05
491.0208,-4.029553E-05
491.1208,-4.027011E-05
491.2208,-4.026069E-05
491.3208,-4.02993E-05
491.4208,-4.031343E-05
491.5208,-4.036899E-05
491.6208,-4.029836E-05
491.7208,-4.033132E-05
491.8208,-4.032473E-05
491.9208,-4.026634E-05
492.0208,-4.032944E-05
492.1208,-4.029176E-05
492.2208,-4.027105E-05
492.3208,-4.028329E-05
492.4208,-4.029836E-05
492.5208,-4.031531E-05
492.6208,-4.032002E-05
492.7209,-4.031625E-05
492.8209,-4.026069E-05
492.9209,-4.028423E-05
493.0209,-4.029176E-05
493.1209,-4.027858E-05
493.2209,-4.027199E-05
493.3209,-4.027105E-05
493.4209,-4.023149E-05
493.5209,-4.02814E-05
493.6209,-4.026728E-05
493.7209,-4.025881E-05
493.8209,-4.026822E-05
493.9209,-4.030213E-05
494.0209,-4.028894E-05
494.1209,-4.028612E-05
494.2209,-4.032002E-05
494.321,-4.026822E-05
494.421,-4.027858E-05
494.521,-4.025504E-05
494.621,-4.022584E-05
494.721,-4.024844E-05
494.821,-4.023903E-05
494.921,-4.025127E-05
495.021,-4.024751E-05
495.121,-4.023903E-05
495.221,-4.025692E-05
495.321,-4.025692E-05
495.421,-4.025975E-05
495.521,-4.02767E-05
495.621,-4.028423E-05
495.721,-4.027952E-05
495.821,-4.034168E-05
495.9211,-4.034827E-05
496.0211,-4.034545E-05
496.1211,-4.038311E-05
496.2211,-4.037935E-05
496.3211,-4.040854E-05
496.4211,-4.045186E-05
496.5211,-4.044997E-05
496.6211,-4.044903E-05
496.7211,-4.04415E-05
496.8211,-4.046599E-05
496.9211,-4.04189E-05
497.0211,-4.042549E-05
497.1211,-4.045092E-05
497.2211,-4.042455E-05
497.3211,-4.045563E-05
497.4211,-4.046222E-05
497.5211,-4.038782E-05
497.6212,-4.042361E-05
497.7212,-4.051495E-05
497.8212,-4.049612E-05
497.9212,-4.043208E-05
498.0212,-4.04933E-05
498.1212,-4.052344E-05
498.2212,-4.048482E-05
498.3212,-4.053379E-05
498.4212,-4.049706E-05
498.5212,-4.053567E-05
498.6212,-4.053379E-05
498.7212,-4.051119E-05
498.8212,-4.049801E-05
498.9212,-4.053379E-05
499.0212,-4.0482E-05
499.1212,-4.055733E-05
499.2213,-4.05724E-05
499.3213,-4.05272E-05
499.4213,-4.054132E-05
499.5213,-4.058182E-05
499.6213,-4.056675E-05
499.7213,-4.055263E-05
499.8213,-4.058276E-05
499.9213,-4.062326E-05
500.0213,-4.058747E-05
500.1213,-4.062137E-05
500.2213,-4.061478E-05
500.3213,-4.064021E-05
500.4213,-4.068164E-05
500.5213,-4.066564E-05
500.6213,-4.067034E-05
500.7213,-4.067411E-05
500.8214,-4.064962E-05
500.9214,-4.069294E-05
501.0214,-4.068447E-05
501.1214,-4.067599E-05
501.2214,-4.067787E-05
501.3214,-4.063832E-05
501.4214,-4.064491E-05
501.5214,-4.069012E-05
501.6214,-4.069671E-05
501.7214,-4.07033E-05
501.8214,-4.069577E-05
501.9214,-4.067505E-05
502.0214,-4.066187E-05
502.1214,-4.068824E-05
502.2214,-4.07146E-05
502.3214,-4.069577E-05
502.4214,-4.071931E-05
502.5215,-4.071931E-05
502.6215,-4.068918E-05
502.7215,-4.073626E-05
502.8215,-4.072967E-05
502.9215,-4.070895E-05
503.0215,-4.073156E-05
503.1215,-4.074756E-05
503.2215,-4.074003E-05
503.3215,-4.077582E-05
503.4215,-4.07777E-05
503.5215,-4.074003E-05
503.6215,-4.077488E-05
503.7215,-4.080595E-05
503.8215,-4.080972E-05
503.9215,-4.080878E-05
504.0215,-4.083985E-05
504.1216,-4.079088E-05
504.2216,-4.080595E-05
504.3216,-4.091614E-05
504.4216,-4.086151E-05
504.5216,-4.085398E-05
504.6216,-4.085304E-05
504.7216,-4.094156E-05
504.8216,-4.097358E-05
504.9216,-4.102066E-05
505.0216,-4.090766E-05
505.1216,-4.094815E-05
505.2216,-4.093497E-05
505.3216,-4.089918E-05
505.4216,-4.089353E-05
505.5216,-4.09086E-05
505.6216,-4.087564E-05
505.7216,-4.091331E-05
505.8217,-4.093402E-05
505.9217,-4.091614E-05
506.0217,-4.089448E-05
506.1217,-4.089636E-05
506.2217,-4.091519E-05
506.3217,-4.089824E-05
506.4217,-4.09086E-05
506.5217,-4.090954E-05
506.6217,-4.092461E-05
506.7217,-4.089918E-05
506.8217,-4.090483E-05
506.9217,-4.09086E-05
507.0217,-4.086245E-05
507.1217,-4.091048E-05
507.2217,-4.093402E-05
507.3217,-4.092273E-05
507.4218,-4.095757E-05
507.5218,-4.09538E-05
507.6218,-4.096322E-05
507.7218,-4.097264E-05
507.8218,-4.095004E-05
507.9218,-4.09651E-05
508.0218,-4.105645E-05
508.1218,-4.102914E-05
508.2218,-4.104515E-05
508.3218,-4.11026E-05
508.4218,-4.107435E-05
508.5218,-4.110354E-05
508.6218,-4.109224E-05
508.7218,-4.10395E-05
508.8218,-4.101407E-05
508.9218,-4.10508E-05
509.0219,-4.104044E-05
509.1219,-4.098677E-05
509.2219,-4.106116E-05
509.3219,-4.106398E-05
509.4219,-4.106587E-05
509.5219,-4.116946E-05
509.6219,-4.112332E-05
509.7219,-4.11073E-05
509.8219,-4.112897E-05
509.9219,-4.111955E-05
510.0219,-4.111202E-05
510.1219,-4.115156E-05
510.2219,-4.111767E-05
510.3219,-4.112049E-05
510.4219,-4.114592E-05
510.5219,-4.110636E-05
510.6219,-4.108282E-05
510.722,-4.111202E-05
510.822,-4.11186E-05
510.922,-4.105928E-05
511.022,-4.111672E-05
511.122,-4.110636E-05
511.222,-4.109035E-05
511.322,-4.116475E-05
511.422,-4.114121E-05
511.522,-4.109318E-05
511.622,-4.112614E-05
511.722,-4.113462E-05
511.822,-4.111578E-05
511.922,-4.113085E-05
512.022,-4.111484E-05
512.122,-4.109601E-05
512.222,-4.113273E-05
512.322,-4.117228E-05
512.4219,-4.115345E-05
512.5219,-4.115062E-05
512.6219,-4.114309E-05
512.7219,-4.112991E-05
512.8218,-4.116286E-05
512.9218,-4.115439E-05
513.0218,-4.116286E-05
513.1218,-4.117417E-05
513.2217,-4.117417E-05
513.3217,-4.118547E-05
513.4217,-4.120995E-05
513.5217,-4.118736E-05
513.6216,-4.120619E-05
513.7216,-4.12156E-05
513.8216,-4.120902E-05
513.9216,-4.124762E-05
514.0215,-4.124103E-05
514.1215,-4.120902E-05
514.2215,-4.122597E-05
514.3215,-4.12448E-05
514.4214,-4.122031E-05
514.5214,-4.126457E-05
514.6214,-4.12561E-05
514.7214,-4.122785E-05
514.8214,-4.124009E-05
514.9213,-4.124762E-05
515.0213,-4.124856E-05
515.1213,-4.124291E-05
515.2213,-4.12495E-05
515.3212,-4.123444E-05
515.4212,-4.128341E-05
515.5212,-4.130978E-05
515.6212,-4.128059E-05
515.7211,-4.132485E-05
515.8211,-4.130978E-05
515.9211,-4.128247E-05
516.0211,-4.132013E-05
516.121,-4.133521E-05
516.221,-4.127399E-05
516.321,-4.131072E-05
516.421,-4.133991E-05
516.5209,-4.128812E-05
516.6209,-4.129942E-05
516.7209,-4.13305E-05
516.8209,-4.135027E-05
516.9208,-4.143314E-05
517.0208,-4.139548E-05
517.1208,-4.137664E-05
517.2208,-4.137664E-05
517.3207,-4.137382E-05
517.4207,-4.135498E-05
517.5207,-4.136534E-05
517.6207,-4.134274E-05
517.7206,-4.135216E-05
517.8206,-4.132391E-05
517.9206,-4.132391E-05
518.0206,-4.130036E-05
518.1205,-4.134556E-05
518.2205,-4.132956E-05
518.3205,-4.134086E-05
518.4205,-4.132485E-05
518.5204,-4.133332E-05
518.6204,-4.132296E-05
518.7204,-4.136628E-05
518.8204,-4.131543E-05
518.9203,-4.130884E-05
519.0203,-4.135122E-05
519.1203,-4.136063E-05
519.2203,-4.129848E-05
519.3203,-4.132391E-05
519.4202,-4.132861E-05
519.5202,-4.133803E-05
519.6202,-4.131731E-05
519.7202,-4.129471E-05
519.8201,-4.129283E-05
519.9201,-4.131731E-05
520.0201,-4.127493E-05
520.1201,-4.133238E-05
520.22,-4.13531E-05
520.32,-4.131166E-05
520.42,-4.136252E-05
520.52,-4.136252E-05
520.6199,-4.136817E-05
520.7199,-4.139924E-05
520.8199,-4.139171E-05
520.9199,-4.13578E-05
521.0198,-4.136534E-05
521.1198,-4.135122E-05
521.2198,-4.14209E-05
521.3198,-4.140113E-05
521.4197,-4.135592E-05
521.5197,-4.134179E-05
521.6197,-4.133897E-05
521.7197,-4.132485E-05
521.8196,-4.134368E-05
521.9196,-4.13305E-05
522.0196,-4.132391E-05
522.1196,-4.131166E-05
522.2195,-4.133521E-05
522.3195,-4.128341E-05
522.4195,-4.131166E-05
522.5195,-4.13126E-05
522.6194,-4.132579E-05
522.7194,-4.131731E-05
522.8194,-4.133991E-05
522.9194,-4.130884E-05
523.0193,-4.139171E-05
523.1193,-4.149059E-05
523.2193,-4.146234E-05
523.3193,-4.142749E-05
523.4193,-4.148588E-05
523.5192,-4.144633E-05
523.6192,-4.140678E-05
523.7192,-4.139642E-05
523.8192,-4.144539E-05
523.9191,-4.145198E-05
524.0191,-4.143314E-05
524.1191,-4.139924E-05
524.2191,-4.137475E-05
524.319,-4.13644E-05
524.419,-4.137664E-05
524.519,-4.134368E-05
524.619,-4.13578E-05
524.7189,-4.137005E-05
524.8189,-4.131354E-05
524.9189,-4.131731E-05
525.0189,-4.136911E-05
525.1188,-4.13644E-05
525.2188,-4.137287E-05
525.3188,-4.138323E-05
525.4188,-4.134368E-05
525.5187,-4.135404E-05
525.6187,-4.135686E-05
525.7187,-4.133803E-05
525.8187,-4.134556E-05
525.9186,-4.135592E-05
526.0186,-4.137852E-05
526.1186,-4.145857E-05
526.2186,-4.14162E-05
526.3185,-4.13983E-05
526.4185,-4.144539E-05
526.5185,-4.145386E-05
526.6185,-4.139265E-05
526.7184,-4.141996E-05
526.8184,-4.142279E-05
526.9184,-4.147458E-05
527.0184,-4.152637E-05
527.1183,-4.151131E-05
527.2183,-4.146893E-05
527.3183,-4.148212E-05
527.4183,-4.145763E-05
527.5182,-4.142843E-05
527.6182,-4.144916E-05
527.7182,-4.145857E-05
527.8182,-4.141337E-05
527.9182,-4.14548E-05
528.0181,-4.143032E-05
528.1181,-4.13983E-05
528.2181,-4.142749E-05
528.3181,-4.146799E-05
528.418,-4.139453E-05
528.518,-4.13983E-05
528.618,-4.149906E-05
528.718,-4.143314E-05
528.8179,-4.142749E-05
528.9179,-4.145009E-05
529.0179,-4.143503E-05
529.1179,-4.145104E-05
529.2178,-4.145009E-05
529.3178,-4.144444E-05
529.4178,-4.146045E-05
529.5178,-4.146234E-05
529.6177,-4.143786E-05
529.7177,-4.145292E-05
529.8177,-4.148117E-05
529.9177,-4.14162E-05
530.0176,-4.144444E-05
530.1176,-4.151037E-05
530.2176,-4.146422E-05
530.3176,-4.146987E-05
530.4175,-4.151225E-05
530.5175,-4.148682E-05
530.6175,-4.146799E-05
530.7175,-4.145104E-05
530.8174,-4.141337E-05
530.9174,-4.148588E-05
531.0174,-4.147552E-05
531.1174,-4.142184E-05
531.2173,-4.148117E-05
531.3173,-4.147835E-05
531.4173,-4.148682E-05
531.5173,-4.146328E-05
531.6172,-4.145009E-05
531.7172,-4.142843E-05
531.8172,-4.148682E-05
531.9172,-4.149812E-05
532.0172,-4.144633E-05
532.1171,-4.148588E-05
532.2171,-4.147835E-05
532.3171,-4.144068E-05
532.4171,-4.146799E-05
532.517,-4.148776E-05
532.617,-4.145669E-05
532.717,-4.145857E-05
532.817,-4.143032E-05
532.9169,-4.148965E-05
533.0169,-4.153956E-05
533.1169,-4.15631E-05
533.2169,-4.149436E-05
533.3168,-4.157158E-05
533.4168,-4.156122E-05
533.5168,-4.150472E-05
533.6168,-4.152073E-05
533.7167,-4.151413E-05
533.8167,-4.148306E-05
533.9167,-4.151319E-05
534.0167,-4.151507E-05
534.1166,-4.149718E-05
534.2166,-4.145198E-05
534.3166,-4.146611E-05
534.4166,-4.148306E-05
534.5165,-4.149906E-05
534.6165,-4.149436E-05
534.7165,-4.146328E-05
534.8165,-4.145951E-05
534.9164,-4.145009E-05
535.0164,-4.147081E-05
535.1164,-4.148212E-05
535.2164,-4.145951E-05
535.3163,-4.147741E-05
535.4163,-4.149153E-05
535.5163,-4.146422E-05
535.6163,-4.149812E-05
535.7162,-4.1484E-05
535.8162,-4.153674E-05
535.9162,-4.155463E-05
536.0162,-4.157817E-05
536.1161,-4.152732E-05
536.2161,-4.15292E-05
536.3161,-4.154898E-05
536.4161,-4.154238E-05
536.5161,-4.162337E-05
536.616,-4.158759E-05
536.716,-4.158664E-05
536.816,-4.158382E-05
536.916,-4.154898E-05
537.0159,-4.161584E-05
537.1159,-4.163844E-05
537.2159,-4.162149E-05
537.3159,-4.165727E-05
537.4158,-4.168836E-05
537.5158,-4.160454E-05
537.6158,-4.171189E-05
537.7158,-4.173638E-05
537.8157,-4.16893E-05
537.9157,-4.175993E-05
538.0157,-4.175521E-05
538.1157,-4.169777E-05
538.2156,-4.170625E-05
538.3156,-4.171284E-05
538.4156,-4.168647E-05
538.5156,-4.167988E-05
538.6155,-4.168553E-05
538.7155,-4.167329E-05
538.8155,-4.164503E-05
538.9155,-4.167235E-05
539.0154,-4.168458E-05
539.1154,-4.169495E-05
539.2154,-4.174768E-05
539.3154,-4.171661E-05
539.4153,-4.169777E-05
539.5153,-4.173732E-05
539.6153,-4.17345E-05
539.7153,-4.17232E-05
539.8152,-4.175333E-05
539.9152,-4.173638E-05
540.0152,-4.170625E-05
540.1152,-4.17458E-05
540.2151,-4.172037E-05
540.3151,-4.171943E-05
540.4151,-4.17797E-05
540.5151,-4.175993E-05
540.6151,-4.175145E-05
540.715,-4.18315E-05
540.815,-4.178347E-05
540.915,-4.178724E-05
541.015,-4.183903E-05
541.1149,-4.179382E-05
541.2149,-4.178818E-05
541.3149,-4.187294E-05
541.4149,-4.185504E-05
541.5148,-4.182961E-05
541.6148,-4.186069E-05
541.7148,-4.182867E-05
541.8148,-4.184563E-05
541.9147,-4.186069E-05
542.0147,-4.185316E-05
542.1147,-4.184091E-05
542.2147,-4.185316E-05
542.3146,-4.186446E-05
542.4146,-4.186257E-05
542.5146,-4.18767E-05
542.6146,-4.185221E-05
542.7145,-4.187105E-05
542.8145,-4.193886E-05
542.9145,-4.196805E-05
543.0145,-4.193697E-05
543.1144,-4.194545E-05
543.2144,-4.195675E-05
543.3144,-4.191814E-05
543.4144,-4.195486E-05
543.5143,-4.194168E-05
543.6143,-4.200101E-05
543.7143,-4.206034E-05
543.8143,-4.200949E-05
543.9142,-4.1985E-05
544.0142,-4.201796E-05
544.1142,-4.203397E-05
544.2142,-4.19963E-05
544.3141,-4.199253E-05
544.4141,-4.199442E-05
544.5141,-4.196334E-05
544.6141,-4.201325E-05
544.7141,-4.202644E-05
544.814,-4.197464E-05
544.914,-4.201419E-05
545.014,-4.206034E-05
545.114,-4.200101E-05
545.2139,-4.206787E-05
545.3139,-4.206787E-05
545.4139,-4.202926E-05
545.5139,-4.206034E-05
545.6138,-4.202832E-05
545.7138,-4.201137E-05
545.8138,-4.204339E-05
545.9138,-4.202078E-05
546.0137,-4.212532E-05
546.1137,-4.215733E-05
546.2137,-4.216299E-05
546.3137,-4.207446E-05
546.4136,-4.209424E-05
546.5136,-4.210931E-05
546.6136,-4.208576E-05
546.7136,-4.210554E-05
546.8135,-4.208012E-05
546.9135,-4.20707E-05
547.0135,-4.20528E-05
547.1135,-4.207823E-05
547.2134,-4.204809E-05
547.3134,-4.204904E-05
547.4134,-4.205092E-05
547.5134,-4.202549E-05
547.6133,-4.203868E-05
547.7133,-4.207164E-05
547.8133,-4.203491E-05
547.9133,-4.204056E-05
548.0132,-4.207728E-05
548.1132,-4.208012E-05
548.2132,-4.206975E-05
548.3132,-4.202455E-05
548.4131,-4.2082E-05
548.5131,-4.207164E-05
548.6131,-4.205469E-05
548.7131,-4.206128E-05
548.813,-4.204433E-05
548.913,-4.207917E-05
549.013,-4.209424E-05
549.113,-4.208388E-05
549.213,-4.20933E-05
549.3129,-4.211401E-05
549.4129,-4.210366E-05
549.5129,-4.205469E-05
549.6129,-4.209141E-05
549.7128,-4.209613E-05
549.8128,-4.21272E-05
549.9128,-4.22355E-05
550.0128,-4.220631E-05
550.1127,-4.217617E-05
550.2127,-4.221196E-05
550.3127,-4.219971E-05
550.4127,-4.215263E-05
550.5126,-4.216204E-05
550.6126,-4.218559E-05
550.7126,-4.211778E-05
550.8126,-4.215639E-05
550.9125,-4.215733E-05
551.0125,-4.213756E-05
551.1125,-4.21611E-05
551.2125,-4.216393E-05
551.3124,-4.217146E-05
551.4124,-4.216487E-05
551.5124,-4.215545E-05
551.6124,-4.217335E-05
551.7123,-4.216675E-05
551.8123,-4.214132E-05
551.9123,-4.2179E-05
552.0123,-4.219218E-05
552.1122,-4.217711E-05
552.2122,-4.215451E-05
552.3122,-4.222702E-05
552.4122,-4.219218E-05
552.5121,-4.215451E-05
552.6121,-4.223267E-05
552.7121,-4.224774E-05
552.8121,-4.221572E-05
552.912,-4.22581E-05
553.012,-4.223644E-05
553.112,-4.221007E-05
553.212,-4.226375E-05
553.312,-4.227506E-05
553.4119,-4.220537E-05
553.5119,-4.224586E-05
553.6119,-4.221007E-05
553.7119,-4.219312E-05
553.8118,-4.227411E-05
553.9118,-4.224774E-05
554.0118,-4.22242E-05
554.1118,-4.227788E-05
554.2117,-4.225151E-05
554.3117,-4.215545E-05
554.4117,-4.219312E-05
554.5117,-4.22289E-05
554.6116,-4.221196E-05
554.7116,-4.224303E-05
554.8116,-4.225339E-05
554.9116,-4.222608E-05
555.0115,-4.224492E-05
555.1115,-4.224774E-05
555.2115,-4.225339E-05
555.3115,-4.23099E-05
555.4114,-4.225998E-05
555.5114,-4.235228E-05
555.6114,-4.238053E-05
555.7114,-4.238806E-05
555.8113,-4.230142E-05
555.9113,-4.232214E-05
556.0113,-4.236169E-05
556.1113,-4.230707E-05
556.2112,-4.23664E-05
556.3112,-4.237582E-05
556.4112,-4.232779E-05
556.5112,-4.239654E-05
556.6111,-4.240972E-05
556.7111,-4.235133E-05
556.8111,-4.238901E-05
556.9111,-4.238994E-05
557.011,-4.233909E-05
557.111,-4.24182E-05
557.211,-4.239936E-05
557.311,-4.235886E-05
557.4109,-4.236734E-05
557.5109,-4.23551E-05
557.6109,-4.235886E-05
557.7109,-4.233721E-05
557.8109,-4.236358E-05
557.9108,-4.235698E-05
558.0108,-4.23664E-05
558.1108,-4.236169E-05
558.2108,-4.232873E-05
558.3107,-4.231555E-05
558.4107,-4.233438E-05
558.5107,-4.23438E-05
558.6107,-4.233909E-05
558.7106,-4.232967E-05
558.8106,-4.235133E-05
558.9106,-4.232308E-05
559.0106,-4.233438E-05
559.1105,-4.235698E-05
559.2105,-4.235792E-05
559.3105,-4.234757E-05
559.4105,-4.239183E-05
559.5104,-4.234285E-05
559.6104,-4.233815E-05
559.7104,-4.23777E-05
559.8104,-4.240595E-05
559.9103,-4.237958E-05
560.0103,-4.238523E-05
560.1103,-4.236358E-05
560.2103,-4.232685E-05
560.3102,-4.237676E-05
560.4102,-4.239183E-05
560.5102,-4.234285E-05
560.6102,-4.238617E-05
560.7101,-4.238241E-05
560.8101,-4.234663E-05
560.9101,-4.236075E-05
561.0101,-4.239842E-05
561.11,-4.238617E-05
561.21,-4.237958E-05
561.31,-4.236828E-05
561.41,-4.236075E-05
561.5099,-4.238523E-05
561.6099,-4.238335E-05
561.7099,-4.237958E-05
561.8099,-4.240972E-05
561.9099,-4.235792E-05
562.0098,-4.236263E-05
562.1098,-4.239748E-05
562.2098,-4.238053E-05
562.3098,-4.239277E-05
562.4097,-4.239371E-05
562.5097,-4.239654E-05
562.6097,-4.242479E-05
562.7097,-4.241443E-05
562.8096,-4.248412E-05
562.9096,-4.248977E-05
563.0096,-4.243797E-05
563.1096,-4.244833E-05
563.2095,-4.242573E-05
563.3095,-4.244551E-05
563.4095,-4.247847E-05
563.5095,-4.246717E-05
563.6094,-4.249448E-05
563.7094,-4.247564E-05
563.8094,-4.245963E-05
563.9094,-4.246434E-05
564.0093,-4.24521E-05
564.1093,-4.245115E-05
564.2093,-4.245021E-05
564.3093,-4.244268E-05
564.4092,-4.24568E-05
564.5092,-4.24342E-05
564.6092,-4.238901E-05
564.7092,-4.241349E-05
564.8091,-4.242385E-05
564.9091,-4.239842E-05
565.0091,-4.240313E-05
565.1091,-4.239277E-05
565.209,-4.242385E-05
565.309,-4.244739E-05
565.409,-4.243609E-05
565.509,-4.240501E-05
565.6089,-4.242479E-05
565.7089,-4.244739E-05
565.8089,-4.243138E-05
565.9089,-4.245774E-05
566.0089,-4.246246E-05
566.1088,-4.244174E-05
566.2088,-4.245963E-05
566.3088,-4.246246E-05
566.4088,-4.242479E-05
566.5087,-4.245115E-05
566.6087,-4.245304E-05
566.7087,-4.243515E-05
566.8087,-4.248883E-05
566.9086,-4.247282E-05
567.0086,-4.243515E-05
567.1086,-4.24634E-05
567.2086,-4.246811E-05
567.3085,-4.243891E-05
567.4085,-4.245398E-05
567.5085,-4.246622E-05
567.6085,-4.244833E-05
567.7084,-4.246152E-05
567.8084,-4.245398E-05
567.9084,-4.243138E-05
568.0084,-4.243891E-05
568.1083,-4.244739E-05
568.2083,-4.242667E-05
568.3083,-4.244174E-05
568.4083,-4.245021E-05
568.5082,-4.242855E-05
568.6082,-4.242761E-05
568.7082,-4.24342E-05
568.8082,-4.243326E-05
568.9081,-4.242667E-05
569.0081,-4.241349E-05
569.1081,-4.24521E-05
569.2081,-4.247282E-05
569.308,-4.24568E-05
569.408,-4.24521E-05
569.508,-4.243515E-05
569.608,-4.245021E-05
569.7079,-4.246152E-05
569.8079,-4.244739E-05
569.9079,-4.246622E-05
570.0079,-4.247847E-05
570.1078,-4.246528E-05
570.2078,-4.244174E-05
570.3078,-4.248695E-05
570.4078,-4.245492E-05
570.5078,-4.242196E-05
570.6077,-4.24568E-05
570.7077,-4.247658E-05
570.8077,-4.241632E-05
570.9077,-4.24634E-05
571.0076,-4.243609E-05
571.1076,-4.241349E-05
571.2076,-4.245115E-05
571.3076,-4.245869E-05
571.4075,-4.240972E-05
571.5075,-4.248035E-05
571.6075,-4.248789E-05
571.7075,-4.243609E-05
571.8074,-4.260372E-05
571.9074,-4.258017E-05
572.0074,-4.252838E-05
572.1074,-4.254533E-05
572.2073,-4.25086E-05
572.3073,-4.253215E-05
572.4073,-4.255381E-05
572.5073,-4.252273E-05
572.6072,-4.248789E-05
572.7072,-4.249542E-05
572.8072,-4.248035E-05
572.9072,-4.249259E-05
573.0071,-4.253497E-05
573.1071,-4.251802E-05
573.2071,-4.251048E-05
573.3071,-4.254816E-05
573.407,-4.250483E-05
573.507,-4.248883E-05
573.607,-4.257264E-05
573.707,-4.252461E-05
573.8069,-4.249353E-05
573.9069,-4.253026E-05
574.0069,-4.253215E-05
574.1069,-4.252838E-05
574.2068,-4.251237E-05
574.3068,-4.249542E-05
574.4068,-4.250201E-05
574.5068,-4.250672E-05
574.6068,-4.249636E-05
574.7067,-4.251237E-05
574.8067,-4.251331E-05
574.9067,-4.24747E-05
575.0067,-4.247282E-05
575.1066,-4.248129E-05
575.2066,-4.252178E-05
575.3066,-4.248317E-05
575.4066,-4.253309E-05
575.5065,-4.257075E-05
575.6065,-4.251048E-05
575.7065,-4.254156E-05
575.8065,-4.252273E-05
575.9064,-4.25086E-05
576.0064,-4.256134E-05
576.1064,-4.252932E-05
576.2064,-4.254816E-05
576.3063,-4.255286E-05
576.4063,-4.254439E-05
576.5063,-4.252649E-05
576.6063,-4.255192E-05
576.7062,-4.254251E-05
576.8062,-4.247376E-05
576.9062,-4.250389E-05
577.0062,-4.251802E-05
577.1061,-4.249259E-05
577.2061,-4.252084E-05
577.3061,-4.249918E-05
577.4061,-4.245398E-05
577.506,-4.249353E-05
577.606,-4.250672E-05
577.706,-4.247282E-05
577.806,-4.249542E-05
577.9059,-4.252178E-05
578.0059,-4.248317E-05
578.1059,-4.254439E-05
578.2059,-4.249824E-05
578.3058,-4.24568E-05
578.4058,-4.252932E-05
578.5058,-4.256887E-05
578.6058,-4.251143E-05
578.7057,-4.257735E-05
578.8057,-4.257547E-05
578.9057,-4.252461E-05
579.0057,-4.255852E-05
579.1057,-4.255192E-05
579.2056,-4.251048E-05
579.3056,-4.255004E-05
579.4056,-4.255757E-05
579.5056,-4.249636E-05
579.6055,-4.254251E-05
579.7055,-4.252461E-05
579.8055,-4.259242E-05
579.9055,-4.26508E-05
580.0054,-4.264044E-05
580.1054,-4.257547E-05
580.2054,-4.261973E-05
580.3054,-4.265174E-05
580.4053,-4.260466E-05
580.5053,-4.265269E-05
580.6053,-4.264327E-05
580.7053,-4.258205E-05
580.8052,-4.26169E-05
580.9052,-4.260843E-05
581.0052,-4.255474E-05
581.1052,-4.261125E-05
581.2051,-4.259524E-05
581.3051,-4.252367E-05
581.4051,-4.258394E-05
581.5051,-4.261408E-05
581.605,-4.257358E-05
581.705,-4.260466E-05
581.805,-4.261408E-05
581.905,-4.258488E-05
582.0049,-4.263762E-05
582.1049,-4.259053E-05
582.2049,-4.255286E-05
582.3049,-4.258771E-05
582.4048,-4.259053E-05
582.5048,-4.256887E-05
582.6048,-4.258677E-05
582.7048,-4.257829E-05
582.8047,-4.256228E-05
582.9047,-4.261313E-05
583.0047,-4.263479E-05
583.1047,-4.25943E-05
583.2047,-4.26395E-05
583.3046,-4.266022E-05
583.4046,-4.260089E-05
583.5046,-4.264139E-05
583.6046,-4.263856E-05
583.7045,-4.26056E-05
583.8045,-4.265457E-05
583.9045,-4.264233E-05
584.0045,-4.261031E-05
584.1044,-4.264139E-05
584.2044,-4.263856E-05
584.3044,-4.259053E-05
584.4044,-4.261408E-05
584.5043,-4.268753E-05
584.6043,-4.263291E-05
584.7043,-4.26395E-05
584.8043,-4.265645E-05
584.9042,-4.261408E-05
585.0042,-4.263385E-05
585.1042,-4.263291E-05
585.2042,-4.262161E-05
585.3041,-4.268E-05
585.4041,-4.265457E-05
585.5041,-4.258959E-05
585.6041,-4.263385E-05
585.704,-4.264986E-05
585.804,-4.263573E-05
585.904,-4.266775E-05
586.004,-4.264609E-05
586.1039,-4.261784E-05
586.2039,-4.266587E-05
586.3039,-4.267246E-05
586.4039,-4.265174E-05
586.5038,-4.269695E-05
586.6038,-4.270825E-05
586.7038,-4.269506E-05
586.8038,-4.271296E-05
586.9037,-4.270071E-05
587.0037,-4.277228E-05
587.1037,-4.280524E-05
587.2037,-4.282219E-05
587.3036,-4.27478E-05
587.4036,-4.274403E-05
587.5036,-4.279018E-05
587.6036,-4.27657E-05
587.7036,-4.277135E-05
587.8035,-4.277888E-05
587.9035,-4.275534E-05
588.0035,-4.27544E-05
588.1035,-4.273838E-05
588.2034,-4.275345E-05
588.3034,-4.270919E-05
588.4034,-4.276664E-05
588.5034,-4.274874E-05
588.6033,-4.274121E-05
588.7033,-4.273556E-05
588.8033,-4.271861E-05
588.9033,-4.274403E-05
589.0032,-4.274121E-05
589.1032,-4.278171E-05
589.2032,-4.281655E-05
589.3032,-4.271955E-05
589.4031,-4.276946E-05
589.5031,-4.281278E-05
589.6031,-4.279677E-05
589.7031,-4.279866E-05
589.803,-4.282409E-05
589.903,-4.277511E-05
590.003,-4.278453E-05
590.103,-4.281843E-05
590.2029,-4.278641E-05
590.3029,-4.282126E-05
590.4029,-4.280807E-05
590.5029,-4.275816E-05
590.6028,-4.281561E-05
590.7028,-4.280807E-05
590.8028,-4.275628E-05
590.9028,-4.282409E-05
591.0027,-4.280713E-05
591.1027,-4.278736E-05
591.2027,-4.282973E-05
591.3027,-4.279959E-05
591.4026,-4.277323E-05
591.5026,-4.281561E-05
591.6026,-4.283444E-05
591.7026,-4.282409E-05
591.8026,-4.285422E-05
591.9025,-4.278641E-05
592.0025,-4.284574E-05
592.1025,-4.286269E-05
592.2025,-4.28109E-05
592.3024,-4.283821E-05
592.4024,-4.285045E-05
592.5024,-4.283162E-05
592.6024,-4.283821E-05
592.7023,-4.283538E-05
592.8023,-4.283067E-05
592.9023,-4.282879E-05
593.0023,-4.285987E-05
593.1022,-4.285045E-05
593.2022,-4.283538E-05
593.3022,-4.288718E-05
593.4022,-4.288529E-05
593.5021,-4.285798E-05
593.6021,-4.285893E-05
593.7021,-4.282973E-05
593.8021,-4.284197E-05
593.902,-4.292391E-05
594.002,-4.292767E-05
594.102,-4.291355E-05
594.202,-4.291825E-05
594.3019,-4.288906E-05
594.4019,-4.288529E-05
594.5019,-4.290036E-05
594.6019,-4.290413E-05
594.7018,-4.283915E-05
594.8018,-4.287211E-05
594.9018,-4.288812E-05
595.0018,-4.286457E-05
595.1017,-4.293803E-05
595.2017,-4.290507E-05
595.3017,-4.287305E-05
595.4017,-4.292767E-05
595.5016,-4.293709E-05
595.6016,-4.293332E-05
595.7016,-4.30096E-05
595.8016,-4.301713E-05
595.9016,-4.306234E-05
596.0015,-4.305669E-05
596.1015,-4.303974E-05
596.2015,-4.303597E-05
596.3015,-4.305198E-05
596.4014,-4.30209E-05
596.5014,-4.302373E-05
596.6014,-4.301243E-05
596.7014,-4.300018E-05
596.8013,-4.300395E-05
596.9013,-4.301902E-05
597.0013,-4.300395E-05
597.1013,-4.296534E-05
597.2012,-4.301243E-05
597.3012,-4.298135E-05
597.4012,-4.296723E-05
597.5012,-4.298135E-05
597.6011,-4.298041E-05
597.7011,-4.295027E-05
597.8011,-4.298041E-05
597.9011,-4.297947E-05
598.001,-4.294274E-05
598.101,-4.300207E-05
598.201,-4.301149E-05
598.301,-4.296346E-05
598.4009,-4.301713E-05
598.5009,-4.300489E-05
598.6009,-4.294368E-05
598.7009,-4.299642E-05
598.8008,-4.304916E-05
598.9008,-4.301337E-05
599.0008,-4.30614E-05
599.1008,-4.304821E-05
599.2007,-4.300678E-05
599.3007,-4.306611E-05
599.4007,-4.309812E-05
599.5007,-4.305293E-05
599.6006,-4.306516E-05
599.7006,-4.308024E-05
599.8006,-4.306046E-05
599.9006,-4.304539E-05
600.0005,-4.304633E-05
