EXPID. 1149
[电化学]: CV : -0.8 >> -0.8 >> -1.5 >> -0.8(V) @ 0.01(V/s) X 10(Seg)
起始电位 (V),-0.8
上限电位 (V),-0.8
下限电位 (V),-1.5
终止电位 (V),-0.8
扫速 (V/s),0.01
电解液 信息:
KOH,1
-0.8,-0.07899632
-0.801,-0.06578409
-0.802,-0.05848824
-0.803,-0.05346085
-0.804,-0.049629
-0.805,-0.04628762
-0.806,-0.04328345
-0.807,-0.04052451
-0.808,-0.03810278
-0.809,-0.03592629
-0.81,-0.03390307
-0.811,-0.03203313
-0.812,-0.0302858
-0.813,-0.0286611
-0.814,-0.02712835
-0.815,-0.02571823
-0.816,-0.02436942
-0.817,-0.02314323
-0.818,-0.022009
-0.819,-0.02096673
-0.82,-0.01995512
-0.821,-0.01903548
-0.822,-0.0182078
-0.823,-0.01741077
-0.824,-0.01667506
-0.825,-0.01597
-0.826,-0.01545298
-0.827,-0.01486134
-0.828,-0.01430343
-0.829,-0.0137731
-0.83,-0.01328569
-0.831,-0.0128228
-0.832,-0.01237524
-0.833,-0.01196753
-0.834,-0.01156901
-0.835,-0.01118583
-0.836,-0.0108333
-0.837,-0.01048997
-0.838,-0.01014357
-0.839,-0.009827821
-0.84,-0.00950901
-0.841,-0.009205527
-0.842,-0.008920438
-0.843,-0.008623085
-0.844,-0.008344127
-0.845,-0.008068234
-0.846,-0.007795405
-0.847,-0.007544036
-0.848,-0.007304928
-0.849,-0.007071951
-0.85,-0.006863499
-0.851,-0.006664242
-0.852,-0.006474182
-0.853,-0.00629945
-0.854,-0.006136979
-0.855,-0.005971443
-0.856,-0.005827365
-0.857,-0.005683288
-0.858,-0.005551472
-0.859,-0.005425788
-0.86,-0.005306234
-0.861,-0.005192811
-0.862,-0.00509165
-0.863,-0.004987423
-0.864,-0.004895459
-0.865,-0.004803495
-0.866,-0.004717661
-0.867,-0.004637958
-0.868,-0.004561321
-0.869,-0.00448775
-0.87,-0.004420309
-0.871,-0.004352869
-0.872,-0.004285428
-0.873,-0.004230249
-0.874,-0.004168939
-0.875,-0.004116826
-0.876,-0.004067779
-0.877,-0.004015665
-0.878,-0.003969683
-0.879,-0.003932897
-0.88,-0.003886915
-0.881,-0.003859326
-0.882,-0.003831736
-0.883,-0.003794951
-0.884,-0.003773492
-0.885,-0.003748968
-0.886,-0.003724444
-0.887,-0.003709117
-0.888,-0.003690724
-0.889,-0.003675397
-0.89,-0.0036662
-0.891,-0.003657004
-0.892,-0.003644742
-0.893,-0.003641677
-0.894,-0.003635545
-0.895,-0.00363248
-0.896,-0.00363248
-0.897,-0.00363248
-0.898,-0.00363248
-0.899,-0.003641677
-0.9,-0.003641677
-0.901,-0.003650873
-0.902,-0.003660069
-0.903,-0.003663135
-0.904,-0.003678462
-0.905,-0.003690724
-0.906,-0.003699921
-0.907,-0.003715248
-0.908,-0.003730575
-0.909,-0.003742838
-0.91,-0.003764296
-0.911,-0.003779623
-0.912,-0.003794951
-0.913,-0.003816409
-0.914,-0.003834802
-0.915,-0.003853195
-0.916,-0.003880784
-0.917,-0.003899177
-0.918,-0.003920636
-0.919,-0.00395129
-0.92,-0.003969683
-0.921,-0.003997272
-0.922,-0.004024862
-0.923,-0.00404632
-0.924,-0.004073909
-0.925,-0.004104564
-0.926,-0.004122957
-0.927,-0.004156678
-0.928,-0.004187332
-0.929,-0.004208791
-0.93,-0.00423638
-0.931,-0.004267035
-0.932,-0.004291559
-0.933,-0.004322214
-0.934,-0.004358999
-0.935,-0.004380458
-0.936,-0.004414178
-0.937,-0.004441767
-0.938,-0.004466291
-0.939,-0.004500012
-0.94,-0.004530666
-0.941,-0.004552125
-0.942,-0.00458891
-0.943,-0.0046165
-0.944,-0.004644089
-0.945,-0.00467781
-0.946,-0.004705399
-0.947,-0.004729923
-0.948,-0.004763643
-0.949,-0.004785101
-0.95,-0.004815756
-0.951,-0.004849477
-0.952,-0.004870935
-0.953,-0.00490159
-0.954,-0.004932245
-0.955,-0.004953703
-0.956,-0.004984358
-0.957,-0.005011947
-0.958,-0.00503034
-0.959,-0.00506406
-0.96,-0.005088584
-0.961,-0.005110043
-0.962,-0.005143763
-0.963,-0.005165222
-0.964,-0.005192811
-0.965,-0.005217335
-0.966,-0.005235727
-0.967,-0.005260251
-0.968,-0.005287841
-0.969,-0.005303168
-0.97,-0.005330757
-0.971,-0.005355281
-0.972,-0.005370609
-0.973,-0.005395133
-0.974,-0.005416591
-0.975,-0.005431918
-0.976,-0.005453377
-0.977,-0.0054779
-0.978,-0.005490162
-0.979,-0.005508556
-0.98,-0.005536145
-0.981,-0.005545341
-0.982,-0.0055668
-0.983,-0.005591323
-0.984,-0.005597454
-0.985,-0.005621978
-0.986,-0.00563424
-0.987,-0.005646502
-0.988,-0.005667961
-0.989,-0.005677157
-0.99,-0.005692484
-0.991,-0.005710877
-0.992,-0.005717008
-0.993,-0.005735401
-0.994,-0.005750729
-0.995,-0.00575686
-0.996,-0.005772187
-0.997,-0.00579058
-0.998,-0.00579671
-0.999,-0.005812038
-1,-0.005821235
-1.001,-0.005830431
-1.002,-0.005848824
-1.003,-0.005854954
-1.004,-0.005867217
-1.005,-0.005879479
-1.006,-0.00588561
-1.007,-0.005894806
-1.008,-0.005910133
-1.009,-0.005916264
-1.01,-0.005922395
-1.011,-0.005937723
-1.012,-0.005946919
-1.013,-0.005946919
-1.014,-0.005962247
-1.015,-0.005971443
-1.016,-0.005971443
-1.017,-0.005986771
-1.018,-0.005986771
-1.019,-0.005995967
-1.02,-0.006011295
-1.021,-0.006005164
-1.022,-0.006023556
-1.023,-0.006029687
-1.024,-0.006032753
-1.025,-0.006041949
-1.026,-0.006045015
-1.027,-0.00604808
-1.028,-0.006060342
-1.029,-0.006060342
-1.03,-0.006069539
-1.031,-0.006072604
-1.032,-0.006072604
-1.033,-0.0060818
-1.034,-0.006084866
-1.035,-0.006087931
-1.036,-0.006100194
-1.037,-0.006097128
-1.038,-0.006100194
-1.039,-0.00610939
-1.04,-0.006103259
-1.041,-0.00610939
-1.042,-0.006118587
-1.043,-0.006115521
-1.044,-0.006115521
-1.045,-0.006127783
-1.046,-0.006118587
-1.047,-0.006127783
-1.048,-0.006136979
-1.049,-0.006124718
-1.05,-0.006136979
-1.051,-0.006140045
-1.052,-0.006130849
-1.053,-0.006140045
-1.054,-0.006140045
-1.055,-0.006130849
-1.056,-0.006140045
-1.057,-0.006140045
-1.058,-0.006133914
-1.059,-0.006140045
-1.06,-0.00614311
-1.061,-0.006130849
-1.062,-0.006136979
-1.063,-0.006136979
-1.064,-0.006127783
-1.065,-0.006133914
-1.066,-0.006136979
-1.067,-0.006124718
-1.068,-0.006127783
-1.069,-0.006124718
-1.07,-0.006115521
-1.071,-0.006118587
-1.072,-0.006112455
-1.073,-0.006112455
-1.074,-0.00610939
-1.075,-0.006100194
-1.076,-0.006097128
-1.077,-0.006087931
-1.078,-0.006084866
-1.079,-0.006078735
-1.08,-0.0060818
-1.081,-0.006069539
-1.082,-0.006063408
-1.083,-0.006054211
-1.084,-0.006041949
-1.085,-0.006038884
-1.086,-0.006029687
-1.087,-0.006023556
-1.088,-0.006020491
-1.089,-0.006008229
-1.09,-0.006002098
-1.091,-0.005992902
-1.092,-0.00598064
-1.093,-0.005974509
-1.094,-0.005965312
-1.095,-0.005949985
-1.096,-0.005949985
-1.097,-0.005937723
-1.098,-0.005922395
-1.099,-0.005916264
-1.1,-0.005907068
-1.101,-0.005891741
-1.102,-0.005882544
-1.103,-0.005879479
-1.104,-0.005861086
-1.105,-0.005861086
-1.106,-0.005845758
-1.107,-0.005833496
-1.108,-0.005821235
-1.109,-0.005805907
-1.11,-0.00579671
-1.111,-0.005787514
-1.112,-0.005775252
-1.113,-0.005769121
-1.114,-0.005753794
-1.115,-0.005741532
-1.116,-0.005735401
-1.117,-0.005723139
-1.118,-0.005704746
-1.119,-0.005701681
-1.12,-0.005680223
-1.121,-0.005677157
-1.122,-0.005667961
-1.123,-0.005646502
-1.124,-0.005646502
-1.125,-0.005637306
-1.126,-0.005612782
-1.127,-0.005615847
-1.128,-0.005600519
-1.129,-0.005582127
-1.13,-0.005579061
-1.131,-0.005563734
-1.132,-0.005548407
-1.133,-0.005542276
-1.134,-0.005536145
-1.135,-0.005517752
-1.136,-0.005511621
-1.137,-0.005502424
-1.138,-0.005484032
-1.139,-0.005471769
-1.14,-0.005471769
-1.141,-0.005459507
-1.142,-0.005447246
-1.143,-0.005438049
-1.144,-0.005425788
-1.145,-0.005416591
-1.146,-0.005407395
-1.147,-0.005395133
-1.148,-0.005389001
-1.149,-0.005376739
-1.15,-0.005367543
-1.151,-0.005361412
-1.152,-0.005343019
-1.153,-0.005333823
-1.154,-0.005327692
-1.155,-0.005312365
-1.156,-0.005306234
-1.157,-0.005297037
-1.158,-0.00528171
-1.159,-0.005275579
-1.16,-0.005266382
-1.161,-0.005251055
-1.162,-0.005241858
-1.163,-0.005235727
-1.164,-0.0052204
-1.165,-0.005214269
-1.166,-0.005205072
-1.167,-0.00518668
-1.168,-0.005177483
-1.169,-0.005171353
-1.17,-0.005152959
-1.171,-0.005143763
-1.172,-0.005134566
-1.173,-0.005122304
-1.174,-0.005110043
-1.175,-0.005097781
-1.176,-0.005085519
-1.177,-0.005076322
-1.178,-0.00506406
-1.179,-0.005048733
-1.18,-0.005039536
-1.181,-0.005024209
-1.182,-0.005015012
-1.183,-0.005002751
-1.184,-0.004987423
-1.185,-0.004978227
-1.186,-0.0049629
-1.187,-0.004947572
-1.188,-0.004941441
-1.189,-0.004923048
-1.19,-0.004907721
-1.191,-0.00490159
-1.192,-0.004889328
-1.193,-0.004867869
-1.194,-0.004864804
-1.195,-0.004855608
-1.196,-0.004831084
-1.197,-0.004831084
-1.198,-0.004812691
-1.199,-0.004797364
-1.2,-0.004791233
-1.201,-0.00477284
-1.202,-0.004760577
-1.203,-0.004751381
-1.204,-0.004739119
-1.205,-0.004732988
-1.206,-0.004717661
-1.207,-0.004705399
-1.208,-0.004696202
-1.209,-0.004690072
-1.21,-0.004671679
-1.211,-0.004668613
-1.212,-0.004656351
-1.213,-0.004641024
-1.214,-0.004637958
-1.215,-0.004631828
-1.216,-0.004613434
-1.217,-0.004610369
-1.218,-0.004595041
-1.219,-0.004591976
-1.22,-0.004582779
-1.221,-0.004570518
-1.222,-0.004564387
-1.223,-0.00455519
-1.224,-0.004542928
-1.225,-0.004539863
-1.226,-0.004530666
-1.227,-0.004518405
-1.228,-0.004518405
-1.229,-0.004503077
-1.23,-0.004493881
-1.231,-0.004493881
-1.232,-0.004484684
-1.233,-0.004475488
-1.234,-0.004469357
-1.235,-0.00446016
-1.236,-0.004454029
-1.237,-0.004454029
-1.238,-0.004441767
-1.239,-0.004435637
-1.24,-0.004432571
-1.241,-0.004423374
-1.242,-0.004417243
-1.243,-0.004414178
-1.244,-0.004404982
-1.245,-0.004398851
-1.246,-0.004398851
-1.247,-0.004386589
-1.248,-0.004386589
-1.249,-0.004377393
-1.25,-0.004368196
-1.251,-0.004368196
-1.252,-0.00436513
-1.253,-0.004352869
-1.254,-0.004355934
-1.255,-0.004346738
-1.256,-0.004340607
-1.257,-0.004340607
-1.258,-0.004337541
-1.259,-0.004325279
-1.26,-0.004328344
-1.261,-0.004322214
-1.262,-0.004316083
-1.263,-0.004313017
-1.264,-0.004316083
-1.265,-0.004309952
-1.266,-0.004306886
-1.267,-0.00429769
-1.268,-0.004300755
-1.269,-0.004294624
-1.27,-0.004288493
-1.271,-0.004288493
-1.272,-0.004285428
-1.273,-0.004279297
-1.274,-0.004282362
-1.275,-0.004276231
-1.276,-0.004270101
-1.277,-0.004270101
-1.278,-0.004270101
-1.279,-0.004260904
-1.28,-0.004260904
-1.281,-0.004260904
-1.282,-0.004254773
-1.283,-0.004254773
-1.284,-0.004251707
-1.285,-0.004248642
-1.286,-0.004251707
-1.287,-0.004245576
-1.288,-0.004242511
-1.289,-0.004245576
-1.29,-0.00423638
-1.291,-0.00423638
-1.292,-0.004239446
-1.293,-0.00423638
-1.294,-0.004233315
-1.295,-0.00423638
-1.296,-0.004227184
-1.297,-0.004230249
-1.298,-0.004233315
-1.299,-0.004227184
-1.3,-0.004227184
-1.301,-0.004230249
-1.302,-0.004224118
-1.303,-0.004224118
-1.304,-0.004227184
-1.305,-0.004221053
-1.306,-0.004221053
-1.307,-0.004224118
-1.308,-0.004224118
-1.309,-0.004221053
-1.31,-0.004224118
-1.311,-0.004217987
-1.312,-0.004224118
-1.313,-0.004221053
-1.314,-0.004221053
-1.315,-0.004224118
-1.316,-0.004224118
-1.317,-0.004224118
-1.318,-0.004224118
-1.319,-0.004224118
-1.32,-0.004221053
-1.321,-0.004221053
-1.322,-0.004227184
-1.323,-0.004224118
-1.324,-0.004227184
-1.325,-0.004227184
-1.326,-0.004224118
-1.327,-0.004230249
-1.328,-0.004230249
-1.329,-0.004230249
-1.33,-0.00423638
-1.331,-0.004233315
-1.332,-0.00423638
-1.333,-0.00423638
-1.334,-0.004239446
-1.335,-0.004239446
-1.336,-0.004245576
-1.337,-0.004242511
-1.338,-0.004245576
-1.339,-0.004248642
-1.34,-0.004248642
-1.341,-0.004251707
-1.342,-0.004257839
-1.343,-0.004257839
-1.344,-0.004260904
-1.345,-0.004267035
-1.346,-0.004260904
-1.347,-0.004270101
-1.348,-0.004276231
-1.349,-0.004276231
-1.35,-0.004279297
-1.351,-0.004285428
-1.352,-0.004285428
-1.353,-0.004291559
-1.354,-0.00430382
-1.355,-0.00429769
-1.356,-0.004309952
-1.357,-0.004319148
-1.358,-0.004316083
-1.359,-0.004328344
-1.36,-0.004328344
-1.361,-0.004328344
-1.362,-0.004337541
-1.363,-0.004340607
-1.364,-0.004349803
-1.365,-0.004355934
-1.366,-0.004358999
-1.367,-0.004368196
-1.368,-0.004377393
-1.369,-0.004383523
-1.37,-0.004389654
-1.371,-0.004395785
-1.372,-0.004401916
-1.373,-0.004411113
-1.374,-0.004423374
-1.375,-0.004429505
-1.376,-0.004438702
-1.377,-0.004444833
-1.378,-0.004457095
-1.379,-0.004469357
-1.38,-0.004475488
-1.381,-0.004490815
-1.382,-0.004506143
-1.383,-0.004512274
-1.384,-0.004527601
-1.385,-0.004542928
-1.386,-0.00454906
-1.387,-0.004567452
-1.388,-0.004582779
-1.389,-0.004591976
-1.39,-0.004613434
-1.391,-0.004628762
-1.392,-0.004641024
-1.393,-0.004665548
-1.394,-0.004680875
-1.395,-0.004696202
-1.396,-0.004723792
-1.397,-0.004739119
-1.398,-0.004763643
-1.399,-0.004788167
-1.4,-0.00480656
-1.401,-0.004834149
-1.402,-0.004861739
-1.403,-0.004886262
-1.404,-0.004913852
-1.405,-0.004944507
-1.406,-0.004972096
-1.407,-0.005005816
-1.408,-0.005036471
-1.409,-0.005073257
-1.41,-0.005113108
-1.411,-0.005146828
-1.412,-0.00518668
-1.413,-0.005229597
-1.414,-0.005269447
-1.415,-0.005321561
-1.416,-0.005370609
-1.417,-0.005413526
-1.418,-0.005474835
-1.419,-0.005530014
-1.42,-0.005582127
-1.421,-0.005652633
-1.422,-0.005713942
-1.423,-0.005781383
-1.424,-0.005861086
-1.425,-0.005931592
-1.426,-0.006011295
-1.427,-0.006100194
-1.428,-0.006186027
-1.429,-0.006277991
-1.43,-0.006382218
-1.431,-0.00648951
-1.432,-0.006590671
-1.433,-0.006716356
-1.434,-0.006832844
-1.435,-0.006958528
-1.436,-0.007102606
-1.437,-0.007240553
-1.438,-0.007387696
-1.439,-0.007550166
-1.44,-0.007706506
-1.441,-0.007884304
-1.442,-0.008062102
-1.443,-0.008252162
-1.444,-0.008454484
-1.445,-0.008659871
-1.446,-0.008874455
-1.447,-0.009104366
-1.448,-0.009334277
-1.449,-0.009582582
-1.45,-0.009837016
-1.451,-0.01009758
-1.452,-0.01037654
-1.453,-0.01065857
-1.454,-0.01094979
-1.455,-0.01125634
-1.456,-0.01157208
-1.457,-0.01189396
-1.458,-0.01222503
-1.459,-0.01257143
-1.46,-0.01292089
-1.461,-0.01328262
-1.462,-0.01365661
-1.463,-0.0140306
-1.464,-0.01442298
-1.465,-0.01482762
-1.466,-0.0152292
-1.467,-0.01564611
-1.468,-0.01607221
-1.469,-0.01650138
-1.47,-0.01694587
-1.471,-0.01739343
-1.472,-0.01784099
-1.473,-0.01831308
-1.474,-0.0187729
-1.475,-0.01924805
-1.476,-0.0197324
-1.477,-0.02021367
-1.478,-0.02070415
-1.479,-0.02120689
-1.48,-0.02170963
-1.481,-0.02221544
-1.482,-0.02272737
-1.483,-0.02323624
-1.484,-0.02375124
-1.485,-0.02428157
-1.486,-0.02480577
-1.487,-0.0253361
-1.488,-0.02587562
-1.489,-0.02640902
-1.49,-0.02694241
-1.491,-0.02748193
-1.492,-0.02801226
-1.493,-0.02855485
-1.494,-0.02910664
-1.495,-0.02964923
-1.496,-0.03020102
-1.497,-0.03086824
-1.498,-0.03138937
-1.499,-0.03194116
-1.5,-0.03230902
-1.499,-0.03230902
-1.498,-0.03227837
-1.497,-0.03221706
-1.496,-0.03215575
-1.495,-0.03209443
-1.494,-0.03203313
-1.493,-0.03194116
-1.492,-0.03187985
-1.491,-0.03178789
-1.49,-0.03169592
-1.489,-0.03157331
-1.488,-0.03148134
-1.487,-0.03135872
-1.486,-0.03126676
-1.485,-0.03114414
-1.484,-0.03102152
-1.483,-0.0308989
-1.482,-0.03074562
-1.481,-0.030623
-1.48,-0.03046973
-1.479,-0.03034711
-1.478,-0.03019384
-1.477,-0.03004056
-1.476,-0.02988729
-1.475,-0.02973401
-1.474,-0.02958074
-1.473,-0.02942747
-1.472,-0.02924354
-1.471,-0.02909026
-1.47,-0.02893699
-1.469,-0.02875306
-1.468,-0.02856913
-1.467,-0.02841586
-1.466,-0.02826258
-1.465,-0.02807865
-1.464,-0.02789472
-1.463,-0.0277108
-1.462,-0.02752687
-1.461,-0.02737359
-1.46,-0.02718966
-1.459,-0.02700574
-1.458,-0.02682181
-1.457,-0.02663788
-1.456,-0.02642329
-1.455,-0.02627002
-1.454,-0.02605543
-1.453,-0.02587151
-1.452,-0.02568758
-1.451,-0.02550365
-1.45,-0.02528906
-1.449,-0.02510513
-1.448,-0.02492121
-1.447,-0.02470662
-1.446,-0.02452269
-1.445,-0.02430811
-1.444,-0.02412418
-1.443,-0.02394025
-1.442,-0.02372567
-1.441,-0.02354174
-1.44,-0.02332716
-1.439,-0.02311257
-1.438,-0.02292864
-1.437,-0.02271406
-1.436,-0.02253013
-1.435,-0.02231555
-1.434,-0.02210096
-1.433,-0.02188638
-1.432,-0.02170245
-1.431,-0.02151852
-1.43,-0.02130394
-1.429,-0.02108935
-1.428,-0.02090542
-1.427,-0.02069084
-1.426,-0.02047626
-1.425,-0.02029233
-1.424,-0.02007774
-1.423,-0.01989382
-1.422,-0.01967923
-1.421,-0.01946465
-1.42,-0.01928072
-1.419,-0.01906613
-1.418,-0.01888221
-1.417,-0.01866762
-1.416,-0.01848369
-1.415,-0.01826911
-1.414,-0.01808518
-1.413,-0.0178706
-1.412,-0.01768667
-1.411,-0.01747208
-1.41,-0.01728815
-1.409,-0.01707357
-1.408,-0.01688964
-1.407,-0.01667506
-1.406,-0.01649113
-1.405,-0.0163072
-1.404,-0.01609262
-1.403,-0.01600783
-1.402,-0.01582084
-1.401,-0.01563078
-1.4,-0.01544992
-1.399,-0.01525679
-1.398,-0.01506673
-1.397,-0.01488587
-1.396,-0.01469581
-1.395,-0.01451188
-1.394,-0.01433408
-1.393,-0.01414402
-1.392,-0.01397235
-1.391,-0.01379456
-1.39,-0.01361369
-1.389,-0.01343896
-1.388,-0.01326423
-1.387,-0.01308643
-1.386,-0.01291783
-1.385,-0.01275229
-1.384,-0.01258062
-1.383,-0.01240896
-1.382,-0.01224342
-1.381,-0.01206869
-1.38,-0.01190622
-1.379,-0.01174375
-1.378,-0.01158434
-1.377,-0.011428
-1.376,-0.01127166
-1.375,-0.01110919
-1.374,-0.01095898
-1.373,-0.01080264
-1.372,-0.01065244
-1.371,-0.01050836
-1.37,-0.01036122
-1.369,-0.01020794
-1.368,-0.01006999
-1.367,-0.00992285
-1.366,-0.009775707
-1.365,-0.009643891
-1.364,-0.009499813
-1.363,-0.009364933
-1.362,-0.009233117
-1.361,-0.009098236
-1.36,-0.008969485
-1.359,-0.0088438
-1.358,-0.008718115
-1.357,-0.008595496
-1.356,-0.008472877
-1.355,-0.008350258
-1.354,-0.00823377
-1.353,-0.008114216
-1.352,-0.008003858
-1.351,-0.00788737
-1.35,-0.007780078
-1.349,-0.00766972
-1.348,-0.007565494
-1.347,-0.007461268
-1.346,-0.007357041
-1.345,-0.007255881
-1.344,-0.007160851
-1.343,-0.00705969
-1.342,-0.006970791
-1.341,-0.006869629
-1.34,-0.006783796
-1.339,-0.006694897
-1.338,-0.006602933
-1.337,-0.006520165
-1.336,-0.006437397
-1.335,-0.006348498
-1.334,-0.006271861
-1.333,-0.006189092
-1.332,-0.006112455
-1.331,-0.006035818
-1.33,-0.005962247
-1.329,-0.005888675
-1.328,-0.0058243
-1.327,-0.005747663
-1.326,-0.005686353
-1.325,-0.005615847
-1.324,-0.005551472
-1.323,-0.005490162
-1.322,-0.005431918
-1.321,-0.005364478
-1.32,-0.005312365
-1.319,-0.005251055
-1.318,-0.005195876
-1.317,-0.005140697
-1.316,-0.005088584
-1.315,-0.005036471
-1.314,-0.004990489
-1.313,-0.00493531
-1.312,-0.004889328
-1.311,-0.004843346
-1.31,-0.004791233
-1.309,-0.004754446
-1.308,-0.00471153
-1.307,-0.004659417
-1.306,-0.004625696
-1.305,-0.004585845
-1.304,-0.004542928
-1.303,-0.004506143
-1.302,-0.004469357
-1.301,-0.00442644
-1.3,-0.004395785
-1.299,-0.004358999
-1.298,-0.004325279
-1.297,-0.004294624
-1.296,-0.004257839
-1.295,-0.004224118
-1.294,-0.004193463
-1.293,-0.004162808
-1.292,-0.004132153
-1.291,-0.004104564
-1.29,-0.004073909
-1.289,-0.00404632
-1.288,-0.004018731
-1.287,-0.003991141
-1.286,-0.003966617
-1.285,-0.003939028
-1.284,-0.00391757
-1.283,-0.003893046
-1.282,-0.003868522
-1.281,-0.003843998
-1.28,-0.00382254
-1.279,-0.003798016
-1.278,-0.003779623
-1.277,-0.003755099
-1.276,-0.003730575
-1.275,-0.003712183
-1.274,-0.00369379
-1.273,-0.003669266
-1.272,-0.003657004
-1.271,-0.003635545
-1.27,-0.003607956
-1.269,-0.003595694
-1.268,-0.003577302
-1.267,-0.003555843
-1.266,-0.003540515
-1.265,-0.003519057
-1.264,-0.003500664
-1.263,-0.003485337
-1.262,-0.003466944
-1.261,-0.003451617
-1.26,-0.003433224
-1.259,-0.003414831
-1.258,-0.003402569
-1.257,-0.003384176
-1.256,-0.003368848
-1.255,-0.003353521
-1.254,-0.003341259
-1.253,-0.003322866
-1.252,-0.003307539
-1.251,-0.003295277
-1.25,-0.003276884
-1.249,-0.003264622
-1.248,-0.00325236
-1.247,-0.003233967
-1.246,-0.00321864
-1.245,-0.003206378
-1.244,-0.003191051
-1.243,-0.003178789
-1.242,-0.003163461
-1.241,-0.003148134
-1.24,-0.003138937
-1.239,-0.00312361
-1.238,-0.003111348
-1.237,-0.003099086
-1.236,-0.003083759
-1.235,-0.003074562
-1.234,-0.003059235
-1.233,-0.003043907
-1.232,-0.003034711
-1.231,-0.003022449
-1.23,-0.003010187
-1.229,-0.002997925
-1.228,-0.002982598
-1.227,-0.002973401
-1.226,-0.002961139
-1.225,-0.002945812
-1.224,-0.002936616
-1.223,-0.002924354
-1.222,-0.002912092
-1.221,-0.00289983
-1.22,-0.002890633
-1.219,-0.002878371
-1.218,-0.00286611
-1.217,-0.002850782
-1.216,-0.002841586
-1.215,-0.002832389
-1.214,-0.002820127
-1.213,-0.002810931
-1.212,-0.002801734
-1.211,-0.002786407
-1.21,-0.002780276
-1.209,-0.002768014
-1.208,-0.002755752
-1.207,-0.002746556
-1.206,-0.002737359
-1.205,-0.002722032
-1.204,-0.002715901
-1.203,-0.002703639
-1.202,-0.002694442
-1.201,-0.002685246
-1.2,-0.002676049
-1.199,-0.002663787
-1.198,-0.002654591
-1.197,-0.002645395
-1.196,-0.002633133
-1.195,-0.002627002
-1.194,-0.00261474
-1.193,-0.002602478
-1.192,-0.002596347
-1.191,-0.002590216
-1.19,-0.002577954
-1.189,-0.002568757
-1.188,-0.002559561
-1.187,-0.002550365
-1.186,-0.002544234
-1.185,-0.002531972
-1.184,-0.002522775
-1.183,-0.002516645
-1.182,-0.002504382
-1.181,-0.002498251
-1.18,-0.002489055
-1.179,-0.002476793
-1.178,-0.002470662
-1.177,-0.002461466
-1.176,-0.002452269
-1.175,-0.002443073
-1.174,-0.002436942
-1.173,-0.00242468
-1.172,-0.002418549
-1.171,-0.002409352
-1.17,-0.002400156
-1.169,-0.002394025
-1.168,-0.002384829
-1.167,-0.002378698
-1.166,-0.002372567
-1.165,-0.002360305
-1.164,-0.002354174
-1.163,-0.002348043
-1.162,-0.002338846
-1.161,-0.00232965
-1.16,-0.002323519
-1.159,-0.002317388
-1.158,-0.002308191
-1.157,-0.002302061
-1.156,-0.002292864
-1.155,-0.002286733
-1.154,-0.002277537
-1.153,-0.002271406
-1.152,-0.002265275
-1.151,-0.002256078
-1.15,-0.002246882
-1.149,-0.002240751
-1.148,-0.002231555
-1.147,-0.002225423
-1.146,-0.002219293
-1.145,-0.002207031
-1.144,-0.002207031
-1.143,-0.002197834
-1.142,-0.002188638
-1.141,-0.002182507
-1.14,-0.002176376
-1.139,-0.002167179
-1.138,-0.002161048
-1.137,-0.002154917
-1.136,-0.002145721
-1.135,-0.00213959
-1.134,-0.002133459
-1.133,-0.002121197
-1.132,-0.002118132
-1.131,-0.002108935
-1.13,-0.002102804
-1.129,-0.002096673
-1.128,-0.002090542
-1.127,-0.002081346
-1.126,-0.002075215
-1.125,-0.002066019
-1.124,-0.002059887
-1.123,-0.002053756
-1.122,-0.00204456
-1.121,-0.002038429
-1.12,-0.002032298
-1.119,-0.002023102
-1.118,-0.002016971
-1.117,-0.002007774
-1.116,-0.002001643
-1.115,-0.001995512
-1.114,-0.001986316
-1.113,-0.001980185
-1.112,-0.001974054
-1.111,-0.001961792
-1.11,-0.001958727
-1.109,-0.00194953
-1.108,-0.001940334
-1.107,-0.001934203
-1.106,-0.001928072
-1.105,-0.00191581
-1.104,-0.001912744
-1.103,-0.001900482
-1.102,-0.001894351
-1.101,-0.00188822
-1.1,-0.001879024
-1.099,-0.001869828
-1.098,-0.001863697
-1.097,-0.001851435
-1.096,-0.001848369
-1.095,-0.001839173
-1.094,-0.001829976
-1.093,-0.001823845
-1.092,-0.001814649
-1.091,-0.001805453
-1.09,-0.001796256
-1.089,-0.001790125
-1.088,-0.001777863
-1.087,-0.001774798
-1.086,-0.001765601
-1.085,-0.001756405
-1.084,-0.001750274
-1.083,-0.001741077
-1.082,-0.001731881
-1.081,-0.001722684
-1.08,-0.001716554
-1.079,-0.001707357
-1.078,-0.001701226
-1.077,-0.00169203
-1.076,-0.001682833
-1.075,-0.001676702
-1.074,-0.001667506
-1.073,-0.001658309
-1.072,-0.001652178
-1.071,-0.001642982
-1.07,-0.001636851
-1.069,-0.00163072
-1.068,-0.001621523
-1.067,-0.001615393
-1.066,-0.001643087
-1.065,-0.001634504
-1.064,-0.001628986
-1.063,-0.001621322
-1.062,-0.001612432
-1.061,-0.001608754
-1.06,-0.001599557
-1.059,-0.001593733
-1.058,-0.001589441
-1.057,-0.001579632
-1.056,-0.00157442
-1.055,-0.001568289
-1.054,-0.00155756
-1.053,-0.001554801
-1.052,-0.001547751
-1.051,-0.001538554
-1.05,-0.001533649
-1.049,-0.001528438
-1.048,-0.001519855
-1.047,-0.001513417
-1.046,-0.001508512
-1.045,-0.001500542
-1.044,-0.001496251
-1.043,-0.001491652
-1.042,-0.001483069
-1.041,-0.001476938
-1.04,-0.00147234
-1.039,-0.001462837
-1.038,-0.001457625
-1.037,-0.00145456
-1.036,-0.001444444
-1.035,-0.001440459
-1.034,-0.00143586
-1.033,-0.001426971
-1.032,-0.001423292
-1.031,-0.001417161
-1.03,-0.001409804
-1.029,-0.001404899
-1.028,-0.001399075
-1.027,-0.001391717
-1.026,-0.001388345
-1.025,-0.001381295
-1.024,-0.001373938
-1.023,-0.001371485
-1.022,-0.001364435
-1.021,-0.001356771
-1.02,-0.001354012
-1.019,-0.001347575
-1.018,-0.001341444
-1.017,-0.001333473
-1.016,-0.001329795
-1.015,-0.001322438
-1.014,-0.00131692
-1.013,-0.001311402
-1.012,-0.001306804
-1.011,-0.00129914
-1.01,-0.001294848
-1.009,-0.001288411
-1.008,-0.00128136
-1.007,-0.001275536
-1.006,-0.001271857
-1.005,-0.001262661
-1.004,-0.001258676
-1.003,-0.001255917
-1.002,-0.001246107
-1.001,-0.001243042
-1,-0.001239057
-0.9990003,-0.001230167
-0.9980002,-0.001225568
-0.9970002,-0.00122097
-0.9960002,-0.001213306
-0.9950002,-0.001209321
-0.9940003,-0.00120319
-0.9930002,-0.001196753
-0.9920002,-0.001191848
-0.9910002,-0.001186024
-0.9900002,-0.00117928
-0.9890002,-0.001174988
-0.9880002,-0.001168857
-0.9870002,-0.001163339
-0.9860002,-0.001158741
-0.9850003,-0.001149544
-0.9840002,-0.001147092
-0.9830002,-0.001138815
-0.9820002,-0.001133297
-0.9810002,-0.001129619
-0.9800002,-0.001123488
-0.9790002,-0.001116744
-0.9780002,-0.001112452
-0.9770002,-0.001104788
-0.9760002,-0.001098657
-0.9750002,-0.001093753
-0.9740002,-0.001087928
-0.9730002,-0.001080878
-0.9720002,-0.001076586
-0.9710003,-0.001070148
-0.9700002,-0.001064017
-0.9690002,-0.001058806
-0.9680002,-0.001052369
-0.9670002,-0.001045318
-0.9660002,-0.001041026
-0.9650002,-0.001033976
-0.9640002,-0.001026312
-0.9630002,-0.001021714
-0.9620003,-0.001016502
-0.9610002,-0.001010678
-0.9600002,-0.001005773
-0.9590002,-0.0009965767
-0.9580002,-0.0009928982
-0.9570003,-0.0009858476
-0.9560002,-0.000978797
-0.9550002,-0.0009741987
-0.9540002,-0.0009671481
-0.9530002,-0.0009604041
-0.9520002,-0.0009573385
-0.9510002,-0.0009490618
-0.9500002,-0.0009426242
-0.9490002,-0.0009386392
-0.9480003,-0.0009309754
-0.9470002,-0.000925151
-0.9460002,-0.0009199397
-0.9450002,-0.0009141153
-0.9440002,-0.0009067581
-0.9430002,-0.0009021599
-0.9420002,-0.0008938831
-0.9410002,-0.0008895915
-0.9400002,-0.0008831539
-0.9390002,-0.0008757967
-0.9380002,-0.0008718116
-0.9370002,-0.0008638413
-0.9360002,-0.0008592432
-0.9350002,-0.0008537253
-0.9340003,-0.0008460616
-0.9330002,-0.0008405437
-0.9320002,-0.0008350258
-0.9310002,-0.000826749
-0.9300002,-0.0008218443
-0.9290002,-0.0008166329
-0.9280002,-0.0008086627
-0.9270002,-0.0008046775
-0.9260002,-0.0007991597
-0.9250003,-0.000791496
-0.9240002,-0.0007859781
-0.9230002,-0.0007783144
-0.9220002,-0.0007709572
-0.9210002,-0.0007660525
-0.9200003,-0.0007596149
-0.9190002,-0.0007519512
-0.9180002,-0.0007479661
-0.9170002,-0.0007409155
-0.9160002,-0.0007329452
-0.9150002,-0.0007289601
-0.9140002,-0.0007203768
-0.9130002,-0.0007145524
-0.9120002,-0.0007084214
-0.9110003,-0.0007010642
-0.9100002,-0.0006952398
-0.9090002,-0.0006903351
-0.9080002,-0.0006820582
-0.9070002,-0.0006768469
-0.9060002,-0.0006707159
-0.9050002,-0.0006630523
-0.9040002,-0.0006572278
-0.9030002,-0.0006504838
-0.9020002,-0.0006434331
-0.9010002,-0.0006388349
-0.9000002,-0.0006308646
-0.8990002,-0.0006253468
-0.8980002,-0.000620442
-0.8970003,-0.0006118587
-0.8960002,-0.000607567
-0.8950002,-0.0006014361
-0.8940002,-0.000591933
-0.8930002,-0.0005873349
-0.8920002,-0.0005805907
-0.8910002,-0.0005723139
-0.8900002,-0.0005683288
-0.8890002,-0.0005625045
-0.8880002,-0.0005523883
-0.8870002,-0.0005487097
-0.8860002,-0.0005404329
-0.8850002,-0.0005330758
-0.8840002,-0.0005272513
-0.8830003,-0.0005202008
-0.8820002,-0.000512537
-0.8810002,-0.0005073257
-0.8800002,-0.000499662
-0.8790002,-0.0004926114
-0.8780002,-0.000486787
-0.8770002,-0.0004791233
-0.8760002,-0.0004732989
-0.8750002,-0.0004668614
-0.8740003,-0.0004591976
-0.8730002,-0.0004536798
-0.8720002,-0.0004466292
-0.8710002,-0.0004398851
-0.8700002,-0.0004337541
-0.8690003,-0.0004260904
-0.8680002,-0.0004193464
-0.8670002,-0.0004138285
-0.8660002,-0.0004055517
-0.8650002,-0.0003991142
-0.8640002,-0.0003939029
-0.8630002,-0.0003856261
-0.8620002,-0.0003782689
-0.8610002,-0.0003733641
-0.8600003,-0.0003629415
-0.8590002,-0.0003583433
-0.8580002,-0.0003515992
-0.8570002,-0.0003433224
-0.8560002,-0.0003371914
-0.8550002,-0.0003295277
-0.8540002,-0.0003212509
-0.8530002,-0.0003157331
-0.8520002,-0.0003077628
-0.8510002,-0.0003013253
-0.8500002,-0.0002945812
-0.8490002,-0.0002859978
-0.8480002,-0.0002795603
-0.8470002,-0.0002728163
-0.8460003,-0.0002651526
-0.8450002,-0.000258102
-0.8440002,-0.0002504383
-0.8430002,-0.0002427746
-0.8420002,-0.0002360305
-0.8410002,-0.000229593
-0.8400002,-0.0002207031
-0.8390002,-0.000213959
-0.8380002,-0.0002069084
-0.8370003,-0.0001989382
-0.8360002,-0.0001918875
-0.8350002,-0.0001842238
-0.8340002,-0.0001765601
-0.8330002,-0.0001701226
-0.8320003,-0.0001615393
-0.8310002,-0.0001541821
-0.8300002,-0.0001471315
-0.8290002,-0.0001421146
-0.8280002,-0.0001338378
-0.8270002,-0.0001278295
-0.8260002,-0.0001194607
-0.8250002,-0.0001111839
-0.8240002,-0.0001053901
-0.8230003,-9.680677E-05
-0.8220002,-8.852997E-05
-0.8210002,-8.227638E-05
-0.8200002,-7.363172E-05
-0.8190002,-6.425134E-05
-0.8180002,-5.873348E-05
-0.8170002,-5.015012E-05
-0.8160002,-4.217987E-05
-0.8150002,-3.522123E-05
-0.8140002,-2.685246E-05
-0.8130002,-1.934203E-05
-0.8120002,-1.195421E-05
-0.8110002,-2.665802E-06
-0.8100002,3.893279E-06
-0.8090003,1.213636E-05
-0.8080002,2.023335E-05
-0.8070002,2.685479E-05
-0.8060002,3.54688E-05
-0.8050002,4.313251E-05
-0.8040002,5.082687E-05
-0.8030002,5.873581E-05
-0.8020002,6.633821E-05
-0.8010002,7.400192E-05
-0.8000003,3.525422E-05
-0.8009998,-2.084411E-05
-0.8019998,-5.876413E-05
-0.8029998,-9.015467E-05
-0.8039998,-0.0001190315
-0.8049998,-0.0001452108
-0.8059998,-0.0001692135
-0.8069998,-0.0001916835
-0.8079998,-0.0002138776
-0.8089998,-0.0002336193
-0.8099998,-0.0002543726
-0.8109998,-0.0002728268
-0.8119998,-0.0002904533
-0.8129998,-0.0003065366
-0.8139998,-0.0003224771
-0.8149998,-0.0003390307
-0.8159998,-0.0003555843
-0.8169998,-0.0003709117
-0.8179998,-0.0003865457
-0.8189998,-0.0004027928
-0.8199998,-0.0004159743
-0.8209998,-0.0004309952
-0.8219998,-0.0004441768
-0.8229998,-0.0004570518
-0.8239998,-0.000471153
-0.8249998,-0.0004837215
-0.8259998,-0.0004959835
-0.8269998,-0.000509165
-0.8279998,-0.0005217335
-0.8289998,-0.0005330758
-0.8299998,-0.0005447246
-0.8309998,-0.0005579062
-0.8319998,-0.0005677157
-0.8329998,-0.0005802842
-0.8339998,-0.0005907068
-0.8349998,-0.0006014361
-0.8359998,-0.0006124718
-0.8369998,-0.0006219748
-0.8379998,-0.0006330105
-0.8389998,-0.0006440463
-0.8399998,-0.0006535492
-0.8409998,-0.0006658112
-0.8419998,-0.0006737814
-0.8429998,-0.000684204
-0.8439998,-0.0006952398
-0.8449998,-0.0007035166
-0.8459998,-0.0007139393
-0.8469998,-0.0007243619
-0.8479998,-0.0007317191
-0.8489998,-0.0007430614
-0.8499998,-0.0007525643
-0.8509998,-0.0007596149
-0.8519998,-0.0007703441
-0.8529998,-0.0007804602
-0.8539998,-0.0007884305
-0.8549998,-0.0007991597
-0.8559998,-0.00080713
-0.8569998,-0.0008154067
-0.8579998,-0.0008252163
-0.8589998,-0.0008319604
-0.8599998,-0.0008411568
-0.8609998,-0.0008503532
-0.8619998,-0.0008577104
-0.8629998,-0.0008678265
-0.8639998,-0.0008776361
-0.8649998,-0.0008834605
-0.8659998,-0.0008923503
-0.8669998,-0.0009012403
-0.8679998,-0.0009070646
-0.8689998,-0.0009171807
-0.8699998,-0.0009248445
-0.8709998,-0.0009334278
-0.8719998,-0.0009413981
-0.8729998,-0.0009496749
-0.8739998,-0.0009573385
-0.8749998,-0.0009653088
-0.8759998,-0.0009720529
-0.8769998,-0.0009809429
-0.8779998,-0.0009895262
-0.8789998,-0.0009953505
-0.8799998,-0.00100424
-0.8809998,-0.001013437
-0.8819998,-0.001017422
-0.8829998,-0.001026619
-0.8839998,-0.001033669
-0.8849998,-0.001039187
-0.8859998,-0.00104961
-0.8869998,-0.001056047
-0.8879998,-0.001062485
-0.8889998,-0.001071068
-0.8899998,-0.001077199
-0.8909998,-0.00108425
-0.8919998,-0.001091913
-0.8929998,-0.001098964
-0.8939998,-0.001106015
-0.8949998,-0.001112759
-0.8959998,-0.001118583
-0.8969998,-0.00112686
-0.8979998,-0.001132071
-0.8989998,-0.001139122
-0.8999998,-0.001146785
-0.9009998,-0.001153223
-0.9019998,-0.00116058
-0.9029998,-0.001167324
-0.9039998,-0.001173455
-0.9049998,-0.00117928
-0.9059998,-0.001186024
-0.9069998,-0.001192461
-0.9079998,-0.001197673
-0.9089998,-0.001205336
-0.9099998,-0.001211774
-0.9109998,-0.001216985
-0.9119998,-0.001224342
-0.9129998,-0.001230167
-0.9139998,-0.001236298
-0.9149998,-0.001243042
-0.9159998,-0.001248866
-0.9169998,-0.001253464
-0.9179998,-0.001260515
-0.9189998,-0.001265726
-0.9199998,-0.001270018
-0.9209998,-0.001279214
-0.9219998,-0.0012832
-0.9229998,-0.001289024
-0.9239998,-0.001296381
-0.9249998,-0.001301286
-0.9259998,-0.001305577
-0.9269998,-0.001312015
-0.9279998,-0.001317533
-0.9289998,-0.001323357
-0.9299998,-0.001331634
-0.9309998,-0.001334393
-0.9319998,-0.001342363
-0.9329998,-0.001346962
-0.9339998,-0.001351253
-0.9349998,-0.001357691
-0.9359998,-0.001363822
-0.9369998,-0.001366581
-0.9379998,-0.001374857
-0.9389998,-0.001379456
-0.9399998,-0.001384974
-0.9409998,-0.001392331
-0.9419998,-0.00139509
-0.9429998,-0.001401834
-0.9439998,-0.001406125
-0.9449998,-0.001410417
-0.9459998,-0.001416241
-0.9469998,-0.001422372
-0.9479998,-0.001426051
-0.9489998,-0.001433102
-0.9499998,-0.001438926
-0.9509998,-0.001441992
-0.9519998,-0.001449349
-0.9529998,-0.001453947
-0.9539998,-0.001457319
-0.9549998,-0.00146345
-0.9559998,-0.001470807
-0.9569998,-0.001472953
-0.9579998,-0.00148031
-0.9589998,-0.001483989
-0.9599998,-0.001488587
-0.9609998,-0.001495637
-0.9619998,-0.001498396
-0.9629998,-0.00150514
-0.9639998,-0.001510965
-0.9649998,-0.00151495
-0.9659998,-0.001520161
-0.9669998,-0.001525066
-0.9679998,-0.001528132
-0.9689998,-0.001534876
-0.9699998,-0.001538554
-0.9709998,-0.001544072
-0.9719998,-0.001549283
-0.9729998,-0.001552962
-0.9739998,-0.001559093
-0.9749998,-0.001563078
-0.9759998,-0.001567676
-0.9769998,-0.001573807
-0.9779998,-0.001578405
-0.9789998,-0.001581778
-0.9799998,-0.001589748
-0.9809998,-0.001593733
-0.9819998,-0.001596492
-0.9829998,-0.001602929
-0.9839998,-0.001607528
-0.9849998,-0.001611819
-0.9859998,-0.001618563
-0.9869998,-0.001622855
-0.9879998,-0.001626227
-0.9889998,-0.001633278
-0.9899998,-0.001636956
-0.9909998,-0.001642168
-0.9919998,-0.001647685
-0.9929998,-0.001653203
-0.9939998,-0.001655656
-0.9949998,-0.001662093
-0.9959998,-0.001666691
-0.9969998,-0.00167037
-0.9979998,-0.001676501
-0.9989998,-0.001681099
-0.9999998,-0.001685697
-1.001,-0.001692441
-1.002,-0.00169612
-1.003,-0.001701331
-1.004,-0.001705623
-1.005,-0.001709302
-1.006,-0.001716352
-1.007,-0.001720031
-1.008,-0.001723403
-1.009,-0.00173168
-1.01,-0.001734438
-1.011,-0.001739037
-1.012,-0.001746087
-1.013,-0.001749766
-1.014,-0.001754977
-1.015,-0.001762334
-1.016,-0.001762948
-1.017,-0.001769998
-1.018,-0.001776129
-1.019,-0.001777968
-1.02,-0.001785325
-1.021,-0.001791763
-1.022,-0.001793296
-1.023,-0.001801879
-1.024,-0.001805864
-1.025,-0.001810462
-1.026,-0.001818433
-1.027,-0.001821498
-1.028,-0.001827629
-1.029,-0.00183284
-1.03,-0.001837132
-1.031,-0.001841117
-1.032,-0.001849394
-1.033,-0.001853686
-1.034,-0.001857671
-1.035,-0.001864415
-1.036,-0.001870853
-1.037,-0.001874531
-1.038,-0.001880969
-1.039,-0.001884647
-1.04,-0.001890778
-1.041,-0.001894763
-1.042,-0.001899975
-1.043,-0.001905799
-1.044,-0.001910704
-1.045,-0.001914995
-1.046,-0.001922659
-1.047,-0.001925112
-1.048,-0.001930936
-1.049,-0.00193768
-1.05,-0.001940439
-1.051,-0.001946263
-1.052,-0.001953314
-1.053,-0.001956686
-1.054,-0.001963737
-1.055,-0.001968335
-1.056,-0.001972933
-1.057,-0.001978758
-1.058,-0.001985195
-1.059,-0.001988874
-1.06,-0.001995311
-1.061,-0.001999603
-1.062,-0.002005121
-1.063,-0.002012478
-1.064,-0.002016463
-1.065,-0.002021674
-1.066,-0.002029951
-1.067,-0.002031177
-1.068,-0.002038841
-1.069,-0.002045278
-1.07,-0.00204865
-1.071,-0.002056314
-1.072,-0.002060606
-1.073,-0.002064897
-1.074,-0.002072868
-1.075,-0.002077773
-1.076,-0.002081758
-1.077,-0.002089115
-1.078,-0.002093713
-1.079,-0.00210015
-1.08,-0.002104136
-1.081,-0.002111186
-1.082,-0.002116397
-1.083,-0.002123755
-1.084,-0.00212866
-1.085,-0.002133258
-1.086,-0.002141534
-1.087,-0.002147359
-1.088,-0.002154716
-1.089,-0.002160234
-1.09,-0.002165445
-1.091,-0.002173109
-1.092,-0.002181079
-1.093,-0.002186291
-1.094,-0.002193648
-1.095,-0.002197633
-1.096,-0.002207749
-1.097,-0.002216639
-1.098,-0.002221544
-1.099,-0.002227675
-1.1,-0.00223871
-1.101,-0.002242696
-1.102,-0.002251279
-1.103,-0.002260169
-1.104,-0.0022663
-1.105,-0.00227427
-1.106,-0.002284693
-1.107,-0.002290517
-1.108,-0.002297874
-1.109,-0.002307377
-1.11,-0.002314121
-1.111,-0.002321478
-1.112,-0.002330675
-1.113,-0.002337419
-1.114,-0.002346922
-1.115,-0.002355812
-1.116,-0.002360103
-1.117,-0.002369606
-1.118,-0.002379416
-1.119,-0.002381868
-1.12,-0.002391065
-1.121,-0.002398422
-1.122,-0.002406699
-1.123,-0.002414976
-1.124,-0.002419267
-1.125,-0.002425092
-1.126,-0.002434901
-1.127,-0.0024395
-1.128,-0.00244655
-1.129,-0.002455747
-1.13,-0.002458506
-1.131,-0.002466782
-1.132,-0.002474752
-1.133,-0.002477818
-1.134,-0.002485788
-1.135,-0.002493145
-1.136,-0.002496824
-1.137,-0.002504794
-1.138,-0.002510006
-1.139,-0.002516137
-1.14,-0.002522267
-1.141,-0.002527479
-1.142,-0.002532077
-1.143,-0.002540967
-1.144,-0.002544032
-1.145,-0.002548937
-1.146,-0.002556601
-1.147,-0.002561199
-1.148,-0.002567637
-1.149,-0.002573461
-1.15,-0.002573155
-1.151,-0.00258419
-1.152,-0.002586643
-1.153,-0.002590015
-1.154,-0.002598598
-1.155,-0.002601357
-1.156,-0.002605342
-1.157,-0.00260994
-1.158,-0.002615151
-1.159,-0.002619443
-1.16,-0.002623735
-1.161,-0.002625881
-1.162,-0.002633238
-1.163,-0.002638756
-1.164,-0.002640595
-1.165,-0.002645806
-1.166,-0.002651937
-1.167,-0.002655922
-1.168,-0.00266236
-1.169,-0.002664506
-1.17,-0.002670024
-1.171,-0.002676768
-1.172,-0.002680446
-1.173,-0.002686884
-1.174,-0.002693935
-1.175,-0.00269608
-1.176,-0.002704357
-1.177,-0.002708036
-1.178,-0.002712021
-1.179,-0.002719071
-1.18,-0.002727348
-1.181,-0.002728881
-1.182,-0.002736545
-1.183,-0.002745128
-1.184,-0.002746354
-1.185,-0.00275647
-1.186,-0.002763215
-1.187,-0.002766586
-1.188,-0.002777316
-1.189,-0.002781914
-1.19,-0.002785899
-1.191,-0.002797241
-1.192,-0.002801533
-1.193,-0.002808277
-1.194,-0.00281778
-1.195,-0.002823298
-1.196,-0.002829735
-1.197,-0.002840464
-1.198,-0.002845676
-1.199,-0.002854566
-1.2,-0.002862843
-1.201,-0.002866828
-1.202,-0.00287909
-1.203,-0.002884914
-1.204,-0.002892271
-1.205,-0.002902694
-1.206,-0.002910051
-1.207,-0.002915875
-1.208,-0.002928138
-1.209,-0.002936721
-1.21,-0.002944078
-1.211,-0.002954194
-1.212,-0.002962164
-1.213,-0.002969521
-1.214,-0.00298209
-1.215,-0.00299006
-1.216,-0.002998337
-1.217,-0.002973401
-1.218,-0.002979532
-1.219,-0.002988729
-1.22,-0.002997925
-1.221,-0.003007122
-1.222,-0.003019383
-1.223,-0.00302858
-1.224,-0.003037777
-1.225,-0.003050038
-1.226,-0.003059235
-1.227,-0.003071497
-1.228,-0.003080693
-1.229,-0.003086824
-1.23,-0.003105217
-1.231,-0.003114413
-1.232,-0.003120545
-1.233,-0.003135872
-1.234,-0.003148134
-1.235,-0.00315733
-1.236,-0.003172658
-1.237,-0.003181854
-1.238,-0.003194116
-1.239,-0.003206378
-1.24,-0.00321864
-1.241,-0.003230902
-1.242,-0.003249295
-1.243,-0.003258491
-1.244,-0.003270753
-1.245,-0.003286081
-1.246,-0.003298342
-1.247,-0.003310604
-1.248,-0.003325932
-1.249,-0.003341259
-1.25,-0.003353521
-1.251,-0.003368848
-1.252,-0.003384176
-1.253,-0.003396438
-1.254,-0.003414831
-1.255,-0.003427093
-1.256,-0.003445486
-1.257,-0.003460813
-1.258,-0.00347614
-1.259,-0.003494533
-1.26,-0.003509861
-1.261,-0.003528254
-1.262,-0.003546647
-1.263,-0.003561974
-1.264,-0.003580367
-1.265,-0.003601825
-1.266,-0.003620218
-1.267,-0.003638611
-1.268,-0.003660069
-1.269,-0.003675397
-1.27,-0.003699921
-1.271,-0.003721379
-1.272,-0.003736707
-1.273,-0.003764296
-1.274,-0.003785754
-1.275,-0.003807213
-1.276,-0.003831736
-1.277,-0.00385626
-1.278,-0.003880784
-1.279,-0.003905308
-1.28,-0.003929832
-1.281,-0.003960487
-1.282,-0.003988076
-1.283,-0.0040126
-1.284,-0.004043255
-1.285,-0.004073909
-1.286,-0.004104564
-1.287,-0.004138284
-1.288,-0.004172005
-1.289,-0.00420266
-1.29,-0.00423638
-1.291,-0.004273166
-1.292,-0.004306886
-1.293,-0.004340607
-1.294,-0.004389654
-1.295,-0.00442644
-1.296,-0.004466291
-1.297,-0.004509208
-1.298,-0.00455519
-1.299,-0.004601172
-1.3,-0.004647155
-1.301,-0.004696202
-1.302,-0.004751381
-1.303,-0.004803495
-1.304,-0.004855608
-1.305,-0.004913852
-1.306,-0.004972096
-1.307,-0.005036471
-1.308,-0.005100846
-1.309,-0.005162156
-1.31,-0.005235727
-1.311,-0.005303168
-1.312,-0.005376739
-1.313,-0.005456442
-1.314,-0.005536145
-1.315,-0.005615847
-1.316,-0.005704746
-1.317,-0.005787514
-1.318,-0.00588561
-1.319,-0.005983705
-1.32,-0.00607567
-1.321,-0.006182961
-1.322,-0.006290253
-1.323,-0.00639448
-1.324,-0.006514033
-1.325,-0.006630522
-1.326,-0.006750076
-1.327,-0.006878826
-1.328,-0.007007576
-1.329,-0.007142458
-1.33,-0.00728347
-1.331,-0.007424482
-1.332,-0.007574691
-1.333,-0.00773103
-1.334,-0.00788737
-1.335,-0.00804984
-1.336,-0.008218442
-1.337,-0.008390109
-1.338,-0.008567907
-1.339,-0.008751836
-1.34,-0.00893883
-1.341,-0.00912889
-1.342,-0.009328146
-1.343,-0.009530468
-1.344,-0.009738921
-1.345,-0.009953505
-1.346,-0.01016809
-1.347,-0.01039187
-1.348,-0.01062178
-1.349,-0.01085169
-1.35,-0.0110908
-1.351,-0.01133297
-1.352,-0.01157821
-1.353,-0.01182958
-1.354,-0.01208402
-1.355,-0.01234458
-1.356,-0.01261128
-1.357,-0.01287491
-1.358,-0.0131508
-1.359,-0.01342976
-1.36,-0.01370872
-1.361,-0.01399688
-1.362,-0.0142881
-1.363,-0.01457932
-1.364,-0.01487667
-1.365,-0.01517709
-1.366,-0.01548364
-1.367,-0.01579631
-1.368,-0.01610286
-1.369,-0.01641861
-1.37,-0.01674048
-1.371,-0.01705929
-1.372,-0.0173873
-1.373,-0.01771531
-1.374,-0.01804945
-1.375,-0.01838358
-1.376,-0.01872692
-1.377,-0.01906718
-1.378,-0.01940439
-1.379,-0.01975385
-1.38,-0.02010332
-1.381,-0.02045278
-1.382,-0.02080531
-1.383,-0.02116397
-1.384,-0.0215165
-1.385,-0.02187517
-1.386,-0.02223689
-1.387,-0.02260475
-1.388,-0.02296648
-1.389,-0.0233374
-1.39,-0.02371752
-1.391,-0.02408844
-1.392,-0.02445937
-1.393,-0.02484255
-1.394,-0.02521654
-1.395,-0.02559666
-1.396,-0.02597985
-1.397,-0.02634771
-1.398,-0.02673702
-1.399,-0.02713247
-1.4,-0.02750952
-1.401,-0.02790497
-1.402,-0.02830042
-1.403,-0.02868667
-1.404,-0.02907598
-1.405,-0.02947143
-1.406,-0.02986381
-1.407,-0.03025926
-1.408,-0.03077628
-1.409,-0.03114414
-1.41,-0.03157331
-1.411,-0.03197182
-1.412,-0.03237033
-1.413,-0.03276884
-1.414,-0.03319801
-1.415,-0.03362718
-1.416,-0.03402569
-1.417,-0.0344242
-1.418,-0.03482271
-1.419,-0.03525188
-1.42,-0.0356504
-1.421,-0.03607956
-1.422,-0.03647808
-1.423,-0.03690724
-1.424,-0.03733641
-1.425,-0.03773492
-1.426,-0.03813344
-1.427,-0.03856261
-1.428,-0.03896112
-1.429,-0.03939028
-1.43,-0.03981945
-1.431,-0.04024862
-1.432,-0.04064713
-1.433,-0.0410763
-1.434,-0.04150547
-1.435,-0.04193464
-1.436,-0.04233315
-1.437,-0.04276232
-1.438,-0.04316083
-1.439,-0.04358999
-1.44,-0.04401916
-1.441,-0.04441768
-1.442,-0.04484684
-1.443,-0.04524536
-1.444,-0.04567453
-1.445,-0.04613435
-1.446,-0.04653286
-1.447,-0.04693137
-1.448,-0.04736054
-1.449,-0.04775905
-1.45,-0.04818822
-1.451,-0.04861739
-1.452,-0.0490159
-1.453,-0.04944507
-1.454,-0.04987423
-1.455,-0.05027274
-1.456,-0.05070192
-1.457,-0.05110043
-1.458,-0.05152959
-1.459,-0.05192811
-1.46,-0.05235728
-1.461,-0.05278645
-1.462,-0.05318496
-1.463,-0.05361412
-1.464,-0.05404329
-1.465,-0.05444181
-1.466,-0.05484032
-1.467,-0.05526949
-1.468,-0.05569865
-1.469,-0.05612782
-1.47,-0.05655699
-1.471,-0.0569555
-1.472,-0.05735401
-1.473,-0.05778318
-1.474,-0.05818169
-1.475,-0.05861086
-1.476,-0.05904003
-1.477,-0.05943854
-1.478,-0.05986771
-1.479,-0.06026622
-1.48,-0.06069539
-1.481,-0.06112456
-1.482,-0.06152307
-1.483,-0.06192158
-1.484,-0.06232009
-1.485,-0.06274926
-1.486,-0.06314778
-1.487,-0.06357694
-1.488,-0.06400611
-1.489,-0.06440463
-1.49,-0.06480314
-1.491,-0.06526296
-1.492,-0.06566148
-1.493,-0.06605998
-1.494,-0.06648915
-1.495,-0.06688767
-1.496,-0.06734749
-1.497,-0.067746
-1.498,-0.06814452
-1.499,-0.06857368
-1.5,-0.0686963
-1.499,-0.06832844
-1.498,-0.06792993
-1.497,-0.06753141
-1.496,-0.06713291
-1.495,-0.06676505
-1.494,-0.06633588
-1.493,-0.06593736
-1.492,-0.06550819
-1.491,-0.06510969
-1.49,-0.06471118
-1.489,-0.06431266
-1.488,-0.06385284
-1.487,-0.06348498
-1.486,-0.06305581
-1.485,-0.0626573
-1.484,-0.06225879
-1.483,-0.06182962
-1.482,-0.06143111
-1.481,-0.06103259
-1.48,-0.06060342
-1.479,-0.06020491
-1.478,-0.0598064
-1.477,-0.05940789
-1.476,-0.05900937
-1.475001,-0.05861086
-1.474,-0.05818169
-1.473,-0.05778318
-1.472,-0.05738467
-1.471,-0.05698615
-1.47,-0.05658764
-1.469,-0.05615847
-1.468,-0.05575996
-1.467,-0.05536145
-1.466,-0.05496293
-1.465,-0.05456442
-1.464,-0.05416591
-1.463,-0.05376739
-1.462,-0.05336889
-1.461,-0.05297038
-1.46,-0.0525412
-1.459,-0.05217335
-1.458,-0.05177484
-1.457,-0.05137632
-1.456,-0.05097781
-1.455,-0.0505793
-1.454,-0.05018078
-1.453,-0.04978227
-1.452,-0.04941441
-1.451,-0.0490159
-1.45,-0.04861739
-1.449,-0.04824953
-1.448,-0.04785102
-1.447,-0.04745251
-1.446,-0.04705399
-1.445,-0.04668614
-1.444,-0.04628762
-1.443,-0.04591976
-1.442,-0.04552125
-1.441,-0.04512274
-1.44,-0.04475488
-1.439,-0.04435637
-1.438,-0.04398851
-1.437,-0.04362065
-1.436,-0.04322214
-1.435,-0.04282362
-1.434,-0.04245577
-1.433,-0.04208791
-1.432,-0.04172005
-1.431,-0.04132154
-1.43,-0.04095368
-1.429,-0.04058582
-1.428,-0.04021796
-1.427,-0.03981945
-1.426,-0.0394516
-1.425,-0.03908373
-1.424,-0.03871588
-1.423,-0.03834802
-1.422,-0.03798017
-1.421,-0.0376123
-1.42,-0.03724445
-1.419,-0.03687659
-1.418,-0.03650873
-1.417,-0.03614087
-1.416,-0.03577302
-1.415,-0.03540516
-1.414,-0.03506796
-1.413,-0.0347001
-1.412,-0.03436289
-1.411,-0.03399504
-1.41,-0.03365783
-1.409,-0.03328998
-1.408,-0.03292212
-1.407,-0.03258491
-1.406,-0.03221706
-1.405,-0.0318492
-1.404,-0.03151199
-1.403,-0.03117479
-1.402,-0.03083759
-1.401,-0.03046973
-1.4,-0.03013253
-1.399,-0.02979532
-1.398,-0.02945812
-1.397,-0.02912092
-1.396,-0.02875306
-1.395,-0.02844651
-1.394,-0.02810931
-1.393,-0.02774145
-1.392,-0.0274349
-1.391,-0.0270977
-1.39,-0.02676049
-1.389,-0.02645395
-1.388,-0.02611674
-1.387,-0.02577954
-1.386,-0.02547299
-1.385,-0.02513579
-1.384,-0.02482924
-1.383,-0.02449204
-1.382,-0.02415484
-1.381,-0.02384829
-1.38,-0.02354174
-1.379,-0.02320454
-1.378,-0.02289799
-1.377,-0.02259144
-1.376,-0.02228489
-1.375,-0.02197834
-1.374,-0.02167179
-1.373,-0.02136525
-1.372,-0.02108935
-1.371,-0.0207828
-1.37,-0.02047626
-1.369,-0.02016971
-1.368,-0.01989382
-1.367,-0.01961792
-1.366,-0.01931137
-1.365,-0.01903548
-1.364,-0.01875959
-1.363,-0.01845304
-1.362,-0.01817714
-1.361,-0.01790125
-1.36,-0.01762536
-1.359,-0.01734946
-1.358,-0.01707357
-1.357,-0.01682833
-1.356,-0.01652178
-1.355,-0.01627655
-1.354,-0.01603131
-1.353,-0.01586682
-1.352,-0.01561545
-1.351,-0.01536715
-1.350001,-0.01512191
-1.349,-0.01487361
-1.348,-0.01463143
-1.347,-0.01438926
-1.346,-0.01415322
-1.345,-0.01391717
-1.344,-0.0136842
-1.343,-0.01345429
-1.342,-0.01323051
-1.341,-0.01300366
-1.34,-0.01278295
-1.339,-0.01256223
-1.338,-0.01234152
-1.337,-0.01213306
-1.336,-0.01192154
-1.335,-0.01171309
-1.334,-0.01151077
-1.333,-0.01130845
-1.332,-0.01110919
-1.331,-0.010913
-1.33,-0.01071988
-1.329,-0.01053288
-1.328,-0.01034282
-1.327,-0.01015889
-1.326,-0.00998416
-1.325,-0.009806362
-1.324,-0.009628564
-1.323,-0.009456896
-1.322,-0.009288295
-1.321,-0.009122759
-1.32,-0.008969485
-1.319,-0.008813146
-1.318,-0.00865374
-1.317,-0.008509663
-1.316,-0.008359454
-1.315,-0.008212311
-1.314,-0.008074365
-1.313,-0.007930286
-1.312,-0.00779234
-1.311,-0.007660524
-1.31,-0.007528708
-1.309,-0.007399958
-1.308,-0.007277339
-1.307,-0.007151654
-1.306,-0.007035166
-1.305,-0.006915612
-1.304,-0.006802189
-1.303,-0.006691832
-1.302,-0.00658454
-1.301,-0.006477248
-1.3,-0.006376087
-1.299,-0.006271861
-1.298,-0.00617683
-1.297,-0.006087931
-1.296,-0.005992902
-1.295,-0.005904003
-1.294,-0.005818169
-1.293,-0.005732335
-1.292,-0.005652633
-1.291,-0.005569865
-1.29,-0.005490162
-1.289,-0.005416591
-1.288,-0.005343019
-1.287,-0.005269447
-1.286,-0.005202007
-1.285,-0.005134566
-1.284,-0.005070191
-1.283,-0.005005816
-1.282,-0.004944507
-1.281,-0.004883197
-1.28,-0.004828018
-1.279,-0.004766709
-1.278,-0.004714595
-1.277,-0.004659417
-1.276,-0.004607304
-1.275,-0.004561321
-1.274,-0.004509208
-1.273,-0.004457095
-1.272,-0.004420309
-1.271,-0.004371261
-1.27,-0.004328344
-1.269,-0.004288493
-1.268,-0.004245576
-1.267,-0.004205726
-1.266,-0.004168939
-1.265,-0.004122957
-1.264,-0.004092303
-1.263,-0.004055517
-1.262,-0.004015665
-1.261,-0.003981945
-1.26,-0.00395129
-1.259,-0.003914505
-1.258,-0.00388385
-1.257,-0.00385626
-1.256,-0.00382254
-1.255,-0.003794951
-1.254,-0.003767361
-1.253,-0.003736707
-1.252,-0.003709117
-1.251,-0.003684593
-1.25,-0.003653938
-1.249,-0.003626349
-1.248,-0.003604891
-1.247,-0.003580367
-1.246,-0.003555843
-1.245,-0.003528254
-1.244,-0.003509861
-1.243,-0.003482271
-1.242,-0.003460813
-1.241,-0.003439354
-1.24,-0.003420962
-1.239,-0.003393373
-1.238,-0.003378045
-1.237,-0.003356587
-1.236,-0.003335128
-1.235,-0.003319801
-1.234,-0.003298342
-1.233,-0.003276884
-1.232,-0.003261557
-1.231,-0.003243164
-1.23,-0.003221706
-1.229,-0.003203312
-1.228,-0.003187985
-1.227,-0.003166527
-1.226,-0.003154265
-1.225001,-0.003132806
-1.224,-0.003117479
-1.223,-0.003102152
-1.222,-0.003080693
-1.221,-0.003068431
-1.22,-0.003050038
-1.219,-0.003031645
-1.218,-0.003019383
-1.217,-0.003000991
-1.216,-0.002982598
-1.215,-0.002973401
-1.214,-0.002955008
-1.213,-0.002939681
-1.212,-0.002930485
-1.211,-0.002912092
-1.21,-0.002896764
-1.209,-0.002884502
-1.208,-0.00287224
-1.207,-0.002853847
-1.206,-0.002844651
-1.205,-0.002832389
-1.204,-0.002817062
-1.203,-0.0028048
-1.202,-0.002789472
-1.201,-0.00277721
-1.2,-0.002764949
-1.199,-0.002752687
-1.198,-0.00274349
-1.197,-0.002728163
-1.196,-0.002715901
-1.195,-0.002703639
-1.194,-0.002691377
-1.193,-0.002679115
-1.192,-0.002669919
-1.191,-0.002657657
-1.19,-0.002642329
-1.189,-0.002636198
-1.188,-0.002623936
-1.187,-0.002611674
-1.186,-0.002599412
-1.185,-0.002590216
-1.184,-0.002577954
-1.183,-0.002565692
-1.182,-0.002556496
-1.181,-0.002547299
-1.18,-0.002535037
-1.179,-0.002525841
-1.178,-0.002516645
-1.177,-0.002501317
-1.176,-0.002495186
-1.175,-0.00248599
-1.174,-0.002473728
-1.173,-0.002464531
-1.172,-0.002455335
-1.171,-0.002443073
-1.17,-0.002433876
-1.169,-0.002427745
-1.168,-0.002412418
-1.167,-0.002406287
-1.166,-0.002400156
-1.165,-0.002384829
-1.164,-0.002378698
-1.163,-0.002369501
-1.162,-0.002357239
-1.161,-0.002351108
-1.16,-0.002341912
-1.159,-0.002332716
-1.158,-0.002320454
-1.157,-0.002314323
-1.156,-0.002305126
-1.155,-0.002298995
-1.154,-0.002286733
-1.153,-0.002277537
-1.152,-0.002271406
-1.151,-0.002262209
-1.15,-0.002253013
-1.149,-0.002246882
-1.148,-0.002231555
-1.147,-0.002231555
-1.146,-0.002219293
-1.145,-0.002210096
-1.144,-0.002203965
-1.143,-0.002191703
-1.142,-0.002182507
-1.141,-0.002176376
-1.14,-0.002167179
-1.139,-0.002157983
-1.138,-0.002151852
-1.137,-0.002142655
-1.136,-0.002133459
-1.135,-0.002130394
-1.134,-0.002118132
-1.133,-0.002112001
-1.132,-0.002102804
-1.131,-0.002093608
-1.13,-0.002087477
-1.129,-0.002081346
-1.128,-0.002072149
-1.127,-0.002062953
-1.126,-0.002056822
-1.125,-0.002047626
-1.124,-0.002038429
-1.123,-0.002035364
-1.122,-0.002026167
-1.121,-0.002016971
-1.12,-0.00201084
-1.119,-0.002001643
-1.118,-0.001995512
-1.117,-0.001986316
-1.116,-0.00197712
-1.115,-0.001967923
-1.114,-0.001961792
-1.113,-0.00194953
-1.112,-0.001943399
-1.111,-0.001934203
-1.11,-0.001925006
-1.109,-0.001921941
-1.108,-0.001906613
-1.107,-0.001900482
-1.106,-0.001894351
-1.105,-0.00188209
-1.104,-0.001872893
-1.103,-0.001866762
-1.102,-0.001851435
-1.101,-0.001848369
-1.100001,-0.001836107
-1.099,-0.001823845
-1.098,-0.001817714
-1.097,-0.001805453
-1.096,-0.001796256
-1.095,-0.001790125
-1.094,-0.001774798
-1.093,-0.001768667
-1.092,-0.001756405
-1.091,-0.001744143
-1.09,-0.001734946
-1.089,-0.00172575
-1.088,-0.001710422
-1.087,-0.001704292
-1.086,-0.00169203
-1.085,-0.001682833
-1.084,-0.001670571
-1.083,-0.00166444
-1.082,-0.001649113
-1.081,-0.001639916
-1.08,-0.00163072
-1.079,-0.001621523
-1.078,-0.001609262
-1.077,-0.001600065
-1.076,-0.001623161
-1.075,-0.001614885
-1.074,-0.001605688
-1.073,-0.001594346
-1.072,-0.001586682
-1.071,-0.001572888
-1.07,-0.001567063
-1.069,-0.001558173
-1.068,-0.001546218
-1.067,-0.001538861
-1.066,-0.00153273
-1.065,-0.001518629
-1.064,-0.001513111
-1.063,-0.001504221
-1.062,-0.001491652
-1.061,-0.001485521
-1.06,-0.001477551
-1.059,-0.001464676
-1.058,-0.001461304
-1.057,-0.001453947
-1.056,-0.001440152
-1.055,-0.001437087
-1.054,-0.001428503
-1.053,-0.001418387
-1.052,-0.00141195
-1.051,-0.001404286
-1.05,-0.00139509
-1.049,-0.001390491
-1.048,-0.001381295
-1.047,-0.001374857
-1.046,-0.0013675
-1.045,-0.001359223
-1.044,-0.001352479
-1.043,-0.001347268
-1.042,-0.001338685
-1.041,-0.001332247
-1.04,-0.001326423
-1.039,-0.001318453
-1.038,-0.001311402
-1.037,-0.00130711
-1.036,-0.00129822
-1.035,-0.001293009
-1.034,-0.001287798
-1.033,-0.001278908
-1.032,-0.001273696
-1.031,-0.001268179
-1.03,-0.001259289
-1.029,-0.001254997
-1.028,-0.001249173
-1.027,-0.001242122
-1.026,-0.001236604
-1.025,-0.001231086
-1.024,-0.001223423
-1.023,-0.001218211
-1.022,-0.001212693
-1.021,-0.001205336
-1.02,-0.001199512
-1.019,-0.0011943
-1.018,-0.00118725
-1.017,-0.001182038
-1.016,-0.001173149
-1.015,-0.00116947
-1.014,-0.001164872
-1.013,-0.001157821
-1.012,-0.001150771
-1.011,-0.001147705
-1.01,-0.001139122
-1.009,-0.001134217
-1.008,-0.001129925
-1.007,-0.001121342
-1.006,-0.001117357
-1.005,-0.001111839
-1.004,-0.001103256
-1.003,-0.001099577
-1.002,-0.001094979
-1.001,-0.001087315
-1,-0.001081797
-0.9990004,-0.001077812
-0.9980004,-0.001070148
-0.9970005,-0.001066163
-0.9960005,-0.001061565
-0.9950004,-0.001052062
-0.9940004,-0.001049303
-0.9930004,-0.001042253
-0.9920005,-0.001036735
-0.9910004,-0.001032443
-0.9900004,-0.001025392
-0.9890004,-0.001019568
-0.9880005,-0.001014357
-0.9870005,-0.001007306
-0.9860004,-0.00100424
-0.9850004,-0.0009968834
-0.9840004,-0.0009901392
-0.9830005,-0.0009867672
-0.9820005,-0.0009806362
-0.9810004,-0.0009748118
-0.9800004,-0.0009702136
-0.9790004,-0.0009634696
-0.9780005,-0.0009588713
-0.9770004,-0.0009530469
-0.9760004,-0.0009466094
-0.9750004,-0.0009417046
-0.9740005,-0.0009367999
-0.9730005,-0.0009291361
-0.9720004,-0.0009236183
-0.9710004,-0.0009184069
-0.9700004,-0.0009125826
-0.9690005,-0.000906145
-0.9680004,-0.0009030796
-0.9670004,-0.0008944962
-0.9660004,-0.000887139
-0.9650005,-0.0008849932
-0.9640005,-0.0008764099
-0.9630004,-0.0008718116
-0.9620004,-0.000868133
-0.9610004,-0.0008595497
-0.9600005,-0.0008537253
-0.9590005,-0.000849127
-0.9580004,-0.0008411568
-0.9570004,-0.0008383978
-0.9560004,-0.0008301211
-0.9550005,-0.0008242966
-0.9540004,-0.0008193919
-0.9530004,-0.0008129543
-0.9520004,-0.0008065169
-0.9510005,-0.0008022251
-0.9500005,-0.0007960942
-0.9490004,-0.0007896567
-0.9480004,-0.000785365
-0.9470004,-0.0007773947
-0.9460005,-0.0007734096
-0.9450005,-0.0007669721
-0.9440004,-0.0007602281
-0.9430004,-0.0007550167
-0.9420004,-0.0007504185
-0.9410005,-0.0007430614
-0.9400004,-0.0007390762
-0.9390004,-0.0007323321
-0.9380004,-0.0007265077
-0.9370005,-0.0007216029
-0.9360005,-0.0007157786
-0.9350004,-0.0007099541
-0.9340004,-0.0007053559
-0.9330004,-0.0006986118
-0.9320005,-0.000693094
-0.9310004,-0.0006878827
-0.9300004,-0.0006823648
-0.9290004,-0.0006750076
-0.9280005,-0.0006697963
-0.9270005,-0.0006648915
-0.9260004,-0.0006575344
-0.9250004,-0.0006532427
-0.9240004,-0.0006468052
-0.9230005,-0.0006403677
-0.9220005,-0.0006354629
-0.9210004,-0.0006287188
-0.9200004,-0.0006225879
-0.9190004,-0.0006176831
-0.9180005,-0.0006112456
-0.9170004,-0.0006057277
-0.9160004,-0.0006005164
-0.9150004,-0.0005937723
-0.9140005,-0.0005882545
-0.9130005,-0.00058243
-0.9120004,-0.000575686
-0.9110004,-0.0005701681
-0.9100004,-0.0005649568
-0.9090005,-0.0005569865
-0.9080005,-0.0005520818
-0.9070004,-0.0005474835
-0.9060004,-0.0005401264
-0.9050004,-0.0005339954
-0.9040005,-0.0005297037
-0.9030004,-0.00052204
-0.9020004,-0.0005159091
-0.9010004,-0.0005116174
-0.9000005,-0.000503034
-0.8990005,-0.0004972096
-0.8980004,-0.0004926114
-0.8970004,-0.0004846411
-0.8960004,-0.0004791233
-0.8950005,-0.0004748316
-0.8940005,-0.0004662482
-0.8930004,-0.0004601173
-0.8920004,-0.0004545994
-0.8910004,-0.0004469357
-0.8900005,-0.0004401917
-0.8890004,-0.0004355934
-0.8880004,-0.0004282363
-0.8870004,-0.0004211857
-0.8860005,-0.0004159743
-0.8850005,-0.0004092303
-0.8840004,-0.0004015666
-0.8830004,-0.0003960487
-0.8820004,-0.0003893046
-0.8810005,-0.0003819475
-0.8800004,-0.0003764296
-0.8790004,-0.000369379
-0.8780004,-0.0003623284
-0.8770005,-0.0003571171
-0.8760005,-0.0003494534
-0.8750004,-0.0003424028
-0.8740004,-0.0003365783
-0.8730004,-0.0003289146
-0.8720005,-0.000321864
-0.8710005,-0.0003166527
-0.8700004,-0.0003086824
-0.8690004,-0.0003019384
-0.8680004,-0.0002951943
-0.8670005,-0.0002878372
-0.8660004,-0.0002807866
-0.8650004,-0.0002749621
-0.8640004,-0.0002669919
-0.8630005,-0.0002596347
-0.8620005,-0.0002535038
-0.8610004,-0.0002467597
-0.8600004,-0.0002381763
-0.8590004,-0.0002326585
-0.8580005,-0.0002243817
-0.8570005,-0.0002164114
-0.8560004,-0.0002102804
-0.8550004,-0.0002026167
-0.8540004,-0.0001952596
-0.8530005,-0.0001891286
-0.8520004,-0.0001805453
-0.8510004,-0.0001728816
-0.8500004,-0.0001670571
-0.8490005,-0.0001572476
-0.8480005,-0.0001505035
-0.8470004,-0.0001443726
-0.8460004,-0.0001379455
-0.8450004,-0.0001308336
-0.8440005,-0.0001235378
-0.8430004,-0.0001157515
-0.8420004,-0.0001087622
-0.8410004,-0.0001005773
-0.8400005,-9.322015E-05
-0.8390005,-8.555645E-05
-0.8380004,-7.718769E-05
-0.8370004,-7.016773E-05
-0.8360004,-6.216682E-05
-0.8350005,-5.447246E-05
-0.8340005,-4.690071E-05
-0.8330004,-3.847064E-05
-0.8320004,-3.138937E-05
-0.8310004,-2.39096E-05
-0.8300005,-1.66444E-05
-0.8290004,-7.4173E-06
-0.8280004,3.383704E-07
-0.8270004,8.094042E-06
-0.8260005,1.73518E-05
-0.8250005,2.421848E-05
-0.8240004,3.114647E-05
-0.8230004,4.058816E-05
-0.8220004,4.727091E-05
-0.8210005,5.551706E-05
-0.8200005,6.40391E-05
-0.8190004,7.188674E-05
-0.8180004,8.004092E-05
-0.8170004,8.844034E-05
-0.8160005,9.478589E-05
-0.8150004,0.0001036758
-0.8140004,0.0001110636
-0.8130004,0.0001184821
-0.8120005,0.0001275559
-0.8110005,0.0001344839
-0.8100004,0.0001419637
-0.8090004,0.0001508229
-0.8080004,0.0001581801
-0.8070005,0.0001654146
-0.8060004,0.0001734155
-0.8050004,0.0001814471
-0.8040004,0.0001883444
-0.8030005,0.0001965599
-0.8020005,0.0002035492
-0.8010004,0.000211121
-0.8000004,0.0001664875
-0.8009996,0.0001035838
-0.8019996,5.922629E-05
-0.8029996,2.3728E-05
-0.8039996,-1.054409E-05
-0.8049996,-4.058582E-05
-0.8059996,-6.796058E-05
-0.8069996,-9.466094E-05
-0.8079996,-0.0001201658
-0.8089996,-0.0001433715
-0.8099996,-0.0001662706
-0.8109996,-0.0001872998
-0.8119996,-0.0002078079
-0.8129996,-0.0002279788
-0.8139996,-0.0002463717
-0.8149996,-0.0002658375
-0.8159996,-0.0002832494
-0.8169996,-0.0002973401
-0.8179996,-0.0003145068
-0.8189996,-0.0003310605
-0.8199996,-0.0003473075
-0.8209996,-0.0003632481
-0.8219996,-0.0003770427
-0.8229996,-0.000391757
-0.8239996,-0.0004070844
-0.8249996,-0.0004211857
-0.8259996,-0.0004337541
-0.8269996,-0.0004475488
-0.8279996,-0.0004588911
-0.8289996,-0.0004742185
-0.8299996,-0.0004870935
-0.8309996,-0.0004981293
-0.8319996,-0.0005113108
-0.8329996,-0.0005244924
-0.8339996,-0.0005336889
-0.8349996,-0.0005477901
-0.8359996,-0.0005594389
-0.8369996,-0.0005692485
-0.8379996,-0.0005815104
-0.8389996,-0.000591933
-0.8399996,-0.0006011295
-0.8409996,-0.000613698
-0.8419996,-0.0006235075
-0.8429996,-0.0006333171
-0.8439996,-0.000645579
-0.8449996,-0.0006538558
-0.8459996,-0.0006636653
-0.8469996,-0.0006753142
-0.8479996,-0.000684204
-0.8489996,-0.0006937071
-0.8499996,-0.0007044363
-0.8509996,-0.0007136327
-0.8519996,-0.0007225226
-0.8529996,-0.0007329452
-0.8539996,-0.0007421417
-0.8549996,-0.0007510316
-0.8559996,-0.0007608412
-0.8569996,-0.0007688114
-0.8579996,-0.0007780078
-0.8589996,-0.0007862847
-0.8599996,-0.0007954811
-0.8609996,-0.0008055972
-0.8619996,-0.0008129543
-0.8629996,-0.0008230705
-0.8639996,-0.0008313472
-0.8649996,-0.0008393175
-0.8659996,-0.000849127
-0.8669996,-0.0008583235
-0.8679996,-0.0008644544
-0.8689996,-0.0008733444
-0.8699996,-0.0008828474
-0.8709996,-0.0008902045
-0.8719996,-0.0008978682
-0.8729996,-0.0009082909
-0.8739996,-0.0009138088
-0.8749996,-0.0009211659
-0.8759996,-0.0009325081
-0.8769996,-0.0009367999
-0.8779996,-0.0009456897
-0.8789996,-0.0009548862
-0.8799996,-0.0009594844
-0.8809996,-0.0009683743
-0.8819996,-0.0009772643
-0.8829996,-0.0009830886
-0.8839996,-0.0009916719
-0.8849996,-0.0009993357
-0.8859996,-0.001004854
-0.8869996,-0.001014663
-0.8879996,-0.001020488
-0.8889996,-0.001027232
-0.8899996,-0.001036122
-0.8909996,-0.001043172
-0.8919996,-0.00104961
-0.8929996,-0.001058193
-0.8939996,-0.001063098
-0.8949996,-0.001072601
-0.8959996,-0.001078425
-0.8969996,-0.001084556
-0.8979996,-0.001091607
-0.8989996,-0.001099577
-0.8999996,-0.001105095
-0.9009996,-0.001114291
-0.9019996,-0.001120729
-0.9029996,-0.001125634
-0.9039996,-0.001133297
-0.9049996,-0.001138815
-0.9059996,-0.00114464
-0.9069996,-0.001154449
-0.9079996,-0.001159047
-0.9089996,-0.001164259
-0.9099996,-0.001174068
-0.9109996,-0.001178053
-0.9119996,-0.001184184
-0.9129996,-0.001193687
-0.9139996,-0.001197366
-0.9149996,-0.001203497
-0.9159996,-0.001211161
-0.9169996,-0.001215452
-0.9179996,-0.001222196
-0.9189996,-0.001230167
-0.9199996,-0.001233539
-0.9209996,-0.001241509
-0.9219996,-0.00124856
-0.9229996,-0.001251012
-0.9239996,-0.001259289
-0.9249996,-0.001264807
-0.9259996,-0.001268792
-0.9269996,-0.001278908
-0.9279996,-0.001282893
-0.9289996,-0.001288104
-0.9299996,-0.001295155
-0.9309996,-0.001299447
-0.9319996,-0.001305271
-0.9329996,-0.001312935
-0.9339996,-0.001317533
-0.9349996,-0.001323051
-0.9359996,-0.001327342
-0.9369996,-0.0013347
-0.9379996,-0.00134083
-0.9389996,-0.001343283
-0.9399996,-0.001352479
-0.9409996,-0.00135953
-0.9419996,-0.001363209
-0.9429996,-0.001369033
-0.9439996,-0.00137639
-0.9449996,-0.001378843
-0.9459996,-0.001385893
-0.9469996,-0.001392637
-0.9479996,-0.001396316
-0.9489996,-0.001400607
-0.9499996,-0.001409191
-0.9509996,-0.00141195
-0.9519996,-0.001418081
-0.9529996,-0.001426971
-0.9539996,-0.001429116
-0.9549996,-0.00143678
-0.9559996,-0.001443218
-0.9569996,-0.001445977
-0.9579996,-0.001452414
-0.9589996,-0.001458545
-0.9599996,-0.001460384
-0.9609996,-0.001467435
-0.9619996,-0.001473872
-0.9629996,-0.001476631
-0.9639996,-0.001485215
-0.9649996,-0.001491039
-0.9659996,-0.001493492
-0.9669996,-0.001500542
-0.9679996,-0.001505753
-0.9689996,-0.001509739
-0.9699996,-0.001517402
-0.9709996,-0.001522001
-0.9719996,-0.001527825
-0.9729996,-0.001532117
-0.9739996,-0.001539167
-0.9749996,-0.001542233
-0.9759996,-0.001548977
-0.9769996,-0.001556334
-0.9779996,-0.00155848
-0.9789996,-0.001567983
-0.9799996,-0.001572274
-0.9809996,-0.00157626
-0.9819996,-0.001583923
-0.9829996,-0.001587908
-0.9839996,-0.001593733
-0.9849996,-0.001598944
-0.9859996,-0.001606608
-0.9869996,-0.0016109
-0.9879996,-0.001616111
-0.9889996,-0.001622242
-0.9899996,-0.001628679
-0.9909996,-0.001631745
-0.9919996,-0.001638795
-0.9929996,-0.00164554
-0.9939996,-0.001649525
-0.9949996,-0.001654736
-0.9959996,-0.001662093
-0.9969996,-0.001666078
-0.9979996,-0.001672209
-0.9989996,-0.001681099
-0.9999996,-0.001683551
-1.001,-0.001692441
-1.002,-0.001698572
-1.003,-0.001701331
-1.004,-0.001708075
-1.005,-0.001715433
-1.006,-0.001718498
-1.007,-0.001725855
-1.008,-0.001732293
-1.009,-0.001736891
-1.01,-0.001743635
-1.011,-0.001749766
-1.012,-0.001754977
-1.013,-0.001760802
-1.014,-0.001769078
-1.015,-0.001773677
-1.016,-0.001779501
-1.017,-0.001785939
-1.018,-0.001793602
-1.019,-0.001798507
-1.02,-0.001804945
-1.021,-0.001810156
-1.022,-0.0018169
-1.023,-0.001823644
-1.024,-0.001829162
-1.025,-0.001836826
-1.026,-0.001842957
-1.027,-0.001848474
-1.028,-0.001854912
-1.029,-0.001862576
-1.03,-0.001867174
-1.031,-0.001875451
-1.032,-0.001881275
-1.033,-0.001886487
-1.034,-0.001893537
-1.035,-0.001899055
-1.036,-0.001905493
-1.037,-0.001912237
-1.038,-0.001918061
-1.039,-0.001924498
-1.04,-0.001931856
-1.041,-0.001937374
-1.042,-0.001944117
-1.043,-0.001951781
-1.044,-0.001953927
-1.045,-0.001962817
-1.046,-0.001967415
-1.047,-0.00197324
-1.048,-0.001979677
-1.049,-0.001987954
-1.05,-0.001990406
-1.051,-0.00199899
-1.052,-0.002003894
-1.053,-0.002010332
-1.054,-0.002017995
-1.055,-0.002023513
-1.056,-0.002028112
-1.057,-0.002037002
-1.058,-0.0020416
-1.059,-0.002046811
-1.06,-0.002055088
-1.061,-0.00205754
-1.062,-0.002066737
-1.063,-0.002075627
-1.064,-0.002078692
-1.065,-0.002086356
-1.066,-0.002094633
-1.067,-0.002095246
-1.068,-0.002104749
-1.069,-0.002111186
-1.07,-0.002114558
-1.071,-0.002124368
-1.072,-0.00212866
-1.073,-0.002134484
-1.074,-0.002144293
-1.075,-0.002148585
-1.076,-0.002153797
-1.077,-0.00216146
-1.078,-0.002168511
-1.079,-0.002175255
-1.08,-0.002179853
-1.081,-0.002186291
-1.082,-0.0021961
-1.083,-0.002202844
-1.084,-0.002210814
-1.085,-0.002217252
-1.086,-0.002226755
-1.087,-0.002232886
-1.088,-0.002243002
-1.089,-0.002249439
-1.09,-0.002259556
-1.091,-0.002266913
-1.092,-0.002276416
-1.093,-0.002284999
-1.094,-0.002293276
-1.095,-0.002306151
-1.096,-0.002313202
-1.097,-0.002321785
-1.098,-0.002334967
-1.099,-0.002340791
-1.1,-0.002353666
-1.101,-0.002364395
-1.102,-0.002369913
-1.103,-0.002383708
-1.104,-0.002392904
-1.105,-0.00240394
-1.106,-0.002416815
-1.107,-0.002428157
-1.108,-0.002434595
-1.109,-0.002449616
-1.11,-0.002458199
-1.111,-0.002467396
-1.112,-0.002479351
-1.113,-0.002492226
-1.114,-0.002497744
-1.115,-0.002511538
-1.116,-0.002519509
-1.117,-0.002527785
-1.118,-0.002540967
-1.119,-0.002545565
-1.12,-0.002556294
-1.121,-0.002566104
-1.122,-0.002572848
-1.123,-0.002580818
-1.124,-0.002590321
-1.125,-0.002594613
-1.126,-0.002605035
-1.127,-0.002609634
-1.128,-0.002614845
-1.129,-0.002624041
-1.13,-0.0026268
-1.131,-0.002633238
-1.132,-0.002640595
-1.133,-0.002641821
-1.134,-0.002645193
-1.135,-0.00265439
-1.136,-0.002651018
-1.137,-0.002655003
-1.138,-0.002663893
-1.139,-0.00266236
-1.14,-0.002666039
-1.141,-0.002671556
-1.142,-0.002666652
-1.143,-0.002670637
-1.144,-0.002673396
-1.145,-0.002674009
-1.146,-0.002678914
-1.147,-0.002678607
-1.148,-0.002684431
-1.149,-0.002684738
-1.15,-0.002684738
-1.151,-0.002689949
-1.152,-0.002693321
-1.153,-0.002691789
-1.154,-0.002698839
-1.155,-0.002703744
-1.156,-0.002703437
-1.157,-0.002708036
-1.158,-0.00271478
-1.159,-0.00271478
-1.16,-0.002723363
-1.161,-0.002732253
-1.162,-0.002729494
-1.163,-0.002739917
-1.164,-0.002743595
-1.165,-0.002746661
-1.166,-0.002754938
-1.167,-0.002761069
-1.168,-0.002763215
-1.169,-0.00277425
-1.17,-0.002779768
-1.171,-0.002785286
-1.172,-0.002795709
-1.173,-0.002797548
-1.174,-0.002806438
-1.175,-0.002814408
-1.176,-0.002818393
-1.177,-0.002830348
-1.178,-0.002839238
-1.179,-0.00284445
-1.18,-0.002855485
-1.181,-0.002863456
-1.182,-0.00286928
-1.183,-0.002881849
-1.184,-0.002889206
-1.185,-0.002897176
-1.186,-0.002908518
-1.187,-0.002917408
-1.188,-0.002923539
-1.189,-0.002938254
-1.19,-0.002942852
-1.191,-0.002956646
-1.192,-0.002967989
-1.193,-0.002975039
-1.194,-0.002988221
-1.195,-0.002997417
-1.196,-0.002970336
-1.197,-0.002982598
-1.198,-0.002991794
-1.199,-0.003000991
-1.2,-0.003013253
-1.201,-0.003025514
-1.202,-0.003037777
-1.203,-0.003050038
-1.204,-0.003059235
-1.205,-0.003071497
-1.206,-0.003083759
-1.207,-0.003096021
-1.208,-0.003108283
-1.209,-0.00312361
-1.21,-0.003132806
-1.211,-0.003145068
-1.212,-0.003160396
-1.213,-0.003169592
-1.214,-0.003187985
-1.215,-0.003200247
-1.216,-0.003212509
-1.217,-0.003227836
-1.218,-0.003240098
-1.219,-0.00325236
-1.22,-0.003267688
-1.221,-0.003283015
-1.222,-0.003295277
-1.223,-0.00331367
-1.224,-0.003325932
-1.225,-0.003338194
-1.226,-0.003356587
-1.227,-0.003365783
-1.228,-0.003387242
-1.229,-0.003402569
-1.23,-0.003417896
-1.231,-0.003436289
-1.232,-0.003451617
-1.233,-0.003460813
-1.234,-0.003482271
-1.235,-0.003497599
-1.236,-0.003509861
-1.237,-0.003534385
-1.238,-0.003549712
-1.239,-0.003565039
-1.24,-0.003586498
-1.241,-0.003601825
-1.242,-0.003620218
-1.243,-0.003638611
-1.244,-0.003660069
-1.245,-0.003675397
-1.246,-0.003699921
-1.247,-0.003718314
-1.248,-0.003736707
-1.249,-0.003758165
-1.25,-0.003779623
-1.251,-0.003801082
-1.252,-0.00382254
-1.253,-0.003847064
-1.254,-0.003871588
-1.255,-0.003893046
-1.256,-0.00391757
-1.257,-0.003945159
-1.258,-0.003966617
-1.259,-0.003994207
-1.26,-0.004024862
-1.261,-0.004052451
-1.262,-0.00408004
-1.263,-0.004113761
-1.264,-0.004138284
-1.265,-0.004168939
-1.266,-0.004208791
-1.267,-0.00423638
-1.268,-0.004270101
-1.269,-0.004309952
-1.27,-0.004340607
-1.271,-0.004380458
-1.272,-0.004420309
-1.273,-0.004454029
-1.274,-0.004500012
-1.275,-0.004542928
-1.276,-0.004585845
-1.277,-0.004628762
-1.278,-0.004680875
-1.279,-0.004726857
-1.28,-0.00477897
-1.281,-0.004834149
-1.282,-0.004883197
-1.283,-0.004941441
-1.284,-0.005002751
-1.285,-0.00505793
-1.286,-0.005122304
-1.287,-0.005189745
-1.288,-0.00525412
-1.289,-0.005327692
-1.29,-0.005398198
-1.291,-0.005474835
-1.292,-0.005554538
-1.293,-0.00563424
-1.294,-0.005720073
-1.295,-0.005808973
-1.296,-0.005897872
-1.297,-0.005989837
-1.298,-0.006090997
-1.299,-0.006189092
-1.3,-0.006293319
-1.301,-0.006403676
-1.302,-0.006517099
-1.303,-0.006630522
-1.304,-0.006756207
-1.305,-0.006878826
-1.306,-0.007007576
-1.307,-0.007142458
-1.308,-0.007277339
-1.309,-0.007421417
-1.31,-0.00756856
-1.311,-0.007718768
-1.312,-0.007878173
-1.313,-0.008040643
-1.314,-0.008203114
-1.315,-0.008377847
-1.316,-0.008549514
-1.317,-0.008730377
-1.318,-0.008917372
-1.319,-0.009104366
-1.32,-0.009300557
-1.321,-0.009499813
-1.322,-0.009702136
-1.323,-0.009913653
-1.324,-0.01012517
-1.325,-0.01034282
-1.326,-0.01057273
-1.327,-0.01079958
-1.328,-0.01102949
-1.329,-0.01127779
-1.33,-0.01151997
-1.331,-0.01176214
-1.332,-0.01202271
-1.333,-0.01227714
-1.334,-0.01253464
-1.335,-0.0128044
-1.336,-0.0130711
-1.337,-0.01334086
-1.338,-0.01362289
-1.339,-0.01390185
-1.34,-0.01419
-1.341,-0.01447816
-1.342,-0.01477551
-1.343,-0.01507286
-1.344,-0.01537941
-1.345,-0.01568596
-1.346,-0.01599864
-1.347,-0.01630825
-1.348,-0.01662706
-1.349,-0.01694894
-1.35,-0.01726468
-1.351,-0.01758656
-1.352,-0.01791763
-1.353,-0.01824257
-1.354,-0.01858284
-1.355,-0.01892617
-1.356,-0.01926031
-1.357,-0.01960058
-1.358,-0.01995618
-1.359,-0.02029338
-1.36,-0.02064591
-1.361,-0.0210015
-1.362,-0.02135097
-1.363,-0.02170656
-1.364,-0.02206216
-1.365,-0.02241776
-1.366,-0.02279175
-1.367,-0.02315347
-1.368,-0.0235244
-1.369,-0.02389532
-1.37,-0.02426318
-1.371,-0.0246341
-1.372,-0.02500502
-1.373,-0.02537595
-1.374,-0.02574993
-1.375,-0.02612699
-1.376,-0.02650711
-1.377,-0.02688416
-1.378,-0.02727041
-1.379,-0.02765973
-1.38,-0.02804292
-1.381,-0.02842304
-1.382,-0.02881235
-1.383,-0.02920167
-1.384,-0.02959405
-1.385,-0.0299803
-1.386,-0.03037268
-1.387,-0.0308989
-1.388,-0.03126676
-1.389,-0.03166527
-1.39,-0.03206378
-1.391,-0.0324623
-1.392,-0.03289146
-1.393,-0.03328998
-1.394,-0.03368849
-1.395,-0.034087
-1.396,-0.03451617
-1.397,-0.03491468
-1.398,-0.03531319
-1.399,-0.03571171
-1.4,-0.03611022
-1.401,-0.03653939
-1.402,-0.0369379
-1.403,-0.03736707
-1.404,-0.03779623
-1.405,-0.03819475
-1.406,-0.03862391
-1.407,-0.03902243
-1.408,-0.0394516
-1.409,-0.03985011
-1.41,-0.04027928
-1.411,-0.04070844
-1.412,-0.04110695
-1.413,-0.04153612
-1.414,-0.04196529
-1.415,-0.0423638
-1.416,-0.04279297
-1.417,-0.04322214
-1.418,-0.04365131
-1.419,-0.04404982
-1.42,-0.04447899
-1.421,-0.04490815
-1.422,-0.04533732
-1.423,-0.04576649
-1.424,-0.04619566
-1.425,-0.04659417
-1.426,-0.04702334
-1.427,-0.04745251
-1.428,-0.04788167
-1.429,-0.04831084
-1.43,-0.04874001
-1.431,-0.04916918
-1.432,-0.04956769
-1.433,-0.05002751
-1.434,-0.05042602
-1.435,-0.05088584
-1.436,-0.05131501
-1.437,-0.05171353
-1.438,-0.05217335
-1.439,-0.05260251
-1.44,-0.05303168
-1.441,-0.05346085
-1.442,-0.05389002
-1.443,-0.05431918
-1.444,-0.054779
-1.445,-0.05517752
-1.446,-0.05563734
-1.447,-0.05606651
-1.448,-0.05649568
-1.449,-0.05692485
-1.45,-0.05735401
-1.451,-0.05778318
-1.452,-0.05821235
-1.453,-0.05867217
-1.454,-0.05910134
-1.455,-0.0595305
-1.456,-0.05995968
-1.457,-0.06038884
-1.458,-0.06081801
-1.459,-0.06124718
-1.46,-0.061707
-1.461,-0.06213617
-1.462,-0.06256533
-1.463,-0.0629945
-1.464,-0.06342367
-1.465,-0.06388349
-1.466,-0.06431266
-1.467,-0.06477248
-1.468,-0.0652323
-1.469,-0.06563082
-1.47,-0.06609064
-1.471,-0.0665198
-1.472,-0.06694897
-1.473,-0.06740879
-1.474,-0.06783796
-1.475,-0.06826713
-1.476,-0.06872695
-1.477,-0.06918678
-1.478,-0.06961595
-1.479,-0.07004511
-1.48,-0.07047428
-1.481,-0.0709341
-1.482,-0.07136327
-1.483,-0.07179244
-1.484,-0.07225226
-1.485,-0.07268143
-1.486,-0.0731106
-1.487,-0.07357042
-1.488,-0.07403024
-1.489,-0.07442875
-1.49,-0.07488858
-1.491,-0.07531774
-1.492,-0.07574691
-1.493,-0.07620674
-1.494,-0.0766359
-1.495,-0.07709572
-1.496,-0.07752489
-1.497,-0.07795405
-1.498,-0.07841388
-1.499,-0.07884305
-1.5,-0.07896566
-1.499001,-0.07856715
-1.498001,-0.07813799
-1.497001,-0.07773947
-1.496001,-0.07731031
-1.495001,-0.07688113
-1.494001,-0.07648262
-1.493001,-0.07605346
-1.492001,-0.07562429
-1.491001,-0.07519513
-1.490001,-0.07476595
-1.489001,-0.07433679
-1.488001,-0.07390762
-1.487001,-0.07347845
-1.486001,-0.07301863
-1.485001,-0.07255881
-1.484001,-0.07212964
-1.483001,-0.07170048
-1.482001,-0.0712713
-1.481001,-0.07084214
-1.480001,-0.07041297
-1.479001,-0.06995314
-1.478001,-0.06952398
-1.477001,-0.06909481
-1.476001,-0.06866565
-1.475001,-0.06823648
-1.474001,-0.06777665
-1.473001,-0.06734749
-1.472001,-0.06688767
-1.471001,-0.06645849
-1.470001,-0.06605998
-1.469001,-0.06560016
-1.468001,-0.06520165
-1.467001,-0.06477248
-1.466001,-0.06434331
-1.465001,-0.06388349
-1.464001,-0.06348498
-1.463001,-0.06302515
-1.462001,-0.06259599
-1.461001,-0.06216682
-1.460001,-0.06173765
-1.459001,-0.06133914
-1.458001,-0.06090998
-1.457001,-0.0604808
-1.456001,-0.06005164
-1.455001,-0.05962247
-1.454001,-0.0591933
-1.453001,-0.05876414
-1.452001,-0.05836562
-1.451001,-0.0579058
-1.450001,-0.05750729
-1.449001,-0.05707812
-1.448001,-0.05664895
-1.447001,-0.05621978
-1.446001,-0.05579061
-1.445001,-0.05539211
-1.444001,-0.05496293
-1.443001,-0.05453377
-1.442001,-0.05413526
-1.441001,-0.05370609
-1.440001,-0.05327692
-1.439001,-0.05287841
-1.438001,-0.05244924
-1.437001,-0.05202007
-1.436001,-0.05162156
-1.435001,-0.05122305
-1.434001,-0.05079388
-1.433001,-0.05039537
-1.432001,-0.0499662
-1.431001,-0.04956769
-1.430001,-0.04913852
-1.429001,-0.04874001
-1.428001,-0.04834149
-1.427001,-0.04791233
-1.426001,-0.04751381
-1.425001,-0.04708464
-1.424001,-0.04668614
-1.423001,-0.04628762
-1.422001,-0.04588911
-1.421001,-0.0454906
-1.420001,-0.04509208
-1.419001,-0.04469357
-1.418001,-0.0442644
-1.417001,-0.04386589
-1.416001,-0.04349803
-1.415001,-0.04309952
-1.414001,-0.04267035
-1.413001,-0.04227184
-1.412001,-0.04190398
-1.411001,-0.04150547
-1.410001,-0.04110695
-1.409001,-0.0407391
-1.408001,-0.04030993
-1.407001,-0.03991142
-1.406001,-0.03954356
-1.405001,-0.03914505
-1.404001,-0.03877719
-1.403001,-0.03837867
-1.402001,-0.03801082
-1.401001,-0.0376123
-1.400001,-0.03721379
-1.399001,-0.03684593
-1.398001,-0.03644742
-1.397001,-0.03607956
-1.396001,-0.03571171
-1.395001,-0.03531319
-1.394001,-0.03494534
-1.393001,-0.03457748
-1.392001,-0.03417896
-1.391001,-0.0338111
-1.390001,-0.03344325
-1.389001,-0.03307539
-1.388001,-0.03270753
-1.387001,-0.03230902
-1.386001,-0.03194116
-1.385001,-0.03160396
-1.384001,-0.0312361
-1.383001,-0.03086824
-1.382001,-0.03050039
-1.381001,-0.03013253
-1.380001,-0.02976467
-1.379001,-0.02942747
-1.378001,-0.02905961
-1.377001,-0.02869175
-1.376001,-0.02835455
-1.375001,-0.02798669
-1.374001,-0.02764949
-1.373001,-0.02731228
-1.372001,-0.02694443
-1.371001,-0.02660722
-1.370001,-0.02627002
-1.369001,-0.02593282
-1.368001,-0.02559561
-1.367001,-0.02525841
-1.366001,-0.02489055
-1.365001,-0.02455335
-1.364001,-0.02421615
-1.363001,-0.0239096
-1.362001,-0.02357239
-1.361001,-0.02323519
-1.360001,-0.02289799
-1.359001,-0.02259144
-1.358001,-0.02225424
-1.357001,-0.02194769
-1.356001,-0.02161049
-1.355001,-0.02130394
-1.354001,-0.02099739
-1.353001,-0.02066019
-1.352001,-0.02035364
-1.351001,-0.02004709
-1.350001,-0.01974054
-1.349001,-0.01943399
-1.348001,-0.01912744
-1.347001,-0.01882089
-1.346001,-0.018545
-1.345001,-0.01823845
-1.344001,-0.01796256
-1.343001,-0.01768667
-1.342001,-0.01738012
-1.341001,-0.01710423
-1.340001,-0.01679768
-1.339001,-0.01652178
-1.338001,-0.01624589
-1.337001,-0.01597
-1.336001,-0.01580858
-1.335001,-0.01554188
-1.334001,-0.01528131
-1.333001,-0.01502381
-1.332001,-0.01476325
-1.331001,-0.01450881
-1.330001,-0.01425438
-1.329001,-0.01400301
-1.328001,-0.01376083
-1.327001,-0.0135156
-1.326001,-0.01327342
-1.325001,-0.01303738
-1.324001,-0.01280134
-1.323001,-0.01257449
-1.322001,-0.01234765
-1.321001,-0.0121208
-1.320001,-0.01190009
-1.319001,-0.01168244
-1.318001,-0.01146479
-1.317001,-0.01125327
-1.316001,-0.01104788
-1.315001,-0.01083943
-1.314001,-0.01064017
-1.313001,-0.01044705
-1.312001,-0.01025086
-1.311001,-0.0100608
-1.310001,-0.009876868
-1.309001,-0.009686808
-1.308001,-0.00950901
-1.307001,-0.009331211
-1.306001,-0.009153415
-1.305001,-0.008984813
-1.304001,-0.008816211
-1.303001,-0.008650675
-1.302001,-0.008491269
-1.301001,-0.008331865
-1.300001,-0.008178591
-1.299001,-0.008031447
-1.298001,-0.007884304
-1.297001,-0.007737161
-1.296001,-0.00760228
-1.295001,-0.007461268
-1.294001,-0.007326386
-1.293001,-0.007194571
-1.292001,-0.007068886
-1.291001,-0.006946267
-1.290001,-0.006820582
-1.289001,-0.006704094
-1.288001,-0.006587605
-1.287001,-0.006471117
-1.286001,-0.006363825
-1.285001,-0.006259599
-1.284001,-0.006152307
-1.283001,-0.006054211
-1.282001,-0.005959181
-1.281001,-0.005861086
-1.280001,-0.005769121
-1.279001,-0.005683288
-1.278001,-0.005591323
-1.277001,-0.005511621
-1.276001,-0.005431918
-1.275001,-0.005343019
-1.274001,-0.005272513
-1.273001,-0.005195876
-1.272001,-0.005119239
-1.271001,-0.005051799
-1.270001,-0.004981292
-1.269001,-0.004910786
-1.268001,-0.004849477
-1.267001,-0.004785101
-1.266001,-0.004723792
-1.265001,-0.004662482
-1.264001,-0.004604238
-1.263001,-0.00455519
-1.262001,-0.004500012
-1.261001,-0.004447898
-1.260001,-0.004401916
-1.259001,-0.004349803
-1.258001,-0.004300755
-1.257001,-0.004257839
-1.256001,-0.004211857
-1.255001,-0.004168939
-1.254001,-0.004129088
-1.253001,-0.004086172
-1.252001,-0.00404632
-1.251001,-0.004009534
-1.250001,-0.003969683
-1.249001,-0.003932897
-1.248001,-0.003896111
-1.247001,-0.003859326
-1.246001,-0.003828671
-1.245001,-0.003794951
-1.244001,-0.003758165
-1.243001,-0.003730575
-1.242001,-0.003699921
-1.241001,-0.003669266
-1.240001,-0.003641677
-1.239001,-0.003611021
-1.238001,-0.003580367
-1.237001,-0.003558908
-1.236001,-0.003528254
-1.235001,-0.003500664
-1.234001,-0.003479206
-1.233001,-0.003448551
-1.232001,-0.003427093
-1.231001,-0.003405634
-1.230001,-0.00338111
-1.229001,-0.003356587
-1.228001,-0.003335128
-1.227001,-0.003310604
-1.226001,-0.003289146
-1.225001,-0.003264622
-1.224001,-0.003243164
-1.223001,-0.003227836
-1.222001,-0.003203312
-1.221001,-0.003181854
-1.220001,-0.003163461
-1.219001,-0.003142003
-1.218001,-0.00312361
-1.217001,-0.003108283
-1.216001,-0.003083759
-1.215001,-0.003068431
-1.214001,-0.003056169
-1.213001,-0.00302858
-1.212001,-0.003019383
-1.211001,-0.003000991
-1.210001,-0.002979532
-1.209001,-0.00296727
-1.208001,-0.002951943
-1.207001,-0.002930485
-1.206001,-0.002918222
-1.205001,-0.002902895
-1.204001,-0.002881437
-1.203001,-0.00287224
-1.202001,-0.002856913
-1.201001,-0.00283852
-1.200001,-0.002826258
-1.199001,-0.002813996
-1.198001,-0.002795603
-1.197001,-0.002786407
-1.196001,-0.002768014
-1.195001,-0.002752687
-1.194001,-0.00274349
-1.193001,-0.002725097
-1.192001,-0.002712835
-1.191001,-0.002700574
-1.190001,-0.002688312
-1.189001,-0.002672984
-1.188001,-0.002660722
-1.187001,-0.00264846
-1.186001,-0.002636198
-1.185001,-0.002620871
-1.184001,-0.002611674
-1.183001,-0.002599412
-1.182001,-0.002587151
-1.181001,-0.002577954
-1.180001,-0.002565692
-1.179001,-0.002547299
-1.178001,-0.002544234
-1.177001,-0.002528906
-1.176001,-0.002516645
-1.175001,-0.002507448
-1.174001,-0.002495186
-1.173001,-0.002482924
-1.172001,-0.002473728
-1.171001,-0.002461466
-1.170001,-0.002452269
-1.169001,-0.002440007
-1.168001,-0.002427745
-1.167001,-0.002421614
-1.166001,-0.002409352
-1.165001,-0.002397091
-1.164001,-0.002387894
-1.163001,-0.002375632
-1.162001,-0.002366436
-1.161001,-0.002360305
-1.160001,-0.002348043
-1.159001,-0.002335781
-1.158001,-0.002332716
-1.157001,-0.002317388
-1.156001,-0.002311257
-1.155001,-0.002302061
-1.154001,-0.002289799
-1.153001,-0.002277537
-1.152001,-0.002274471
-1.151001,-0.002262209
-1.150001,-0.002256078
-1.149001,-0.002249948
-1.148001,-0.002231555
-1.147001,-0.002228489
-1.146001,-0.002219293
-1.145001,-0.002207031
-1.144001,-0.0022009
-1.143001,-0.002191703
-1.142001,-0.002176376
-1.141001,-0.00217331
-1.140001,-0.002164114
-1.139001,-0.002151852
-1.138001,-0.002148786
-1.137001,-0.002136525
-1.136001,-0.002127328
-1.135001,-0.002118132
-1.134001,-0.002108935
-1.133001,-0.002099739
-1.132001,-0.002093608
-1.131001,-0.002084411
-1.130001,-0.00207828
-1.129001,-0.002066019
-1.128001,-0.002059887
-1.127001,-0.002050691
-1.126001,-0.00204456
-1.125001,-0.002035364
-1.124001,-0.002026167
-1.123001,-0.002020036
-1.122001,-0.00201084
-1.121001,-0.002004709
-1.120001,-0.001995512
-1.119001,-0.001986316
-1.118001,-0.00197712
-1.117001,-0.001967923
-1.116001,-0.001958727
-1.115001,-0.001952596
-1.114001,-0.001943399
-1.113001,-0.001931137
-1.112001,-0.001925006
-1.111001,-0.00191581
-1.110001,-0.001906613
-1.109001,-0.001900482
-1.108001,-0.001885155
-1.107001,-0.001879024
-1.106001,-0.001869828
-1.105001,-0.001857566
-1.104001,-0.001851435
-1.103001,-0.001842238
-1.102001,-0.001826911
-1.101001,-0.00182078
-1.100001,-0.001808518
-1.099001,-0.001799321
-1.098001,-0.001790125
-1.097001,-0.001777863
-1.096001,-0.001768667
-1.095001,-0.00175947
-1.094001,-0.001747208
-1.093001,-0.001738012
-1.092001,-0.001722684
-1.091001,-0.001710422
-1.090001,-0.001704292
-1.089001,-0.00169203
-1.088001,-0.001679768
-1.087001,-0.001670571
-1.086001,-0.001658309
-1.085001,-0.001649113
-1.084001,-0.001636851
-1.083001,-0.001624589
-1.082001,-0.001612327
-1.081001,-0.001600065
-1.080001,-0.001623161
-1.079001,-0.001614578
-1.078001,-0.001604769
-1.077001,-0.001591587
-1.076001,-0.001580858
-1.075001,-0.001571661
-1.074001,-0.001558173
-1.073001,-0.00154867
-1.072001,-0.001539474
-1.071001,-0.001526292
-1.070001,-0.001516176
-1.069001,-0.001505753
-1.068001,-0.001494105
-1.067001,-0.001485828
-1.066001,-0.001474486
-1.065001,-0.001462837
-1.064001,-0.001456093
-1.063001,-0.001444444
-1.062001,-0.001434021
-1.061001,-0.001423905
-1.060001,-0.001413176
-1.059001,-0.001406125
-1.058001,-0.001397542
-1.057001,-0.001385587
-1.056001,-0.001380682
-1.055001,-0.001369953
-1.054001,-0.001361063
-1.053001,-0.001354625
-1.052001,-0.00134359
-1.051001,-0.001336232
-1.050001,-0.001328875
-1.049001,-0.001317226
-1.048001,-0.001312015
-1.047001,-0.001305577
-1.046001,-0.001294235
-1.045001,-0.001288717
-1.044001,-0.001282893
-1.043001,-0.001271551
-1.042001,-0.001266033
-1.041001,-0.001257143
-1.040001,-0.001249786
-1.039001,-0.001245187
-1.038001,-0.001236604
-1.037001,-0.001228634
-1.036001,-0.00122281
-1.035001,-0.001215146
-1.034001,-0.001209015
-1.033001,-0.001202577
-1.032001,-0.001195833
-1.031001,-0.001188476
-1.030001,-0.001182345
-1.029001,-0.001176214
-1.028001,-0.001167937
-1.027001,-0.001164259
-1.026001,-0.001155369
-1.025001,-0.001149238
-1.024001,-0.001144333
-1.023001,-0.001137896
-1.022001,-0.001131765
-1.021001,-0.001125634
-1.020001,-0.001118583
-1.019001,-0.001112759
-1.018001,-0.001106015
-1.017001,-0.001099577
-1.016001,-0.001095285
-1.015001,-0.001088541
-1.014001,-0.001080878
-1.013001,-0.001077506
-1.012001,-0.001069842
-1.011001,-0.001062485
-1.010001,-0.001056967
-1.009001,-0.001050836
-1.008001,-0.001045318
-1.007001,-0.001038574
-1.006001,-0.001032749
-1.005001,-0.001028151
-1.004001,-0.001019568
-1.003001,-0.001014663
-1.002001,-0.001010371
-1.001001,-0.001001482
-1.000001,-0.0009978029
-0.9990007,-0.0009938178
-0.9980007,-0.0009870738
-0.9970006,-0.0009797165
-0.9960006,-0.0009745053
-0.9950007,-0.0009680677
-0.9940007,-0.0009619368
-0.9930006,-0.000957032
-0.9920006,-0.000950288
-0.9910007,-0.000944157
-0.9900007,-0.0009389457
-0.9890007,-0.0009328147
-0.9880006,-0.0009260707
-0.9870006,-0.0009205528
-0.9860007,-0.0009141153
-0.9850007,-0.0009092105
-0.9840007,-0.0009003207
-0.9830006,-0.0008969486
-0.9820006,-0.0008923503
-0.9810007,-0.0008862194
-0.9800007,-0.0008782492
-0.9790006,-0.0008764099
-0.9780006,-0.0008669068
-0.9770007,-0.0008620021
-0.9760007,-0.0008570973
-0.9750007,-0.000849127
-0.9740006,-0.0008442223
-0.9730006,-0.0008390109
-0.9720007,-0.0008298145
-0.9710007,-0.0008258293
-0.9700007,-0.0008203115
-0.9690006,-0.000813874
-0.9680007,-0.0008108085
-0.9670007,-0.0008022251
-0.9660007,-0.0007951746
-0.9650006,-0.0007921091
-0.9640006,-0.0007829126
-0.9630007,-0.0007773947
-0.9620007,-0.0007740227
-0.9610007,-0.0007651328
-0.9600006,-0.0007605346
-0.9590006,-0.0007553233
-0.9580007,-0.0007479661
-0.9570007,-0.0007436744
-0.9560006,-0.00073785
-0.9550006,-0.0007317191
-0.9540007,-0.0007268143
-0.9530007,-0.0007197637
-0.9520007,-0.0007151655
-0.9510006,-0.0007090345
-0.9500006,-0.0007022904
-0.9490007,-0.0006973856
-0.9480007,-0.0006909482
-0.9470007,-0.0006845106
-0.9460006,-0.0006805255
-0.9450006,-0.0006753142
-0.9440007,-0.0006682636
-0.9430007,-0.0006636653
-0.9420006,-0.0006581475
-0.9410006,-0.0006504838
-0.9400007,-0.000645579
-0.9390007,-0.0006406742
-0.9380007,-0.000632704
-0.9370006,-0.0006284123
-0.9360006,-0.0006241206
-0.9350007,-0.0006155373
-0.9340007,-0.0006121653
-0.9330007,-0.0006081801
-0.9320006,-0.0005983706
-0.9310006,-0.0005959182
-0.9300007,-0.000588561
-0.9290007,-0.0005818169
-0.9280006,-0.0005778318
-0.9270006,-0.0005717009
-0.9260007,-0.0005655699
-0.9250007,-0.0005615847
-0.9240007,-0.000553308
-0.9230006,-0.0005490163
-0.9220006,-0.000543805
-0.9210007,-0.0005355282
-0.9200007,-0.0005312365
-0.9190007,-0.0005266382
-0.9180006,-0.0005189746
-0.9170007,-0.0005156025
-0.9160007,-0.000509165
-0.9150007,-0.0005024209
-0.9140006,-0.0004984358
-0.9130006,-0.0004923049
-0.9120007,-0.0004861739
-0.9110007,-0.0004800429
-0.9100007,-0.0004736054
-0.9090006,-0.0004690072
-0.9080006,-0.0004631828
-0.9070007,-0.0004570518
-0.9060007,-0.000452147
-0.9050006,-0.0004469357
-0.9040006,-0.0004395786
-0.9030007,-0.0004359
-0.9020007,-0.0004288494
-0.9010007,-0.0004221053
-0.9000006,-0.0004175071
-0.8990006,-0.0004110696
-0.8980007,-0.0004037124
-0.8970007,-0.000397888
-0.8960007,-0.0003932898
-0.8950006,-0.0003847064
-0.8940006,-0.0003807213
-0.8930007,-0.0003758165
-0.8920007,-0.0003669266
-0.8910006,-0.0003620218
-0.8900006,-0.0003552778
-0.8890007,-0.0003476141
-0.8880007,-0.0003424028
-0.8870007,-0.0003365783
-0.8860006,-0.0003286081
-0.8850006,-0.0003237033
-0.8840007,-0.0003160396
-0.8830007,-0.0003096021
-0.8820007,-0.0003040842
-0.8810006,-0.000296114
-0.8800007,-0.0002902895
-0.8790007,-0.0002841586
-0.8780007,-0.0002758818
-0.8770006,-0.0002706705
-0.8760006,-0.0002654591
-0.8750007,-0.0002568758
-0.8740007,-0.0002510514
-0.8730007,-0.0002440007
-0.8720006,-0.0002369501
-0.8710006,-0.0002305126
-0.8700007,-0.0002237686
-0.8690007,-0.0002164114
-0.8680006,-0.0002102804
-0.8670006,-0.0002029233
-0.8660007,-0.0001958727
-0.8650007,-0.0001885155
-0.8640007,-0.0001817715
-0.8630006,-0.0001747208
-0.8620006,-0.0001685899
-0.8610007,-0.0001606196
-0.8600007,-0.0001520363
-0.8590007,-0.000146825
-0.8580006,-0.0001388547
-0.8570006,-0.0001327036
-0.8560007,-0.0001272164
-0.8550007,-0.0001196446
-0.8540006,-0.0001113372
-0.8530006,-0.0001047157
-0.8520007,-9.659219E-05
-0.8510007,-8.978682E-05
-0.8500007,-8.157132E-05
-0.8490006,-7.433679E-05
-0.8480006,-6.694897E-05
-0.8470007,-5.913199E-05
-0.8460007,-5.113108E-05
-0.8450007,-4.401916E-05
-0.8440006,-3.59876E-05
-0.8430007,-2.801734E-05
-0.8420007,-2.115066E-05
-0.8410007,-1.247535E-05
-0.8400006,-5.056879E-06
-0.8390006,2.484208E-06
-0.8380007,1.174197E-05
-0.8370007,1.854734E-05
-0.8360007,2.667087E-05
-0.8350006,3.531553E-05
-0.8340006,4.255007E-05
-0.8330007,5.03977E-05
-0.8320007,5.898106E-05
-0.8310006,6.679803E-05
-0.8300006,7.452305E-05
-0.8290007,8.258527E-05
-0.8280007,9.110731E-05
-0.8270007,9.794333E-05
-0.8260006,0.0001073544
-0.8250006,0.00011511
-0.8240007,0.0001212717
-0.8230007,0.0001303761
-0.8220007,0.0001385303
-0.8210006,0.0001452437
-0.8200006,0.0001554824
-0.8190007,0.000164495
-0.8180007,0.0001705033
-0.8170006,0.000179945
-0.8160006,0.0001869956
-0.8150007,0.0001938623
-0.8140007,0.0002028135
-0.8130007,0.0002098948
-0.8120006,0.0002172826
-0.8110006,0.00022559
-0.8100007,0.0002324261
-0.8090007,0.000241224
-0.8080007,0.0002490716
-0.8070006,0.0002559077
-0.8060006,0.0002641538
-0.8050007,0.0002712657
-0.8040007,0.0002777952
-0.8030006,0.0002893933
-0.8020006,0.0002958308
-0.8010007,0.0003031879
-0.8000007,0.0002535271
-0.8009993,0.0001845537
-0.8019994,0.000135506
-0.8029994,9.596129E-05
-0.8039994,5.429086E-05
-0.8049994,1.983484E-05
-0.8059993,-8.674148E-06
-0.8069994,-4.015665E-05
-0.8079994,-6.661176E-05
-0.8089994,-9.082907E-05
-0.8099993,-0.0001173762
-0.8109994,-0.0001402447
-0.8119994,-0.0001610286
-0.8129994,-0.0001834373
-0.8139994,-0.0002047731
-0.8149993,-0.0002234725
-0.8159994,-0.0002433368
-0.8169994,-0.0002619137
-0.8179994,-0.0002793869
-0.8189994,-0.0002993125
-0.8199994,-0.000312361
-0.8209994,-0.0003267688
-0.8219994,-0.000344242
-0.8229994,-0.000359876
-0.8239993,-0.0003739772
-0.8249994,-0.0003908373
-0.8259994,-0.0004030993
-0.8269994,-0.0004184267
-0.8279994,-0.0004325279
-0.8289993,-0.0004444833
-0.8299994,-0.0004591976
-0.8309994,-0.0004729923
-0.8319994,-0.0004843346
-0.8329993,-0.0004987424
-0.8339994,-0.0005106977
-0.8349994,-0.0005223466
-0.8359994,-0.0005349151
-0.8369994,-0.0005480966
-0.8379993,-0.0005585193
-0.8389994,-0.0005707812
-0.8399994,-0.0005815104
-0.8409994,-0.0005922396
-0.8419994,-0.000604195
-0.8429993,-0.0006146176
-0.8439994,-0.0006256534
-0.8449994,-0.0006366891
-0.8459994,-0.0006471117
-0.8469993,-0.0006563082
-0.8479994,-0.000667344
-0.8489994,-0.0006768469
-0.8499994,-0.000686963
-0.8509994,-0.0006989184
-0.8519993,-0.0007071952
-0.8529994,-0.000718231
-0.8539994,-0.000728347
-0.8549994,-0.0007363172
-0.8559994,-0.0007458202
-0.8569994,-0.0007565495
-0.8579994,-0.0007636001
-0.8589994,-0.0007743293
-0.8599994,-0.0007844454
-0.8609993,-0.0007918025
-0.8619994,-0.0008009989
-0.8629994,-0.0008117282
-0.8639994,-0.0008181657
-0.8649994,-0.0008282817
-0.8659993,-0.0008374782
-0.8669994,-0.0008445288
-0.8679994,-0.0008543384
-0.8689994,-0.0008632282
-0.8699993,-0.0008702789
-0.8709994,-0.0008807015
-0.8719994,-0.0008889784
-0.8729994,-0.0008957224
-0.8739994,-0.0009043057
-0.8749993,-0.0009147284
-0.8759994,-0.0009202462
-0.8769994,-0.0009306689
-0.8779994,-0.000937413
-0.8789994,-0.0009453832
-0.8799993,-0.00095366
-0.8809994,-0.0009607106
-0.8819994,-0.000969294
-0.8829994,-0.0009784905
-0.8839993,-0.000985541
-0.8849994,-0.0009932048
-0.8859994,-0.001000869
-0.8869994,-0.001007919
-0.8879994,-0.001015889
-0.8889993,-0.001023553
-0.8899994,-0.00103183
-0.8909994,-0.0010398
-0.8919994,-0.001046238
-0.8929994,-0.001054208
-0.8939994,-0.001061872
-0.8949994,-0.001068616
-0.8959994,-0.00107536
-0.8969994,-0.001083943
-0.8979993,-0.001090074
-0.8989994,-0.001096511
-0.8999994,-0.001105708
-0.9009994,-0.001110613
-0.9019994,-0.001116744
-0.9029993,-0.001127779
-0.9039994,-0.001133297
-0.9049994,-0.001140041
-0.9059994,-0.001148012
-0.9069993,-0.00115353
-0.9079994,-0.001160274
-0.9089994,-0.001168244
-0.9099994,-0.001173762
-0.9109994,-0.001181732
-0.9119993,-0.001188783
-0.9129994,-0.001194607
-0.9139994,-0.001200738
-0.9149994,-0.001206869
-0.9159994,-0.001215146
-0.9169993,-0.00122097
-0.9179994,-0.001227408
-0.9189994,-0.001235378
-0.9199994,-0.00123875
-0.9209993,-0.001247946
-0.9219994,-0.001255304
-0.9229994,-0.001258982
-0.9239994,-0.001266952
-0.9249994,-0.001272777
-0.9259993,-0.001276455
-0.9269994,-0.001285958
-0.9279994,-0.00129117
-0.9289994,-0.001296074
-0.9299994,-0.001304964
-0.9309993,-0.001309563
-0.9319994,-0.001315694
-0.9329994,-0.001322744
-0.9339994,-0.001327649
-0.9349993,-0.001334393
-0.9359994,-0.001341444
-0.9369994,-0.001344816
-0.9379994,-0.001353706
-0.9389994,-0.001358304
-0.9399993,-0.001363515
-0.9409994,-0.001370872
-0.9419994,-0.001377003
-0.9429994,-0.001381908
-0.9439994,-0.001389572
-0.9449994,-0.001394783
-0.9459994,-0.001398462
-0.9469994,-0.001406738
-0.9479994,-0.001412563
-0.9489993,-0.001418694
-0.9499994,-0.00142789
-0.9509994,-0.001430343
-0.9519994,-0.0014377
-0.9529994,-0.00144475
-0.9539993,-0.001447816
-0.9549994,-0.001455173
-0.9559994,-0.001461304
-0.9569994,-0.001464676
-0.9579993,-0.001472646
-0.9589994,-0.001478471
-0.9599994,-0.001482762
-0.9609994,-0.001489506
-0.9619994,-0.001496251
-0.9629993,-0.001499622
-0.9639994,-0.001507593
-0.9649994,-0.001513111
-0.9659994,-0.001518322
-0.9669994,-0.001526599
-0.9679993,-0.001529664
-0.9689994,-0.001535795
-0.9699994,-0.001543459
-0.9709994,-0.001548364
-0.9719993,-0.001553269
-0.9729994,-0.001563078
-0.9739994,-0.00156737
-0.9749994,-0.001572274
-0.9759994,-0.001580551
-0.9769993,-0.00158423
-0.9779994,-0.001591587
-0.9789994,-0.001598638
-0.9799994,-0.001602929
-0.9809994,-0.001610286
-0.9819994,-0.001617644
-0.9829994,-0.001623161
-0.9839994,-0.001629906
-0.9849994,-0.00163665
-0.9859993,-0.001642168
-0.9869994,-0.001648298
-0.9879994,-0.001654123
-0.9889994,-0.001660254
-0.9899994,-0.001668531
-0.9909993,-0.001673742
-0.9919994,-0.001680793
-0.9929994,-0.001690602
-0.9939994,-0.001692748
-0.9949993,-0.001703477
-0.9959994,-0.001710834
-0.9969994,-0.001715126
-0.9979994,-0.001723709
-0.9989994,-0.00173076
-0.9999993,-0.001733212
-1.000999,-0.001743635
-1.001999,-0.001749459
-1.002999,-0.001753751
-1.003999,-0.001765093
-1.004999,-0.001770918
-1.005999,-0.00177429
-1.006999,-0.001785019
-1.007999,-0.00179023
-1.008999,-0.001797894
-1.009999,-0.00180709
-1.010999,-0.001811075
-1.011999,-0.001820272
-1.012999,-0.001827323
-1.013999,-0.001831614
-1.014999,-0.001840504
-1.015999,-0.001850314
-1.016999,-0.001854912
-1.017999,-0.001865028
-1.018999,-0.001871772
-1.019999,-0.001878823
-1.020999,-0.001884647
-1.021999,-0.001895683
-1.022999,-0.001902734
-1.023999,-0.001909171
-1.024999,-0.001918674
-1.025999,-0.001924192
-1.026999,-0.001930629
-1.027999,-0.001941052
-1.028999,-0.001947183
-1.029999,-0.001953927
-1.030999,-0.001961591
-1.031999,-0.001968028
-1.032999,-0.001977225
-1.033999,-0.001983662
-1.034999,-0.001990713
-1.035999,-0.001997457
-1.036999,-0.002004814
-1.037999,-0.002012171
-1.038999,-0.002021981
-1.039999,-0.00202382
-1.040999,-0.002035775
-1.041999,-0.002042213
-1.042999,-0.002047118
-1.043999,-0.002056621
-1.044999,-0.002064284
-1.045999,-0.002068883
-1.046999,-0.002078692
-1.047999,-0.002082984
-1.048999,-0.002090954
-1.049999,-0.002099231
-1.050999,-0.002104749
-1.051999,-0.002113026
-1.052999,-0.002121302
-1.053999,-0.002125287
-1.054999,-0.002133258
-1.055999,-0.002139695
-1.056999,-0.002147052
-1.057999,-0.002153797
-1.058999,-0.002162073
-1.059999,-0.00216943
-1.060999,-0.002174335
-1.061999,-0.002182612
-1.062999,-0.002188743
-1.063999,-0.002194874
-1.064999,-0.00220407
-1.065999,-0.002208975
-1.066999,-0.00221388
-1.067999,-0.002223689
-1.068999,-0.002230434
-1.069999,-0.002236871
-1.070999,-0.002242082
-1.071999,-0.002250666
-1.072999,-0.002258942
-1.073999,-0.002265687
-1.074999,-0.002272431
-1.075999,-0.002283467
-1.076999,-0.002286225
-1.077999,-0.002295422
-1.078999,-0.002304618
-1.079999,-0.002310136
-1.080999,-0.002319026
-1.081999,-0.002328222
-1.082999,-0.002330675
-1.083999,-0.002342937
-1.084999,-0.002352746
-1.085999,-0.002357651
-1.086999,-0.002366847
-1.087999,-0.002376351
-1.088999,-0.002384627
-1.089999,-0.002393824
-1.090999,-0.002405166
-1.091999,-0.00241099
-1.092999,-0.002422333
-1.093999,-0.002436741
-1.094999,-0.002442871
-1.095999,-0.002455133
-1.096999,-0.002468622
-1.097999,-0.002475672
-1.098999,-0.002488241
-1.099999,-0.002499276
-1.100999,-0.002508473
-1.101999,-0.0025238
-1.102999,-0.002534223
-1.103999,-0.002546178
-1.104999,-0.00255936
-1.105999,-0.002567943
-1.106999,-0.002581431
-1.107999,-0.002596759
-1.108999,-0.002603503
-1.109999,-0.002616991
-1.110999,-0.002628946
-1.111999,-0.002635384
-1.112999,-0.002652244
-1.113999,-0.002660827
-1.114999,-0.002667571
-1.115999,-0.002683205
-1.116999,-0.002689643
-1.117999,-0.002700065
-1.118999,-0.002712634
-1.119999,-0.002716619
-1.120999,-0.002726429
-1.121999,-0.002735012
-1.122999,-0.002738077
-1.123999,-0.002746967
-1.124999,-0.002753405
-1.125999,-0.002753711
-1.126999,-0.002764134
-1.127999,-0.002765667
-1.128999,-0.002764441
-1.129999,-0.002769958
-1.130999,-0.002773944
-1.131999,-0.002771798
-1.132999,-0.002773637
-1.133999,-0.00277517
-1.134999,-0.002771798
-1.135999,-0.002776089
-1.136999,-0.002776703
-1.137999,-0.00277425
-1.138999,-0.00277425
-1.139999,-0.002772411
-1.140999,-0.002769958
-1.141999,-0.002771491
-1.142999,-0.002769958
-1.143999,-0.002770878
-1.144999,-0.002775476
-1.145999,-0.002771185
-1.146999,-0.002773331
-1.147999,-0.002776703
-1.148999,-0.002772717
-1.149999,-0.002777622
-1.150999,-0.002780688
-1.151999,-0.002780381
-1.152999,-0.002788658
-1.153999,-0.002790497
-1.154999,-0.002793869
-1.155999,-0.00279908
-1.156999,-0.00280092
-1.157999,-0.002803985
-1.158999,-0.002812262
-1.159999,-0.002815328
-1.160999,-0.002819926
-1.161999,-0.002827896
-1.162999,-0.002831268
-1.163999,-0.002837093
-1.164999,-0.002845369
-1.165999,-0.002848128
-1.166999,-0.002854872
-1.167999,-0.002863149
-1.168999,-0.002868054
-1.169999,-0.002874798
-1.170999,-0.002883688
-1.171999,-0.002889206
-1.172999,-0.002896256
-1.173999,-0.002905453
-1.174999,-0.00291189
-1.175999,-0.002918941
-1.176999,-0.002929977
-1.177999,-0.002935495
-1.178999,-0.002942239
-1.179999,-0.002955114
-1.180999,-0.002960938
-1.181999,-0.002970441
-1.182999,-0.002980864
-1.183999,-0.00299098
-1.184999,-0.003002629
-1.185999,-0.002976467
-1.186999,-0.002979532
-1.187999,-0.002997925
-1.188999,-0.003004056
-1.189999,-0.003013253
-1.190999,-0.00302858
-1.191999,-0.003037777
-1.192999,-0.003046973
-1.193999,-0.0030623
-1.194999,-0.003068431
-1.195999,-0.003083759
-1.196999,-0.003099086
-1.197999,-0.003105217
-1.198999,-0.003120545
-1.199999,-0.003135872
-1.200999,-0.003145068
-1.201999,-0.00315733
-1.202999,-0.003172658
-1.203999,-0.003184919
-1.204999,-0.003197182
-1.205999,-0.003212509
-1.206999,-0.003227836
-1.207999,-0.003237033
-1.208999,-0.003255426
-1.209999,-0.003267688
-1.210999,-0.003283015
-1.211999,-0.003298342
-1.212999,-0.003310604
-1.213999,-0.003328997
-1.214999,-0.003341259
-1.215999,-0.003359652
-1.216999,-0.003378045
-1.217999,-0.003390307
-1.218999,-0.003405634
-1.219999,-0.003427093
-1.220999,-0.003436289
-1.221999,-0.003454682
-1.222999,-0.003473075
-1.223999,-0.003485337
-1.224999,-0.003506796
-1.225999,-0.003525188
-1.226999,-0.00353745
-1.227999,-0.003558908
-1.228999,-0.003580367
-1.229999,-0.003592629
-1.230999,-0.003614087
-1.231999,-0.003629415
-1.232999,-0.003647808
-1.233999,-0.003669266
-1.234999,-0.003687659
-1.235999,-0.003709117
-1.236999,-0.003730575
-1.237999,-0.003748968
-1.238999,-0.003770427
-1.239999,-0.003794951
-1.240999,-0.003810278
-1.241999,-0.003837867
-1.242999,-0.003859326
-1.243999,-0.003877719
-1.244999,-0.003908373
-1.245999,-0.003932897
-1.246999,-0.003957421
-1.247999,-0.003985011
-1.248999,-0.004009534
-1.249999,-0.004034058
-1.250999,-0.004067779
-1.251999,-0.004095368
-1.252999,-0.004119892
-1.253999,-0.004156678
-1.254999,-0.004184267
-1.255999,-0.004214922
-1.256999,-0.004251707
-1.257999,-0.004279297
-1.258999,-0.004316083
-1.259999,-0.004355934
-1.260999,-0.004389654
-1.261999,-0.00442644
-1.262999,-0.004469357
-1.263999,-0.004506143
-1.264999,-0.004542928
-1.265999,-0.004595041
-1.266999,-0.004634893
-1.267999,-0.004683941
-1.268999,-0.004736054
-1.269999,-0.004775905
-1.270999,-0.004834149
-1.271999,-0.004883197
-1.272999,-0.004938376
-1.273999,-0.004999685
-1.274999,-0.005054864
-1.275999,-0.005116174
-1.276999,-0.005183614
-1.277999,-0.005247989
-1.278999,-0.00531543
-1.279999,-0.005389001
-1.280999,-0.005462573
-1.281999,-0.005533079
-1.282999,-0.005615847
-1.283999,-0.005698615
-1.284999,-0.005784449
-1.285999,-0.005873348
-1.286999,-0.005962247
-1.287999,-0.006060342
-1.288999,-0.006158438
-1.289999,-0.006256533
-1.290999,-0.00636689
-1.291999,-0.006474182
-1.292999,-0.006587605
-1.293999,-0.006707159
-1.294999,-0.006829778
-1.295999,-0.006949332
-1.296999,-0.007084213
-1.297999,-0.007216029
-1.298999,-0.007353975
-1.299999,-0.007504185
-1.300999,-0.007648262
-1.301999,-0.007807667
-1.302999,-0.007960942
-1.303999,-0.008123412
-1.304999,-0.008292013
-1.305999,-0.008463681
-1.306999,-0.008638413
-1.307999,-0.008825407
-1.308999,-0.009006271
-1.309999,-0.009196331
-1.310999,-0.009398652
-1.311999,-0.00959791
-1.312999,-0.009803296
-1.313999,-0.01001788
-1.314999,-0.01023553
-1.315999,-0.01045624
-1.316999,-0.01067696
-1.317999,-0.01090994
-1.318999,-0.01114598
-1.319999,-0.01138509
-1.320999,-0.01163032
-1.321999,-0.01188169
-1.322999,-0.01213306
-1.323999,-0.01239056
-1.324999,-0.01265113
-1.325999,-0.01291783
-1.326999,-0.01319066
-1.327999,-0.01347575
-1.328999,-0.01375164
-1.329999,-0.01403673
-1.330999,-0.01432795
-1.331999,-0.01461917
-1.332999,-0.01491652
-1.333999,-0.01521694
-1.334999,-0.01551736
-1.335999,-0.01582697
-1.336999,-0.01613352
-1.337999,-0.01644313
-1.338999,-0.01676501
-1.339999,-0.01708075
-1.340999,-0.01739956
-1.341999,-0.01773063
-1.342999,-0.01805251
-1.343999,-0.01838971
-1.344999,-0.01872998
-1.345999,-0.01905799
-1.346999,-0.01940745
-1.347999,-0.01975079
-1.348999,-0.02009105
-1.349999,-0.02044972
-1.350999,-0.02080225
-1.351999,-0.02115171
-1.352999,-0.0215165
-1.353999,-0.0218629
-1.354999,-0.02222463
-1.355999,-0.02259555
-1.356999,-0.02295115
-1.357999,-0.02331288
-1.358999,-0.02368687
-1.359999,-0.02405166
-1.360999,-0.02442258
-1.361999,-0.02479657
-1.362999,-0.02516749
-1.363999,-0.02553842
-1.364999,-0.02592467
-1.365999,-0.02630785
-1.366999,-0.02668184
-1.367999,-0.02706503
-1.368999,-0.02744821
-1.369999,-0.02783753
-1.370999,-0.02821458
-1.371999,-0.02860083
-1.372999,-0.02899015
-1.373999,-0.02938866
-1.374999,-0.02978411
-1.375999,-0.03017343
-1.376999,-0.03068431
-1.377999,-0.03105217
-1.378999,-0.03145069
-1.379999,-0.0318492
-1.380999,-0.03227837
-1.381999,-0.03267688
-1.382999,-0.03307539
-1.383999,-0.03347391
-1.384999,-0.03390307
-1.385999,-0.03430158
-1.386999,-0.0347001
-1.387999,-0.03509861
-1.388999,-0.03552778
-1.389999,-0.03595695
-1.390999,-0.03635546
-1.391999,-0.03675397
-1.392999,-0.03718314
-1.393999,-0.03758165
-1.394999,-0.03801082
-1.395999,-0.03843999
-1.396999,-0.0388385
-1.397999,-0.03926767
-1.398999,-0.03969683
-1.399999,-0.04009534
-1.400999,-0.04052451
-1.401999,-0.04095368
-1.402999,-0.04135219
-1.403999,-0.04178136
-1.404999,-0.04221053
-1.405999,-0.0426397
-1.406999,-0.04306886
-1.407999,-0.04346738
-1.408999,-0.04389654
-1.409999,-0.04432571
-1.410999,-0.04472422
-1.411999,-0.04515339
-1.412999,-0.04558256
-1.413999,-0.04601173
-1.414999,-0.04647155
-1.415999,-0.04687006
-1.416999,-0.04729923
-1.417999,-0.0477284
-1.418999,-0.04815757
-1.419999,-0.04858673
-1.420999,-0.0490159
-1.421999,-0.04944507
-1.422999,-0.04987423
-1.423999,-0.05033405
-1.424999,-0.05073257
-1.425999,-0.05116174
-1.426999,-0.05159091
-1.427999,-0.05202007
-1.428999,-0.05244924
-1.429999,-0.05290907
-1.430999,-0.05333823
-1.431999,-0.05376739
-1.432999,-0.05419657
-1.433999,-0.05465639
-1.434999,-0.0550549
-1.435999,-0.05551472
-1.436999,-0.05594389
-1.437999,-0.05637306
-1.438999,-0.05680222
-1.439999,-0.05726204
-1.440999,-0.05769122
-1.441999,-0.05812038
-1.442999,-0.05854955
-1.443999,-0.05897872
-1.444999,-0.05940789
-1.445999,-0.05986771
-1.446999,-0.06029687
-1.447999,-0.06072604
-1.448999,-0.06118587
-1.449999,-0.06161503
-1.450999,-0.0620442
-1.451999,-0.06247337
-1.452999,-0.06290253
-1.453999,-0.06336236
-1.454999,-0.06379153
-1.455999,-0.06425135
-1.456999,-0.06468052
-1.457999,-0.06510969
-1.458999,-0.06556951
-1.459999,-0.06599867
-1.460999,-0.06642784
-1.461999,-0.06688767
-1.462999,-0.06734749
-1.463999,-0.06777665
-1.464999,-0.06820583
-1.465999,-0.06866565
-1.466999,-0.06909481
-1.467999,-0.06955463
-1.468999,-0.0699838
-1.469999,-0.07041297
-1.470999,-0.07087279
-1.471999,-0.07133261
-1.472999,-0.07176178
-1.473999,-0.0722216
-1.474999,-0.07268143
-1.475999,-0.0731106
-1.476999,-0.07353976
-1.477999,-0.07399958
-1.478999,-0.07442875
-1.479999,-0.07488858
-1.480999,-0.07531774
-1.481999,-0.07574691
-1.482999,-0.07620674
-1.483999,-0.07666656
-1.484999,-0.07709572
-1.485999,-0.07755554
-1.486999,-0.07801536
-1.487999,-0.07844453
-1.488999,-0.07890435
-1.489999,-0.07933352
-1.490999,-0.07979335
-1.491999,-0.08025317
-1.492999,-0.08068234
-1.493999,-0.08114216
-1.494999,-0.08160198
-1.495999,-0.08203115
-1.496999,-0.08249097
-1.497999,-0.08295079
-1.498999,-0.08337996
-1.499999,-0.08353323
-1.499001,-0.08313473
-1.498001,-0.0826749
-1.497001,-0.08227639
-1.496001,-0.08187788
-1.495001,-0.08141805
-1.494001,-0.08098888
-1.493001,-0.08055972
-1.492001,-0.0800999
-1.491001,-0.07970139
-1.490001,-0.07924156
-1.489001,-0.07878174
-1.488001,-0.07835257
-1.487001,-0.07789274
-1.486001,-0.07743292
-1.485001,-0.07703441
-1.484001,-0.07657459
-1.483001,-0.07614543
-1.482001,-0.0756856
-1.481001,-0.07525643
-1.480001,-0.07482726
-1.479001,-0.07436744
-1.478001,-0.07390762
-1.477001,-0.07347845
-1.476001,-0.07301863
-1.475001,-0.07258946
-1.474001,-0.07212964
-1.473001,-0.07170048
-1.472001,-0.07124065
-1.471001,-0.07081148
-1.470001,-0.07038232
-1.469001,-0.06992249
-1.468001,-0.06949332
-1.467001,-0.06906416
-1.466001,-0.06860434
-1.465001,-0.06814452
-1.464001,-0.06771534
-1.463001,-0.06728618
-1.462001,-0.06682636
-1.461001,-0.06639718
-1.460001,-0.06596802
-1.459001,-0.06553885
-1.458001,-0.06510969
-1.457001,-0.06464987
-1.456001,-0.06425135
-1.455001,-0.06379153
-1.454001,-0.06336236
-1.453001,-0.06293319
-1.452001,-0.06247337
-1.451001,-0.06207486
-1.450001,-0.06161503
-1.449001,-0.06118587
-1.448001,-0.06075669
-1.447001,-0.06029687
-1.446001,-0.05986771
-1.445001,-0.05943854
-1.444001,-0.05900937
-1.443001,-0.05858021
-1.442001,-0.05815104
-1.441001,-0.05772187
-1.440001,-0.0572927
-1.439001,-0.05686354
-1.438001,-0.05643437
-1.437001,-0.0560052
-1.436001,-0.05557603
-1.435001,-0.05514687
-1.434001,-0.0547177
-1.433001,-0.05425788
-1.432001,-0.05385936
-1.431001,-0.05346085
-1.430001,-0.05303168
-1.429001,-0.05260251
-1.428001,-0.05217335
-1.427001,-0.05174418
-1.426001,-0.05134567
-1.425001,-0.0509165
-1.424001,-0.05048734
-1.423001,-0.05008882
-1.422001,-0.04965965
-1.421001,-0.04923048
-1.420001,-0.04883197
-1.419001,-0.0484028
-1.418001,-0.04797364
-1.417001,-0.04754447
-1.416001,-0.04714596
-1.415001,-0.04674744
-1.414001,-0.04631827
-1.413001,-0.04591976
-1.412001,-0.0454906
-1.411001,-0.04509208
-1.410001,-0.04469357
-1.409001,-0.0442644
-1.408001,-0.04389654
-1.407001,-0.04346738
-1.406001,-0.04306886
-1.405001,-0.04267035
-1.404001,-0.04227184
-1.403001,-0.04187332
-1.402001,-0.04147482
-1.401001,-0.0410763
-1.400001,-0.04067779
-1.399001,-0.04027928
-1.398001,-0.03988076
-1.397001,-0.03948225
-1.396001,-0.03905308
-1.395001,-0.03868522
-1.394001,-0.03828671
-1.393001,-0.0378882
-1.392001,-0.03748969
-1.391001,-0.03709117
-1.390001,-0.03672331
-1.389001,-0.0363248
-1.388001,-0.03592629
-1.387001,-0.03552778
-1.386001,-0.03515992
-1.385001,-0.03476141
-1.384001,-0.03439355
-1.383001,-0.03399504
-1.382001,-0.03362718
-1.381001,-0.03325932
-1.380001,-0.03286081
-1.379001,-0.03249295
-1.378001,-0.03212509
-1.377001,-0.03172658
-1.376001,-0.03135872
-1.375001,-0.03099086
-1.374001,-0.030623
-1.373001,-0.03025514
-1.372001,-0.02988729
-1.371001,-0.02951943
-1.370001,-0.02915157
-1.369001,-0.02878371
-1.368001,-0.02844651
-1.367001,-0.02807865
-1.366001,-0.0277108
-1.365001,-0.02737359
-1.364001,-0.02700574
-1.363001,-0.02666853
-1.362001,-0.02630067
-1.361001,-0.02596347
-1.360001,-0.02562627
-1.359001,-0.02525841
-1.358001,-0.02492121
-1.357001,-0.02455335
-1.356001,-0.02421615
-1.355001,-0.02387894
-1.354001,-0.02354174
-1.353001,-0.02320454
-1.352001,-0.02286733
-1.351001,-0.02253013
-1.350001,-0.02222358
-1.349001,-0.02188638
-1.348001,-0.02157983
-1.347001,-0.02124263
-1.346001,-0.02093608
-1.345001,-0.02059888
-1.344001,-0.02029233
-1.343001,-0.01995512
-1.342001,-0.01964858
-1.341001,-0.01931137
-1.340001,-0.01900483
-1.339001,-0.01872893
-1.338001,-0.01842238
-1.337001,-0.01811584
-1.336001,-0.01783994
-1.335001,-0.01753339
-1.334001,-0.01722685
-1.333001,-0.01695095
-1.332001,-0.0166444
-1.331001,-0.01633785
-1.330001,-0.01606196
-1.329001,-0.01590361
-1.328001,-0.01562771
-1.327001,-0.01535489
-1.326001,-0.01509432
-1.325001,-0.01482456
-1.324001,-0.01455786
-1.323001,-0.01430649
-1.322001,-0.01404592
-1.321001,-0.01379456
-1.320001,-0.01354932
-1.319001,-0.01330101
-1.318001,-0.01305884
-1.317001,-0.01282586
-1.316001,-0.01258676
-1.315001,-0.01235684
-1.314001,-0.01212693
-1.313001,-0.01189396
-1.312001,-0.01167324
-1.311001,-0.01145253
-1.310001,-0.01123488
-1.309001,-0.01102029
-1.308001,-0.01081184
-1.307001,-0.01060339
-1.306001,-0.0104072
-1.305001,-0.01021101
-1.304001,-0.01000868
-1.303001,-0.009824755
-1.302001,-0.00963776
-1.301001,-0.009444634
-1.300001,-0.009266837
-1.299001,-0.009089039
-1.298001,-0.008908176
-1.297001,-0.008739574
-1.296001,-0.008567907
-1.295001,-0.008399305
-1.294001,-0.008242966
-1.293001,-0.008083561
-1.292001,-0.007927221
-1.291001,-0.007780078
-1.290001,-0.007632935
-1.289001,-0.007491923
-1.288001,-0.007353975
-1.287001,-0.007216029
-1.286001,-0.007084213
-1.285001,-0.006958528
-1.284001,-0.006826713
-1.283001,-0.006707159
-1.282001,-0.006587605
-1.281001,-0.006464986
-1.280001,-0.006354629
-1.279001,-0.006247337
-1.278001,-0.006136979
-1.277001,-0.006035818
-1.276001,-0.005931592
-1.275001,-0.005833496
-1.274001,-0.005741532
-1.273001,-0.005646502
-1.272001,-0.005557603
-1.271001,-0.005471769
-1.270001,-0.005385936
-1.269001,-0.005303168
-1.268001,-0.005226531
-1.267001,-0.005143763
-1.266001,-0.005073257
-1.265001,-0.005002751
-1.264001,-0.004929179
-1.263001,-0.004861739
-1.262001,-0.004797364
-1.261001,-0.004729923
-1.260001,-0.004668613
-1.259001,-0.004610369
-1.258001,-0.00455519
-1.257001,-0.004496946
-1.256001,-0.004441767
-1.255001,-0.00439272
-1.254001,-0.004337541
-1.253001,-0.004288493
-1.252001,-0.004242511
-1.251001,-0.004196529
-1.250001,-0.004150547
-1.249001,-0.004104564
-1.248001,-0.004058582
-1.247001,-0.004018731
-1.246001,-0.00397888
-1.245001,-0.003939028
-1.244001,-0.003899177
-1.243001,-0.003865457
-1.242001,-0.003828671
-1.241001,-0.003791885
-1.240001,-0.00376123
-1.239001,-0.003721379
-1.238001,-0.003690724
-1.237001,-0.003663135
-1.236001,-0.003626349
-1.235001,-0.00359876
-1.234001,-0.003568105
-1.233001,-0.003534385
-1.232001,-0.003509861
-1.231001,-0.003485337
-1.230001,-0.003454682
-1.229001,-0.003424027
-1.228001,-0.003402569
-1.227001,-0.003371914
-1.226001,-0.003350456
-1.225001,-0.003322866
-1.224001,-0.003301408
-1.223001,-0.003276884
-1.222001,-0.003255426
-1.221001,-0.003230902
-1.220001,-0.003206378
-1.219001,-0.003187985
-1.218001,-0.003163461
-1.217001,-0.003145068
-1.216001,-0.00312361
-1.215001,-0.003102152
-1.214001,-0.003080693
-1.213001,-0.0030623
-1.212001,-0.003043907
-1.211001,-0.003022449
-1.210001,-0.003007122
-1.209001,-0.002985663
-1.208001,-0.002970336
-1.207001,-0.002951943
-1.206001,-0.002930485
-1.205001,-0.002918222
-1.204001,-0.002896764
-1.203001,-0.002881437
-1.202001,-0.00286611
-1.201001,-0.002844651
-1.200001,-0.002832389
-1.199001,-0.002817062
-1.198001,-0.002798669
-1.197001,-0.002786407
-1.196001,-0.002768014
-1.195001,-0.002752687
-1.194001,-0.00274349
-1.193001,-0.002725097
-1.192001,-0.002712835
-1.191001,-0.002697508
-1.190001,-0.00268218
-1.189001,-0.002672984
-1.188001,-0.002657657
-1.187001,-0.002642329
-1.186001,-0.002633133
-1.185001,-0.002617805
-1.184001,-0.002602478
-1.183001,-0.002593281
-1.182001,-0.00258102
-1.181001,-0.002565692
-1.180001,-0.002556496
-1.179001,-0.002544234
-1.178001,-0.002528906
-1.177001,-0.002516645
-1.176001,-0.002507448
-1.175001,-0.00249212
-1.174001,-0.002482924
-1.173001,-0.002470662
-1.172001,-0.002455335
-1.171001,-0.002446138
-1.170001,-0.002436942
-1.169001,-0.002421614
-1.168001,-0.002412418
-1.167001,-0.002400156
-1.166001,-0.002384829
-1.165001,-0.002381763
-1.164001,-0.002366436
-1.163001,-0.002354174
-1.162001,-0.002348043
-1.161001,-0.002335781
-1.160001,-0.002323519
-1.159001,-0.002311257
-1.158001,-0.002302061
-1.157001,-0.00229593
-1.156001,-0.002280602
-1.155001,-0.002271406
-1.154001,-0.002265275
-1.153001,-0.002249948
-1.152001,-0.002243817
-1.151001,-0.00223462
-1.150001,-0.002216227
-1.149001,-0.002213162
-1.148001,-0.0022009
-1.147001,-0.002188638
-1.146001,-0.002179441
-1.145001,-0.002170245
-1.144001,-0.002161048
-1.143001,-0.002151852
-1.142001,-0.002142655
-1.141001,-0.002130394
-1.140001,-0.002121197
-1.139001,-0.002115066
-1.138001,-0.002099739
-1.137001,-0.002093608
-1.136001,-0.002081346
-1.135001,-0.002075215
-1.134001,-0.002066019
-1.133001,-0.002053756
-1.132001,-0.00204456
-1.131001,-0.002038429
-1.130001,-0.002026167
-1.129001,-0.002020036
-1.128001,-0.00201084
-1.127001,-0.001998578
-1.126001,-0.001992447
-1.125001,-0.00198325
-1.124001,-0.001970988
-1.123001,-0.001964858
-1.122001,-0.001955661
-1.121001,-0.001943399
-1.120001,-0.001940334
-1.119001,-0.001928072
-1.118001,-0.001918875
-1.117001,-0.00191581
-1.116001,-0.001900482
-1.115001,-0.001894351
-1.114001,-0.001885155
-1.113001,-0.001872893
-1.112001,-0.001866762
-1.111001,-0.001857566
-1.110001,-0.001845304
-1.109001,-0.001839173
-1.108001,-0.001826911
-1.107001,-0.001817714
-1.106001,-0.001811583
-1.105001,-0.001796256
-1.104001,-0.00178706
-1.103001,-0.001780929
-1.102001,-0.001765601
-1.101001,-0.00175947
-1.100001,-0.001750274
-1.099001,-0.001734946
-1.098001,-0.001728815
-1.097001,-0.001716554
-1.096001,-0.001707357
-1.095001,-0.001698161
-1.094001,-0.001685899
-1.093001,-0.001676702
-1.092001,-0.00166444
-1.091001,-0.001652178
-1.090001,-0.001642982
-1.089001,-0.001633785
-1.088001,-0.001621523
-1.087001,-0.001609262
-1.086001,-0.001600065
-1.085001,-0.001621935
-1.084001,-0.001609673
-1.083001,-0.001601396
-1.082001,-0.001589135
-1.081001,-0.001577179
-1.080001,-0.001568289
-1.079001,-0.001555721
-1.078001,-0.001544379
-1.077001,-0.001536715
-1.076001,-0.001521387
-1.075001,-0.001510045
-1.074001,-0.001501155
-1.073001,-0.001486748
-1.072001,-0.00147939
-1.071001,-0.001468355
-1.070001,-0.00145456
-1.069001,-0.00144659
-1.068001,-0.001435247
-1.067001,-0.001422985
-1.066001,-0.001413176
-1.065001,-0.001403366
-1.064001,-0.001392944
-1.063001,-0.001382828
-1.062001,-0.001372712
-1.061001,-0.001361982
-1.060001,-0.001351866
-1.059001,-0.001345735
-1.058001,-0.001331634
-1.057001,-0.001322131
-1.056001,-0.001316
-1.055001,-0.001305884
-1.054001,-0.001296074
-1.053001,-0.001289943
-1.052001,-0.001279521
-1.051001,-0.001269711
-1.050001,-0.001262661
-1.049001,-0.00125469
-1.048001,-0.001244268
-1.047001,-0.001237217
-1.046001,-0.00122986
-1.045001,-0.00122097
-1.044001,-0.001211467
-1.043001,-0.001207175
-1.042001,-0.001195833
-1.041001,-0.001187556
-1.040001,-0.001183878
-1.039001,-0.001172842
-1.038001,-0.001162419
-1.037001,-0.001158128
-1.036001,-0.001150771
-1.035001,-0.001142187
-1.034001,-0.001136363
-1.033001,-0.001129006
-1.032001,-0.001122262
-1.031001,-0.001114291
-1.030001,-0.001107854
-1.029001,-0.001102029
-1.028001,-0.001094059
-1.027001,-0.001087622
-1.026001,-0.001081797
-1.025001,-0.001074747
-1.024001,-0.001067083
-1.023001,-0.001063711
-1.022001,-0.001054821
-1.021001,-0.001050223
-1.020001,-0.001042866
-1.019001,-0.001034282
-1.018001,-0.001029991
-1.017001,-0.001021407
-1.016001,-0.001015276
-1.015001,-0.001011291
-1.014001,-0.001002708
-1.013001,-0.0009968834
-1.012001,-0.0009922851
-1.011001,-0.0009840083
-1.010001,-0.0009781838
-1.009001,-0.000972666
-1.008001,-0.0009668416
-1.007001,-0.0009591779
-1.006001,-0.0009551927
-1.005001,-0.0009481421
-1.004001,-0.0009389457
-1.003001,-0.0009371064
-1.002001,-0.0009297492
-1.001001,-0.0009214724
-1.000001,-0.0009187135
-0.9990008,-0.0009113564
-0.9980009,-0.0009049188
-0.9970009,-0.000899401
-0.9960009,-0.0008929634
-0.9950009,-0.0008880587
-0.9940009,-0.0008819277
-0.9930009,-0.0008748771
-0.9920009,-0.0008711985
-0.9910009,-0.0008635348
-0.9900008,-0.0008577104
-0.9890009,-0.0008543384
-0.9880009,-0.0008429961
-0.9870009,-0.0008414634
-0.9860009,-0.0008344128
-0.9850008,-0.0008249097
-0.9840009,-0.0008227639
-0.9830009,-0.0008166329
-0.9820009,-0.0008086627
-0.9810008,-0.0008074365
-0.9800009,-0.0007970139
-0.9790009,-0.0007936418
-0.9780009,-0.000788737
-0.9770009,-0.0007801537
-0.9760008,-0.0007761685
-0.9750009,-0.0007718769
-0.9740009,-0.0007620673
-0.9730009,-0.0007580822
-0.9720009,-0.0007525643
-0.9710009,-0.0007458202
-0.9700009,-0.000740609
-0.9690009,-0.0007363172
-0.9680009,-0.0007289601
-0.9670008,-0.0007209898
-0.9660009,-0.0007191506
-0.9650009,-0.0007108737
-0.9640009,-0.0007050494
-0.9630009,-0.0007007577
-0.9620008,-0.0006937071
-0.9610009,-0.0006872696
-0.9600009,-0.0006811386
-0.9590009,-0.0006747011
-0.9580009,-0.0006697963
-0.9570009,-0.0006639719
-0.9560009,-0.0006578409
-0.9550009,-0.0006529361
-0.9540009,-0.0006461921
-0.9530008,-0.0006409807
-0.9520009,-0.0006357695
-0.9510009,-0.0006277992
-0.9500009,-0.0006235075
-0.9490009,-0.0006198289
-0.9480008,-0.0006112456
-0.9470009,-0.0006063408
-0.9460009,-0.000600823
-0.9450009,-0.0005959182
-0.9440009,-0.0005916265
-0.9430009,-0.0005830431
-0.9420009,-0.0005793645
-0.9410009,-0.0005747664
-0.9400009,-0.0005658764
-0.9390008,-0.0005625045
-0.9380009,-0.0005579062
-0.9370009,-0.0005480966
-0.9360009,-0.0005453377
-0.9350009,-0.0005389001
-0.9340008,-0.0005318496
-0.9330009,-0.0005284776
-0.9320009,-0.00052204
-0.9310009,-0.0005140697
-0.9300008,-0.0005113108
-0.9290009,-0.000503034
-0.9280009,-0.0004990489
-0.9270009,-0.0004941442
-0.9260009,-0.0004877066
-0.9250008,-0.0004818822
-0.9240009,-0.0004769774
-0.9230009,-0.0004696203
-0.9220009,-0.0004641024
-0.9210009,-0.0004607304
-0.9200009,-0.0004545994
-0.9190009,-0.0004472423
-0.9180009,-0.0004423375
-0.9170009,-0.0004374327
-0.9160008,-0.0004303821
-0.9150009,-0.0004254773
-0.9140009,-0.0004205726
-0.9130009,-0.0004141351
-0.9120009,-0.0004089237
-0.9110008,-0.0004027928
-0.9100009,-0.0003966618
-0.9090009,-0.0003908373
-0.9080009,-0.0003850129
-0.9070009,-0.0003801082
-0.9060009,-0.0003736707
-0.9050009,-0.0003672332
-0.9040009,-0.0003635546
-0.9030009,-0.0003552778
-0.9020008,-0.0003506796
-0.9010009,-0.0003454682
-0.9000009,-0.0003378045
-0.8990009,-0.0003325932
-0.8980009,-0.0003255426
-0.8970008,-0.0003194116
-0.8960009,-0.0003145068
-0.8950009,-0.0003071497
-0.8940009,-0.0003010187
-0.8930008,-0.0002955009
-0.8920009,-0.0002878372
-0.8910009,-0.0002841586
-0.8900009,-0.000277108
-0.8890009,-0.0002697508
-0.8880008,-0.0002660722
-0.8870009,-0.0002584085
-0.8860009,-0.0002510514
-0.8850009,-0.00024584
-0.8840009,-0.0002387894
-0.8830009,-0.0002317388
-0.8820009,-0.0002268341
-0.8810009,-0.00022009
-0.8800009,-0.0002115066
-0.8790008,-0.0002075215
-0.8780009,-0.0001998578
-0.8770009,-0.0001921941
-0.8760009,-0.0001879024
-0.8750009,-0.0001799322
-0.8740008,-0.0001731881
-0.8730009,-0.0001676702
-0.8720009,-0.0001600065
-0.8710009,-0.000153569
-0.8700009,-0.0001465184
-0.8690009,-0.0001385481
-0.8680009,-0.0001335619
-0.8670009,-0.000128933
-0.8660009,-0.0001208095
-0.8650008,-0.0001139428
-0.8640009,-0.0001078425
-0.8630009,-9.971898E-05
-0.8620009,-9.263772E-05
-0.8610009,-8.650675E-05
-0.8600008,-7.724899E-05
-0.8590009,-7.139392E-05
-0.8580009,-6.39448E-05
-0.8570009,-5.520818E-05
-0.8560008,-4.907721E-05
-0.8550009,-4.196529E-05
-0.8540009,-3.365783E-05
-0.8530009,-2.657657E-05
-0.8520009,-1.934203E-05
-0.8510008,-1.042147E-05
-0.8500009,-5.363427E-06
-0.8490009,3.189269E-06
-0.8480009,1.085298E-05
-0.8470009,1.83021E-05
-0.8460009,2.737593E-05
-0.8450009,3.433457E-05
-0.8440009,4.147715E-05
-0.8430009,4.981526E-05
-0.8420008,5.613015E-05
-0.8410009,6.520398E-05
-0.8400009,7.280638E-05
-0.8390009,7.951978E-05
-0.8380009,8.856296E-05
-0.8370008,9.588946E-05
-0.8360009,0.0001037371
-0.8350009,0.0001112475
-0.8340009,0.0001189112
-0.8330009,0.0001268202
-0.8320009,0.0001340241
-0.8310009,0.0001423315
-0.8300009,0.0001490756
-0.8290009,0.0001572604
-0.8280008,0.0001672232
-0.8270009,0.0001723119
-0.8260009,0.0001814164
-0.8250009,0.0001896626
-0.8240009,0.0001953337
-0.8230008,0.0002044995
-0.8220009,0.0002115808
-0.8210009,0.0002184168
-0.8200009,0.0002282877
-0.8190009,0.0002360127
-0.8180009,0.0002432779
-0.8170009,0.0002528728
-0.8160009,0.0002589731
-0.8150009,0.0002669434
-0.8140008,0.0002743005
-0.8130009,0.0002798491
-0.8120009,0.0002897199
-0.8110009,0.0002998159
-0.8100009,0.0003059468
-0.8090008,0.0003148368
-0.8080009,0.0003206612
-0.8070009,0.0003274052
-0.8060009,0.0003366017
-0.8050008,0.0003411999
-0.8040009,0.0003497833
-0.8030009,0.0003565273
-0.8020009,0.0003620452
-0.8010009,0.0003690958
-0.8000008,0.0003169826
-0.8009992,0.0002415717
-0.8019992,0.0001909913
-0.8029991,0.0001480745
-0.8039991,0.0001063839
-0.8049992,6.658345E-05
-0.8059992,3.497832E-05
-0.8069991,3.250579E-06
-0.8079991,-2.406287E-05
-0.8089992,-5.229596E-05
-0.8099992,-7.924155E-05
-0.8109992,-0.0001023247
-0.8119991,-0.0001272777
-0.8129991,-0.0001502075
-0.8139992,-0.0001703784
-0.8149992,-0.0001924192
-0.8159992,-0.0002129272
-0.8169991,-0.0002314428
-0.8179991,-0.0002521961
-0.8189992,-0.0002714166
-0.8199992,-0.0002861003
-0.8209991,-0.0003034711
-0.8219991,-0.0003175724
-0.8229992,-0.0003344325
-0.8239992,-0.0003500664
-0.8249992,-0.0003650873
-0.8259991,-0.0003798016
-0.8269991,-0.000394516
-0.8279992,-0.0004092303
-0.8289992,-0.000423638
-0.8299991,-0.0004368196
-0.8309991,-0.0004490816
-0.8319992,-0.0004637959
-0.8329992,-0.0004763643
-0.8339992,-0.0004886262
-0.8349991,-0.0005018078
-0.8359991,-0.000512537
-0.8369992,-0.0005257186
-0.8379992,-0.0005395133
-0.8389992,-0.0005502424
-0.8399991,-0.0005609716
-0.8409991,-0.0005744598
-0.8419992,-0.0005839628
-0.8429992,-0.0005959182
-0.8439991,-0.0006072604
-0.8449991,-0.0006167634
-0.8459992,-0.0006274926
-0.8469992,-0.0006400611
-0.8479992,-0.0006471117
-0.8489991,-0.0006609064
-0.8499991,-0.0006725552
-0.8509992,-0.0006786863
-0.8519992,-0.0006918678
-0.8529992,-0.0007019839
-0.8539991,-0.0007090345
-0.8549991,-0.0007209898
-0.8559992,-0.0007301863
-0.8569992,-0.0007381566
-0.8579991,-0.0007488858
-0.8589991,-0.0007583887
-0.8599992,-0.0007666656
-0.8609992,-0.0007764751
-0.8619992,-0.0007862847
-0.8629991,-0.0007939483
-0.8639991,-0.0008031448
-0.8649992,-0.0008126478
-0.8659992,-0.0008209246
-0.8669991,-0.0008301211
-0.8679991,-0.0008390109
-0.8689992,-0.0008469812
-0.8699992,-0.0008564842
-0.8709992,-0.0008656807
-0.8719991,-0.0008730378
-0.8729991,-0.0008816211
-0.8739992,-0.0008892849
-0.8749992,-0.000899401
-0.8759992,-0.0009067581
-0.8769991,-0.0009144219
-0.8779991,-0.0009245379
-0.8789992,-0.000931895
-0.8799992,-0.0009395588
-0.8809991,-0.000950288
-0.8819991,-0.0009564189
-0.8829992,-0.0009659219
-0.8839992,-0.0009751184
-0.8849992,-0.0009809429
-0.8859991,-0.0009898327
-0.8869991,-0.0009987226
-0.8879992,-0.001003627
-0.8889992,-0.00101405
-0.8899992,-0.001021714
-0.8909991,-0.001027845
-0.8919991,-0.001035815
-0.8929992,-0.001045318
-0.8939992,-0.001051142
-0.8949991,-0.001059113
-0.8959991,-0.001067696
-0.8969992,-0.001074134
-0.8979992,-0.001081797
-0.8989992,-0.001090687
-0.8999991,-0.001094979
-0.9009991,-0.001103869
-0.9019992,-0.001110919
-0.9029992,-0.001118583
-0.9039991,-0.001125327
-0.9049991,-0.001132071
-0.9059991,-0.001139428
-0.9069992,-0.001145559
-0.9079992,-0.00115353
-0.9089991,-0.001161193
-0.9099991,-0.001167324
-0.9109992,-0.001173455
-0.9119992,-0.001181732
-0.9129992,-0.00118817
-0.9139991,-0.001194914
-0.9149991,-0.001201351
-0.9159992,-0.001209015
-0.9169992,-0.001215452
-0.9179991,-0.00122189
-0.9189991,-0.001229247
-0.9199992,-0.001234152
-0.9209992,-0.001242429
-0.9219992,-0.001249173
-0.9229991,-0.00125469
-0.9239991,-0.001262661
-0.9249992,-0.001268485
-0.9259992,-0.001274616
-0.9269992,-0.0012832
-0.9279991,-0.001287491
-0.9289991,-0.001293929
-0.9299992,-0.001302205
-0.9309992,-0.001305577
-0.9319991,-0.00131508
-0.9329991,-0.001322131
-0.9339992,-0.00132489
-0.9349992,-0.0013347
-0.9359992,-0.001341444
-0.9369991,-0.001345429
-0.9379991,-0.001354012
-0.9389992,-0.001359837
-0.9399992,-0.001364128
-0.9409992,-0.001372405
-0.9419991,-0.001378843
-0.9429991,-0.001383134
-0.9439992,-0.001389572
-0.9449992,-0.001397542
-0.9459991,-0.001401221
-0.9469991,-0.001408271
-0.9479992,-0.001416548
-0.9489992,-0.001419
-0.9499992,-0.001426971
-0.9509991,-0.001434021
-0.9519991,-0.001438006
-0.9529992,-0.001447203
-0.9539992,-0.001452108
-0.9549991,-0.001457625
-0.9559991,-0.001465289
-0.9569992,-0.001470807
-0.9579992,-0.001475099
-0.9589992,-0.001484295
-0.9599991,-0.001489813
-0.9609991,-0.001495331
-0.9619992,-0.001502995
-0.9629992,-0.001508819
-0.9639992,-0.001513111
-0.9649991,-0.001522614
-0.9659991,-0.001526599
-0.9669992,-0.00153181
-0.9679992,-0.001541313
-0.9689991,-0.001547751
-0.9699991,-0.001552655
-0.9709992,-0.00155848
-0.9719992,-0.00156645
-0.9729992,-0.001572581
-0.9739991,-0.001579019
-0.9749991,-0.001584843
-0.9759992,-0.0015922
-0.9769992,-0.001598025
-0.9779992,-0.001604769
-0.9789991,-0.001611513
-0.9799991,-0.001619176
-0.9809992,-0.001625001
-0.9819992,-0.001633584
-0.9829991,-0.001640635
-0.9839991,-0.00164462
-0.9849992,-0.001654429
-0.9859992,-0.001662093
-0.9869992,-0.001666385
-0.9879991,-0.001673742
-0.9889991,-0.001682325
-0.9899992,-0.001687537
-0.9909992,-0.001694894
-0.9919991,-0.001702558
-0.9929991,-0.001710834
-0.9939992,-0.001716965
-0.9949992,-0.001723096
-0.9959992,-0.001732599
-0.9969991,-0.001738424
-0.9979991,-0.001747007
-0.9989992,-0.00175651
-0.9999992,-0.001759269
-1.000999,-0.001769692
-1.001999,-0.001776436
-1.002999,-0.001780727
-1.003999,-0.001791763
-1.004999,-0.001800346
-1.005999,-0.001805558
-1.006999,-0.001816287
-1.007999,-0.001822724
-1.008999,-0.001829468
-1.009999,-0.001839278
-1.010999,-0.001849088
-1.011999,-0.001853992
-1.012999,-0.001864108
-1.013999,-0.001869933
-1.014999,-0.001879436
-1.015999,-0.001888939
-1.016999,-0.001896296
-1.017999,-0.001904573
-1.018999,-0.001915609
-1.019999,-0.001921127
-1.020999,-0.001932469
-1.021999,-0.001940132
-1.022999,-0.00194565
-1.023999,-0.001956686
-1.024999,-0.001964043
-1.025999,-0.001968335
-1.026999,-0.001980597
-1.027999,-0.00198918
-1.028999,-0.001993472
-1.029999,-0.002005734
-1.030999,-0.002013704
-1.031999,-0.002017689
-1.032999,-0.002028418
-1.033999,-0.002038841
-1.034999,-0.002041293
-1.035999,-0.002056008
-1.036999,-0.002060606
-1.037999,-0.00206827
-1.038999,-0.002078079
-1.039999,-0.002082064
-1.040999,-0.002091874
-1.041999,-0.002100764
-1.042999,-0.002107508
-1.043999,-0.002117624
-1.044999,-0.002123448
-1.045999,-0.002131725
-1.046999,-0.002141228
-1.047999,-0.002145826
-1.048999,-0.002155942
-1.049999,-0.002166365
-1.050999,-0.002170044
-1.051999,-0.002177401
-1.052999,-0.002185677
-1.053999,-0.002194261
-1.054999,-0.002203151
-1.055999,-0.002212041
-1.056999,-0.002215106
-1.057999,-0.002228288
-1.058999,-0.002231047
-1.059999,-0.002240243
-1.060999,-0.0022476
-1.061999,-0.002254344
-1.062999,-0.002260782
-1.063999,-0.002270591
-1.064999,-0.002276109
-1.065999,-0.002284079
-1.066999,-0.002291743
-1.067999,-0.002298487
-1.068999,-0.002304312
-1.069999,-0.002317493
-1.070999,-0.002320252
-1.071999,-0.002326996
-1.072999,-0.002338338
-1.073999,-0.002343243
-1.074999,-0.002352746
-1.075999,-0.00235949
-1.076999,-0.002368074
-1.077999,-0.002375431
-1.078999,-0.002383095
-1.079999,-0.002389226
-1.080999,-0.002401487
-1.081999,-0.002407925
-1.082999,-0.002416815
-1.083999,-0.002426931
-1.084999,-0.002432755
-1.085999,-0.002441032
-1.086999,-0.002454827
-1.087999,-0.002457892
-1.088999,-0.002471687
-1.089999,-0.002485482
-1.090999,-0.002489773
-1.091999,-0.002505714
-1.092999,-0.00251583
-1.093999,-0.002521655
-1.094999,-0.002535449
-1.095999,-0.002545565
-1.096999,-0.002554761
-1.097999,-0.002570396
-1.098999,-0.002578059
-1.099999,-0.002590935
-1.100999,-0.002604116
-1.101999,-0.002613925
-1.102999,-0.002628946
-1.103999,-0.002641515
-1.104999,-0.002648259
-1.105999,-0.002666039
-1.106999,-0.002674622
-1.107999,-0.002684738
-1.108999,-0.002700065
-1.109999,-0.002711408
-1.110999,-0.002720911
-1.111999,-0.002735319
-1.112999,-0.002744209
-1.113999,-0.002753711
-1.114999,-0.002765974
-1.115999,-0.00277517
-1.116999,-0.002782527
-1.117999,-0.00279203
-1.118999,-0.002796628
-1.119999,-0.002804599
-1.120999,-0.002815328
-1.121999,-0.002815941
-1.122999,-0.002822685
-1.123999,-0.002831881
-1.124999,-0.002828509
-1.125999,-0.002835866
-1.126999,-0.002839238
-1.127999,-0.002835253
-1.128999,-0.002839238
-1.129999,-0.002839238
-1.130999,-0.00283464
-1.131999,-0.002839851
-1.132999,-0.002837706
-1.133999,-0.002831881
-1.134999,-0.002834334
-1.135999,-0.002832188
-1.136999,-0.002829122
-1.137999,-0.002828203
-1.138999,-0.00282759
-1.139999,-0.002823605
-1.140999,-0.002829122
-1.141999,-0.002824524
-1.142999,-0.002825444
-1.143999,-0.00282575
-1.144999,-0.002822072
-1.145999,-0.002822991
-1.146999,-0.002822991
-1.147999,-0.002825444
-1.148999,-0.002828203
-1.149999,-0.002828203
-1.150999,-0.002831575
-1.151999,-0.002835253
-1.152999,-0.002835253
-1.153999,-0.002839545
-1.154999,-0.00284445
-1.155999,-0.002849354
-1.156999,-0.002850887
-1.157999,-0.002857631
-1.158999,-0.002860084
-1.159999,-0.002864375
-1.160999,-0.002875105
-1.161999,-0.002875105
-1.162999,-0.002883688
-1.163999,-0.002892578
-1.164999,-0.002893191
-1.165999,-0.002902387
-1.166999,-0.002910051
-1.167999,-0.002910358
-1.168999,-0.002918328
-1.169999,-0.00292967
-1.170999,-0.002935495
-1.171999,-0.002943771
-1.172999,-0.002953274
-1.173999,-0.002958486
-1.174999,-0.002965536
-1.175999,-0.002976879
-1.176999,-0.00298209
-1.177999,-0.002994965
-1.178999,-0.003002322
-1.179999,-0.003012132
-1.180999,-0.002985663
-1.181999,-0.002991794
-1.182999,-0.003000991
-1.183999,-0.003010187
-1.184999,-0.003019383
-1.185999,-0.003031645
-1.186999,-0.003043907
-1.187999,-0.003053104
-1.188999,-0.003065366
-1.189999,-0.003077628
-1.190999,-0.003086824
-1.191999,-0.003099086
-1.192999,-0.003111348
-1.193999,-0.00312361
-1.194999,-0.003135872
-1.195999,-0.003151199
-1.196999,-0.003160396
-1.197999,-0.003175723
-1.198999,-0.003191051
-1.199999,-0.003200247
-1.200999,-0.003215575
-1.201999,-0.003230902
-1.202999,-0.003243164
-1.203999,-0.003261557
-1.204999,-0.003273819
-1.205999,-0.003286081
-1.206999,-0.003304473
-1.207999,-0.003319801
-1.208999,-0.003332063
-1.209999,-0.003350456
-1.210999,-0.003365783
-1.211999,-0.00338111
-1.212999,-0.003396438
-1.213999,-0.003414831
-1.214999,-0.003430158
-1.215999,-0.003448551
-1.216999,-0.003463879
-1.217999,-0.003479206
-1.218999,-0.003500664
-1.219999,-0.003515992
-1.220999,-0.003534385
-1.221999,-0.003555843
-1.222999,-0.00357117
-1.223999,-0.003589563
-1.224999,-0.003611021
-1.225999,-0.003626349
-1.226999,-0.003647808
-1.227999,-0.003669266
-1.228999,-0.003687659
-1.229999,-0.003709117
-1.230999,-0.00372751
-1.231999,-0.003745903
-1.232999,-0.003770427
-1.233999,-0.00378882
-1.234999,-0.003813344
-1.235999,-0.003837867
-1.236999,-0.00385626
-1.237999,-0.003880784
-1.238999,-0.003905308
-1.239999,-0.003926767
-1.240999,-0.003954356
-1.241999,-0.00397888
-1.242999,-0.004000338
-1.243999,-0.004034058
-1.244999,-0.004061648
-1.245999,-0.004086172
-1.246999,-0.004116826
-1.247999,-0.004147481
-1.248999,-0.00417507
-1.249999,-0.004208791
-1.250999,-0.004242511
-1.251999,-0.004273166
-1.252999,-0.004306886
-1.253999,-0.004343672
-1.254999,-0.004377393
-1.255999,-0.004414178
-1.256999,-0.004447898
-1.257999,-0.004493881
-1.258999,-0.004536797
-1.259999,-0.004570518
-1.260999,-0.004622631
-1.261999,-0.004665548
-1.262999,-0.004705399
-1.263999,-0.004760577
-1.264999,-0.004809625
-1.265999,-0.004855608
-1.266999,-0.004913852
-1.267999,-0.004969031
-1.268999,-0.005021143
-1.269999,-0.005085519
-1.270999,-0.005143763
-1.271999,-0.005205072
-1.272999,-0.005275579
-1.273999,-0.005339954
-1.274999,-0.00541046
-1.275999,-0.005490162
-1.276999,-0.005560669
-1.277999,-0.005640371
-1.278999,-0.005726204
-1.279999,-0.005802842
-1.280999,-0.005897872
-1.281999,-0.005986771
-1.282999,-0.00607567
-1.283999,-0.00617683
-1.284999,-0.006277991
-1.285999,-0.006382218
-1.286999,-0.006495641
-1.287999,-0.006602933
-1.288999,-0.006722487
-1.289999,-0.006845106
-1.290999,-0.006964659
-1.291999,-0.007096475
-1.292999,-0.007231356
-1.293999,-0.007366238
-1.294999,-0.007510316
-1.295999,-0.007654393
-1.296999,-0.007801536
-1.297999,-0.007960942
-1.298999,-0.008120347
-1.299999,-0.008282817
-1.300999,-0.008454484
-1.301999,-0.008629217
-1.302999,-0.008807015
-1.303999,-0.008994009
-1.304999,-0.009184069
-1.305999,-0.00938026
-1.306999,-0.009582582
-1.307999,-0.009781837
-1.308999,-0.009993357
-1.309999,-0.01020794
-1.310999,-0.01042252
-1.311999,-0.01064937
-1.312999,-0.01087928
-1.313999,-0.01110306
-1.314999,-0.01134523
-1.315999,-0.01159047
-1.316999,-0.01182652
-1.317999,-0.01208402
-1.318999,-0.01234152
-1.319999,-0.01258982
-1.320999,-0.01286265
-1.321999,-0.01312628
-1.322999,-0.01339298
-1.323999,-0.01368113
-1.324999,-0.01396009
-1.325999,-0.01424825
-1.326999,-0.01454866
-1.327999,-0.01483682
-1.328999,-0.01513724
-1.329999,-0.01544072
-1.330999,-0.01575033
-1.331999,-0.01605995
-1.332999,-0.01637262
-1.333999,-0.01668531
-1.334999,-0.01700412
-1.335999,-0.01732906
-1.336999,-0.01764787
-1.337999,-0.01797587
-1.338999,-0.01831308
-1.339999,-0.01864108
-1.340999,-0.01897829
-1.341999,-0.01931855
-1.342999,-0.01965269
-1.343999,-0.02000216
-1.344999,-0.02034856
-1.345999,-0.02068882
-1.346999,-0.02104749
-1.347999,-0.02140308
-1.348999,-0.02175255
-1.349999,-0.0221204
-1.350999,-0.022476
-1.351999,-0.0228316
-1.352999,-0.02320252
-1.353999,-0.02356425
-1.354999,-0.02393517
-1.355999,-0.02431222
-1.356999,-0.02468315
-1.357999,-0.02504794
-1.358999,-0.02542193
-1.359999,-0.02579285
-1.360999,-0.02618524
-1.361999,-0.02655309
-1.362999,-0.02693015
-1.363999,-0.0273164
-1.364999,-0.02769652
-1.365999,-0.0280797
-1.366999,-0.02848128
-1.367999,-0.0288614
-1.368999,-0.02924459
-1.369999,-0.02964616
-1.370999,-0.03003241
-1.371999,-0.03042786
-1.372999,-0.03096021
-1.373999,-0.03132806
-1.374999,-0.03172658
-1.375999,-0.03212509
-1.376999,-0.0325236
-1.377999,-0.03295277
-1.378999,-0.03335128
-1.379999,-0.0337498
-1.380999,-0.03414831
-1.381999,-0.03457748
-1.382999,-0.03497599
-1.383999,-0.03540516
-1.384999,-0.03580367
-1.385999,-0.03620218
-1.386999,-0.03663135
-1.387999,-0.03706052
-1.388999,-0.03742838
-1.389999,-0.03785754
-1.390999,-0.03828671
-1.391999,-0.03868522
-1.392999,-0.03911439
-1.393999,-0.03954356
-1.394999,-0.03997273
-1.395999,-0.04040189
-1.396999,-0.0408004
-1.397999,-0.04122957
-1.398999,-0.04165874
-1.399999,-0.04208791
-1.400999,-0.04248642
-1.401999,-0.04291559
-1.402999,-0.04334476
-1.403999,-0.04377393
-1.404999,-0.04420309
-1.405999,-0.0446016
-1.406999,-0.04503077
-1.407999,-0.04545994
-1.408999,-0.04588911
-1.409999,-0.04631827
-1.410999,-0.04674744
-1.411999,-0.04717661
-1.412999,-0.04760578
-1.413999,-0.04803495
-1.414999,-0.04846412
-1.415999,-0.04889328
-1.416999,-0.04932245
-1.417999,-0.04978227
-1.418999,-0.05021144
-1.419999,-0.05064061
-1.420999,-0.05106977
-1.421999,-0.05146828
-1.422999,-0.05192811
-1.423999,-0.05235728
-1.424999,-0.05278645
-1.425999,-0.05321561
-1.426999,-0.05361412
-1.427999,-0.0541046
-1.428999,-0.05450311
-1.429999,-0.05496293
-1.430999,-0.05542276
-1.431999,-0.05582127
-1.432999,-0.0562811
-1.433999,-0.05671026
-1.434999,-0.05717008
-1.435999,-0.05759925
-1.436999,-0.05802842
-1.437999,-0.05845758
-1.438999,-0.05891741
-1.439999,-0.05934658
-1.440999,-0.05977575
-1.441999,-0.06020491
-1.442999,-0.06063408
-1.443999,-0.0610939
-1.444999,-0.06152307
-1.445999,-0.06195223
-1.446999,-0.06241206
-1.447999,-0.06284123
-1.448999,-0.0632704
-1.449999,-0.06373022
-1.450999,-0.06415939
-1.451999,-0.06458855
-1.452999,-0.06507903
-1.453999,-0.06550819
-1.454999,-0.06596802
-1.455999,-0.06639718
-1.456999,-0.06682636
-1.457999,-0.06728618
-1.458999,-0.067746
-1.459999,-0.06817517
-1.460999,-0.06860434
-1.461999,-0.06906416
-1.462999,-0.06952398
-1.463999,-0.06995314
-1.464999,-0.07038232
-1.465999,-0.07084214
-1.466999,-0.0712713
-1.467999,-0.07173113
-1.468999,-0.0721603
-1.469999,-0.07262012
-1.470999,-0.07307994
-1.471999,-0.0735091
-1.472999,-0.07396893
-1.473999,-0.07442875
-1.474999,-0.07485792
-1.475999,-0.07531774
-1.476999,-0.07574691
-1.477999,-0.07617608
-1.478999,-0.07666656
-1.479999,-0.07709572
-1.480999,-0.07752489
-1.481999,-0.07798471
-1.482999,-0.07844453
-1.483999,-0.0788737
-1.484999,-0.07933352
-1.485999,-0.07979335
-1.486999,-0.08022251
-1.487999,-0.08068234
-1.488999,-0.08114216
-1.489999,-0.08157133
-1.490999,-0.08203115
-1.491999,-0.08249097
-1.492999,-0.08292013
-1.493999,-0.08341061
-1.494999,-0.08383978
-1.495999,-0.08429961
-1.496999,-0.08475943
-1.497999,-0.08521925
-1.498999,-0.08564842
-1.499999,-0.08580169
-1.499001,-0.08540318
-1.498001,-0.08494335
-1.497001,-0.08454484
-1.496001,-0.08414634
-1.495001,-0.08365586
-1.494001,-0.08322669
-1.493001,-0.08279752
-1.492001,-0.08236835
-1.491001,-0.08190853
-1.490001,-0.08147936
-1.489001,-0.08101954
-1.488001,-0.08059037
-1.487001,-0.08016121
-1.486001,-0.07970139
-1.485001,-0.07924156
-1.484001,-0.07881239
-1.483001,-0.07838323
-1.482001,-0.0779234
-1.481001,-0.07746358
-1.480001,-0.07703441
-1.479001,-0.07654393
-1.478001,-0.07611477
-1.477001,-0.0756856
-1.476001,-0.07522578
-1.475001,-0.07479661
-1.474001,-0.07436744
-1.473001,-0.07387697
-1.472001,-0.07344779
-1.471001,-0.07301863
-1.470001,-0.07255881
-1.469001,-0.07209899
-1.468001,-0.07166982
-1.467001,-0.07120999
-1.466001,-0.07075017
-1.465001,-0.07032101
-1.464001,-0.06986118
-1.463001,-0.06943201
-1.462001,-0.06900284
-1.461001,-0.06857368
-1.460001,-0.06811386
-1.459001,-0.06768469
-1.458001,-0.06722487
-1.457001,-0.0667957
-1.456001,-0.06633588
-1.455001,-0.06590671
-1.454001,-0.06550819
-1.453001,-0.06501772
-1.452001,-0.06458855
-1.451001,-0.06415939
-1.450001,-0.06373022
-1.449001,-0.0632704
-1.448001,-0.06284123
-1.447001,-0.06241206
-1.446001,-0.06198289
-1.445001,-0.06155372
-1.444001,-0.0610939
-1.443001,-0.06066473
-1.442001,-0.06023557
-1.441001,-0.0598064
-1.440001,-0.05937723
-1.439001,-0.05891741
-1.438001,-0.05848824
-1.437001,-0.05808973
-1.436001,-0.05762991
-1.435001,-0.05720074
-1.434001,-0.05677157
-1.433001,-0.05631175
-1.432001,-0.05588258
-1.431001,-0.05545342
-1.430001,-0.05502424
-1.429001,-0.05462573
-1.428001,-0.05416591
-1.427001,-0.05373674
-1.426001,-0.05333823
-1.425001,-0.05290907
-1.424001,-0.05247989
-1.423001,-0.05205073
-1.422001,-0.05162156
-1.421001,-0.05119239
-1.420001,-0.05079388
-1.419001,-0.05036471
-1.418001,-0.04993555
-1.417001,-0.04950638
-1.416001,-0.04910786
-1.415001,-0.04870935
-1.414001,-0.04824953
-1.413001,-0.04782036
-1.412001,-0.04742185
-1.411001,-0.04699268
-1.410001,-0.04656351
-1.409001,-0.046165
-1.408001,-0.04576649
-1.407001,-0.04533732
-1.406001,-0.04496947
-1.405001,-0.0445403
-1.404001,-0.04414178
-1.403001,-0.04374327
-1.402001,-0.0433141
-1.401001,-0.04291559
-1.400001,-0.04248642
-1.399001,-0.04208791
-1.398001,-0.0416894
-1.397001,-0.04126023
-1.396001,-0.04089237
-1.395001,-0.04049386
-1.394001,-0.04006469
-1.393001,-0.03966618
-1.392001,-0.03926767
-1.391001,-0.03886915
-1.390001,-0.03847064
-1.389001,-0.03807213
-1.388001,-0.03767361
-1.387001,-0.03730575
-1.386001,-0.03690724
-1.385001,-0.03647808
-1.384001,-0.03611022
-1.383001,-0.03571171
-1.382001,-0.03531319
-1.381001,-0.03494534
-1.380001,-0.03454682
-1.379001,-0.03417896
-1.378001,-0.03378045
-1.377001,-0.03338194
-1.376001,-0.03301408
-1.375001,-0.03264622
-1.374001,-0.03224771
-1.373001,-0.03187985
-1.372001,-0.03148134
-1.371001,-0.03111348
-1.370001,-0.03074562
-1.369001,-0.03037777
-1.368001,-0.03000991
-1.367001,-0.02964205
-1.366001,-0.02927419
-1.365001,-0.02890633
-1.364001,-0.02853847
-1.363001,-0.02817062
-1.362001,-0.02780276
-1.361001,-0.0274349
-1.360001,-0.0270977
-1.359001,-0.02672984
-1.358001,-0.02639264
-1.357001,-0.02602478
-1.356001,-0.02568758
-1.355001,-0.02531972
-1.354001,-0.02495186
-1.353001,-0.02461466
-1.352001,-0.02427745
-1.351001,-0.0239096
-1.350001,-0.02357239
-1.349001,-0.02323519
-1.348001,-0.02289799
-1.347001,-0.02259144
-1.346001,-0.02225424
-1.345001,-0.02191703
-1.344001,-0.02157983
-1.343001,-0.02127328
-1.342001,-0.02093608
-1.341001,-0.02059888
-1.340001,-0.02026167
-1.339001,-0.01995512
-1.338001,-0.01964858
-1.337001,-0.01931137
-1.336001,-0.01900483
-1.335001,-0.01869828
-1.334001,-0.01839173
-1.333001,-0.01808518
-1.332001,-0.01780929
-1.331001,-0.01750274
-1.330001,-0.01719619
-1.329001,-0.01688964
-1.328001,-0.01661375
-1.327001,-0.0163072
-1.326001,-0.01603131
-1.325001,-0.01586376
-1.324001,-0.01558173
-1.323001,-0.01531197
-1.322001,-0.01504834
-1.321001,-0.01477551
-1.320001,-0.01450881
-1.319001,-0.01424825
-1.318001,-0.01398462
-1.317001,-0.01373018
-1.316001,-0.01348188
-1.315001,-0.01323051
-1.314001,-0.01297914
-1.313001,-0.01274003
-1.312001,-0.01249786
-1.311001,-0.01226181
-1.310001,-0.01203497
-1.309001,-0.01180199
-1.308001,-0.01157821
-1.307001,-0.01136363
-1.306001,-0.01114598
-1.305001,-0.01093139
-1.304001,-0.01072294
-1.303001,-0.01051449
-1.302001,-0.0103091
-1.301001,-0.01011291
-1.300001,-0.009907522
-1.299001,-0.009717463
-1.298001,-0.009527403
-1.297001,-0.009334277
-1.296001,-0.009159545
-1.295001,-0.008978682
-1.294001,-0.008800884
-1.293001,-0.008629217
-1.292001,-0.008460615
-1.291001,-0.008295079
-1.290001,-0.00813874
-1.289001,-0.0079824
-1.288001,-0.007832191
-1.287001,-0.007678917
-1.286001,-0.007534839
-1.285001,-0.007396893
-1.284001,-0.007252815
-1.283001,-0.007114868
-1.282001,-0.006986118
-1.281001,-0.006854302
-1.280001,-0.006731683
-1.279001,-0.006612129
-1.278001,-0.00648951
-1.277001,-0.006373021
-1.276001,-0.006262664
-1.275001,-0.006152307
-1.274001,-0.006045015
-1.273001,-0.005946919
-1.272001,-0.005845758
-1.271001,-0.005747663
-1.270001,-0.005658764
-1.269001,-0.005563734
-1.268001,-0.005474835
-1.267001,-0.005392067
-1.266001,-0.005306234
-1.265001,-0.005226531
-1.264001,-0.005146828
-1.263001,-0.005070191
-1.262001,-0.004999685
-1.261001,-0.004926114
-1.260001,-0.004855608
-1.259001,-0.004794298
-1.258001,-0.004723792
-1.257001,-0.004662482
-1.256001,-0.004604238
-1.255001,-0.004542928
-1.254001,-0.00448775
-1.253001,-0.004432571
-1.252001,-0.004377393
-1.251001,-0.004328344
-1.250001,-0.004276231
-1.249001,-0.004227184
-1.248001,-0.004181202
-1.247001,-0.004132153
-1.246001,-0.004089237
-1.245001,-0.004049386
-1.244001,-0.004000338
-1.243001,-0.003960487
-1.242001,-0.003926767
-1.241001,-0.003880784
-1.240001,-0.003847064
-1.239001,-0.003813344
-1.238001,-0.003770427
-1.237001,-0.003739772
-1.236001,-0.003706052
-1.235001,-0.0036662
-1.234001,-0.003638611
-1.233001,-0.003607956
-1.232001,-0.003574236
-1.231001,-0.003549712
-1.230001,-0.003515992
-1.229001,-0.003482271
-1.228001,-0.003457748
-1.227001,-0.003427093
-1.226001,-0.003399503
-1.225001,-0.003374979
-1.224001,-0.003344325
-1.223001,-0.003322866
-1.222001,-0.003295277
-1.221001,-0.003270753
-1.220001,-0.003249295
-1.219001,-0.003224771
-1.218001,-0.003197182
-1.217001,-0.003178789
-1.216001,-0.003151199
-1.215001,-0.003132806
-1.214001,-0.003114413
-1.213001,-0.003089889
-1.212001,-0.003068431
-1.211001,-0.003056169
-1.210001,-0.00302858
-1.209001,-0.003013253
-1.208001,-0.00299486
-1.207001,-0.002970336
-1.206001,-0.002951943
-1.205001,-0.002939681
-1.204001,-0.002912092
-1.203001,-0.00289983
-1.202001,-0.002887568
-1.201001,-0.002863044
-1.200001,-0.002850782
-1.199001,-0.002832389
-1.198001,-0.002810931
-1.197001,-0.002795603
-1.196001,-0.002780276
-1.195001,-0.002761883
-1.194001,-0.002749621
-1.193001,-0.002731228
-1.192001,-0.002718966
-1.191001,-0.002703639
-1.190001,-0.00268218
-1.189001,-0.002669919
-1.188001,-0.002657657
-1.187001,-0.002642329
-1.186001,-0.002630068
-1.185001,-0.002611674
-1.184001,-0.002596347
-1.183001,-0.002590216
-1.182001,-0.002571823
-1.181001,-0.002556496
-1.180001,-0.002547299
-1.179001,-0.002531972
-1.178001,-0.002516645
-1.177001,-0.002504382
-1.176001,-0.00249212
-1.175001,-0.002479859
-1.174001,-0.002467597
-1.173001,-0.002455335
-1.172001,-0.002436942
-1.171001,-0.002427745
-1.170001,-0.002415484
-1.169001,-0.002400156
-1.168001,-0.002397091
-1.167001,-0.002378698
-1.166001,-0.002366436
-1.165001,-0.002357239
-1.164001,-0.002341912
-1.163001,-0.002332716
-1.162001,-0.002323519
-1.161001,-0.002308191
-1.160001,-0.00229593
-1.159001,-0.002289799
-1.158001,-0.002274471
-1.157001,-0.002265275
-1.156001,-0.002253013
-1.155001,-0.002240751
-1.154001,-0.002231555
-1.153001,-0.002222358
-1.152001,-0.002207031
-1.151001,-0.002197834
-1.150001,-0.002185572
-1.149001,-0.002176376
-1.148001,-0.002167179
-1.147001,-0.002157983
-1.146001,-0.002142655
-1.145001,-0.002133459
-1.144001,-0.002127328
-1.143001,-0.002108935
-1.142001,-0.002102804
-1.141001,-0.002093608
-1.140001,-0.002081346
-1.139001,-0.002072149
-1.138001,-0.002059887
-1.137001,-0.002047626
-1.136001,-0.00204456
-1.135001,-0.002029233
-1.134001,-0.002020036
-1.133001,-0.002013905
-1.132001,-0.001998578
-1.131001,-0.001992447
-1.130001,-0.00198325
-1.129001,-0.001974054
-1.128001,-0.001967923
-1.127001,-0.001955661
-1.126001,-0.001946465
-1.125001,-0.001940334
-1.124001,-0.001925006
-1.123001,-0.001918875
-1.122001,-0.001912744
-1.121001,-0.001900482
-1.120001,-0.001891286
-1.119001,-0.001885155
-1.118001,-0.001869828
-1.117001,-0.001863697
-1.116001,-0.0018545
-1.115001,-0.001842238
-1.114001,-0.001839173
-1.113001,-0.001826911
-1.112001,-0.001814649
-1.111001,-0.001808518
-1.110001,-0.001799321
-1.109001,-0.00178706
-1.108001,-0.001777863
-1.107001,-0.001768667
-1.106001,-0.001756405
-1.105001,-0.001750274
-1.104001,-0.001738012
-1.103001,-0.001728815
-1.102001,-0.001716554
-1.101001,-0.001707357
-1.100001,-0.001695095
-1.099001,-0.00169203
-1.098001,-0.001676702
-1.097001,-0.001667506
-1.096001,-0.001658309
-1.095001,-0.001642982
-1.094001,-0.001636851
-1.093001,-0.001627655
-1.092001,-0.001609262
-1.091001,-0.001603131
-1.090001,-0.001593934
-1.089001,-0.001613352
-1.088001,-0.001609367
-1.087001,-0.001595879
-1.086001,-0.001583923
-1.085001,-0.001576873
-1.084001,-0.001562158
-1.083001,-0.001553575
-1.082001,-0.001544379
-1.081001,-0.001529358
-1.080001,-0.001521387
-1.079001,-0.001510965
-1.078001,-0.001496557
-1.077001,-0.00148828
-1.076001,-0.001476631
-1.075001,-0.00146345
-1.074001,-0.001455173
-1.073001,-0.00144659
-1.072001,-0.001430343
-1.071001,-0.001425131
-1.070001,-0.001412563
-1.069001,-0.001399688
-1.068001,-0.001391104
-1.067001,-0.001380069
-1.066001,-0.001368726
-1.065001,-0.001360756
-1.064001,-0.001348494
-1.063001,-0.001337152
-1.062001,-0.001328875
-1.061001,-0.001317533
-1.060001,-0.001305884
-1.059001,-0.001300366
-1.058001,-0.00128933
-1.057001,-0.00128044
-1.056001,-0.00127247
-1.055001,-0.001258063
-1.054001,-0.001254077
-1.053001,-0.001243961
-1.052001,-0.001231086
-1.051001,-0.001226181
-1.050001,-0.001219131
-1.049001,-0.001205643
-1.048001,-0.001201351
-1.047001,-0.001191848
-1.046001,-0.001182652
-1.045001,-0.001177134
-1.044001,-0.001165485
-1.043001,-0.001158434
-1.042001,-0.001154756
-1.041001,-0.001144027
-1.040001,-0.001137282
-1.039001,-0.001132991
-1.038001,-0.001120729
-1.037001,-0.001115518
-1.036001,-0.001107854
-1.035001,-0.001098044
-1.034001,-0.0010913
-1.033001,-0.001087315
-1.032001,-0.001076279
-1.031001,-0.001071375
-1.030001,-0.001066163
-1.029001,-0.00105666
-1.028001,-0.001050223
-1.027001,-0.00104777
-1.026001,-0.001034895
-1.025001,-0.001028764
-1.024001,-0.001025086
-1.023001,-0.001012824
-1.022001,-0.001007306
-1.021001,-0.001003014
-1.020001,-0.0009925916
-1.019001,-0.0009901392
-1.018001,-0.0009827821
-1.017001,-0.0009723594
-1.016001,-0.0009708267
-1.015001,-0.0009637761
-1.014001,-0.0009551927
-1.013001,-0.0009512077
-1.012001,-0.0009438504
-1.011001,-0.0009361868
-1.010001,-0.0009325081
-1.009001,-0.0009248445
-1.008001,-0.0009171807
-1.007001,-0.0009125826
-1.006001,-0.0009064515
-1.005001,-0.000899401
-1.004001,-0.0008948027
-1.003001,-0.0008877521
-1.002001,-0.0008807015
-1.001001,-0.0008754902
-1.000001,-0.0008705854
-0.9990011,-0.0008638413
-0.9980011,-0.0008564842
-0.9970011,-0.0008512728
-0.9960011,-0.000845755
-0.9950011,-0.0008393175
-0.9940011,-0.0008322669
-0.9930011,-0.0008279752
-0.9920011,-0.0008209246
-0.9910011,-0.0008147936
-0.9900011,-0.0008108085
-0.9890011,-0.0008037579
-0.9880011,-0.0007973204
-0.9870011,-0.0007933353
-0.9860011,-0.000785365
-0.9850011,-0.0007773947
-0.9840011,-0.000775862
-0.9830011,-0.0007678918
-0.9820011,-0.0007605346
-0.9810011,-0.0007556298
-0.9800011,-0.0007488858
-0.9790011,-0.0007427548
-0.9780011,-0.0007390762
-0.9770011,-0.0007307994
-0.9760011,-0.0007243619
-0.9750011,-0.0007197637
-0.9740011,-0.0007124065
-0.9730011,-0.0007056625
-0.9720011,-0.0007001446
-0.9710011,-0.0006927875
-0.9700011,-0.0006891088
-0.9690011,-0.0006845106
-0.9680011,-0.0006753142
-0.9670011,-0.0006725552
-0.9660011,-0.0006661177
-0.9650011,-0.000658454
-0.9640011,-0.0006526296
-0.9630011,-0.0006477248
-0.9620011,-0.0006403677
-0.9610011,-0.0006342367
-0.9600011,-0.000629945
-0.9590011,-0.000623201
-0.9580011,-0.0006189093
-0.9570011,-0.000613698
-0.9560011,-0.000604808
-0.9550011,-0.0006014361
-0.9540011,-0.0005937723
-0.9530011,-0.000587948
-0.9520011,-0.0005842693
-0.9510011,-0.0005769122
-0.9500011,-0.0005713943
-0.9490011,-0.0005680223
-0.9480011,-0.0005588258
-0.9470011,-0.00055668
-0.9460011,-0.0005511622
-0.9450011,-0.0005419657
-0.9440011,-0.0005395133
-0.9430011,-0.0005346085
-0.9420011,-0.0005263317
-0.9410011,-0.0005241859
-0.9400011,-0.0005165222
-0.9390011,-0.0005103912
-0.9380011,-0.0005079389
-0.9370011,-0.0005002751
-0.9360011,-0.0004944507
-0.9350011,-0.0004907721
-0.9340011,-0.0004837215
-0.9330011,-0.0004775905
-0.9320011,-0.0004720727
-0.9310011,-0.0004656352
-0.9300011,-0.0004613435
-0.9290011,-0.0004567453
-0.9280011,-0.0004496947
-0.9270011,-0.0004438702
-0.9260011,-0.0004408048
-0.9250011,-0.0004319148
-0.9240011,-0.0004285428
-0.9230011,-0.0004239446
-0.9220011,-0.0004153613
-0.9210011,-0.0004119892
-0.9200011,-0.000407391
-0.9190011,-0.0003988076
-0.9180011,-0.0003951291
-0.9170011,-0.0003911439
-0.9160011,-0.0003810278
-0.9150011,-0.0003779623
-0.9140011,-0.0003736707
-0.9130011,-0.0003650873
-0.9120011,-0.0003601825
-0.9110011,-0.0003552778
-0.9100011,-0.0003479206
-0.9090011,-0.0003433224
-0.9080011,-0.0003384176
-0.9070011,-0.0003298343
-0.9060011,-0.0003267688
-0.9050011,-0.0003197182
-0.9040011,-0.0003138937
-0.9030011,-0.0003086824
-0.9020011,-0.0003019384
-0.9010011,-0.0002955009
-0.9000011,-0.000289983
-0.8990011,-0.0002832389
-0.8980011,-0.0002780276
-0.8970011,-0.0002722032
-0.8960011,-0.0002648461
-0.8950011,-0.0002593282
-0.8940011,-0.0002541168
-0.8930011,-0.0002473728
-0.8920011,-0.0002400156
-0.8910011,-0.0002341912
-0.8900011,-0.0002289799
-0.8890011,-0.0002219293
-0.8880011,-0.000217331
-0.8870011,-0.0002084412
-0.8860011,-0.0002035364
-0.8850011,-0.000197712
-0.8840011,-0.0001891286
-0.8830011,-0.0001836107
-0.8820011,-0.0001780929
-0.8810011,-0.0001685899
-0.8800011,-0.0001639917
-0.8790011,-0.0001566345
-0.8780011,-0.0001495839
-0.8770011,-0.0001452922
-0.8760011,-0.0001367089
-0.8750011,-0.0001317533
-0.8740011,-0.000127339
-0.8730011,-0.000119522
-0.8720011,-0.0001124101
-0.8710011,-0.0001065244
-0.8700011,-9.643891E-05
-0.8690011,-9.260706E-05
-0.8680011,-8.635347E-05
-0.8670011,-7.743292E-05
-0.8660011,-7.111803E-05
-0.8650011,-6.468051E-05
-0.8640011,-5.520818E-05
-0.8630011,-4.941441E-05
-0.8620011,-4.23638E-05
-0.8610011,-3.454682E-05
-0.8600011,-2.688312E-05
-0.8590011,-2.084411E-05
-0.8580011,-1.100391E-05
-0.8570011,-5.945868E-06
-0.8560011,1.074086E-06
-0.8550011,1.094494E-05
-0.8540011,1.664674E-05
-0.8530011,2.33908E-05
-0.8520011,3.372148E-05
-0.8510011,3.908607E-05
-0.8500011,4.641257E-05
-0.8490011,5.573164E-05
-0.8480011,6.103492E-05
-0.8470011,6.986351E-05
-0.8460011,7.863079E-05
-0.8450011,8.390343E-05
-0.8440011,9.239481E-05
-0.8430011,0.0001015912
-0.8420011,0.0001060975
-0.8410011,0.0001156618
-0.8400011,0.0001242452
-0.8390011,0.0001303148
-0.8380011,0.0001392047
-0.8370011,0.0001461021
-0.8360011,0.0001533979
-0.8350011,0.0001612455
-0.8340011,0.000168756
-0.8330011,0.0001770328
-0.8320011,0.0001853402
-0.8310011,0.0001922989
-0.8300011,0.0002000546
-0.8290011,0.000207473
-0.8280011,0.0002147382
-0.8270011,0.0002218501
-0.8260011,0.0002307707
-0.8250011,0.0002377294
-0.8240011,0.0002447186
-0.8230011,0.0002536086
-0.8220011,0.0002605366
-0.8210011,0.0002665449
-0.8200011,0.0002761705
-0.8190011,0.0002839568
-0.8180011,0.0002939915
-0.8170011,0.0003031879
-0.8160011,0.0003077862
-0.8150011,0.0003160629
-0.8140011,0.000322807
-0.8130011,0.000328938
-0.8120011,0.0003378279
-0.8110011,0.0003436523
-0.8100011,0.0003510095
-0.8090011,0.0003595928
-0.8080011,0.0003648041
-0.8070011,0.0003721613
-0.8060011,0.0003807446
-0.8050011,0.0003856494
-0.8040011,0.0003933131
-0.8030011,0.0004015899
-0.8020011,0.0004064947
-0.8010011,0.0004132387
