EXPID. 1007
[电化学]: CV : -0.8 >> -0.8 >> -1.5 >> -0.8(V) @ 0.01(V/s) X 10(Seg)
起始电位 (V),-0.8
上限电位 (V),-0.8
下限电位 (V),-1.5
终止电位 (V),-0.8
扫速 (V/s),0.01
电解液 信息:
KOH,1
-0.8,-0.1008427
-0.801,-0.08178591
-0.802,-0.07185375
-0.803,-0.06544688
-0.804,-0.06051146
-0.805,-0.05674092
-0.806,-0.05376739
-0.807,-0.05134567
-0.808,-0.04929179
-0.809,-0.04757512
-0.81,-0.04598107
-0.811,-0.04457095
-0.812,-0.0433141
-0.813,-0.04211856
-0.814,-0.04098434
-0.815,-0.03975814
-0.816,-0.03859326
-0.817,-0.03752034
-0.818,-0.03657004
-0.819,-0.0356504
-0.82,-0.03476141
-0.821,-0.03393373
-0.822,-0.03304474
-0.823,-0.0321864
-0.824,-0.03138937
-0.825,-0.03059235
-0.826,-0.02979532
-0.827,-0.0289983
-0.828,-0.02820127
-0.829,-0.02746556
-0.83,-0.02669919
-0.831,-0.02596347
-0.832,-0.02522776
-0.833,-0.02452269
-0.834,-0.02384829
-0.835,-0.02317388
-0.836,-0.02249948
-0.837,-0.02185572
-0.838,-0.02121197
-0.839,-0.02059888
-0.84,-0.01998578
-0.841,-0.01940334
-0.842,-0.01882089
-0.843,-0.01826911
-0.844,-0.01771732
-0.845,-0.01716554
-0.846,-0.0166444
-0.847,-0.01612327
-0.848,-0.01575646
-0.849,-0.01527825
-0.85,-0.0148031
-0.851,-0.01435247
-0.852,-0.01390491
-0.853,-0.01345735
-0.854,-0.01303125
-0.855,-0.01262048
-0.856,-0.01222196
-0.857,-0.01183878
-0.858,-0.01147092
-0.859,-0.01111532
-0.86,-0.01077199
-0.861,-0.01045011
-0.862,-0.01012517
-0.863,-0.009827821
-0.864,-0.009533534
-0.865,-0.00925151
-0.866,-0.008987878
-0.867,-0.008730377
-0.868,-0.008472877
-0.869,-0.008239901
-0.87,-0.008009989
-0.871,-0.007783143
-0.872,-0.007571625
-0.873,-0.007369304
-0.874,-0.007173113
-0.875,-0.006983052
-0.876,-0.006799124
-0.877,-0.006627456
-0.878,-0.00645579
-0.879,-0.00629945
-0.88,-0.00614311
-0.881,-0.005995967
-0.882,-0.005854954
-0.883,-0.005720073
-0.884,-0.005594389
-0.885,-0.005474835
-0.886,-0.005355281
-0.887,-0.005247989
-0.888,-0.005143763
-0.889,-0.005045668
-0.89,-0.004950637
-0.891,-0.004864804
-0.892,-0.004782036
-0.893,-0.004702333
-0.894,-0.004631828
-0.895,-0.004561321
-0.896,-0.004490815
-0.897,-0.004432571
-0.898,-0.004374327
-0.899,-0.004319148
-0.9,-0.004270101
-0.901,-0.004221053
-0.902,-0.004178136
-0.903,-0.004135219
-0.904,-0.004092303
-0.905,-0.004067779
-0.906,-0.004034058
-0.907,-0.003997272
-0.908,-0.003969683
-0.909,-0.00395129
-0.91,-0.003920636
-0.911,-0.003905308
-0.912,-0.00388385
-0.913,-0.003862391
-0.914,-0.003847064
-0.915,-0.003834802
-0.916,-0.003819474
-0.917,-0.003813344
-0.918,-0.003804147
-0.919,-0.003791885
-0.92,-0.003785754
-0.921,-0.003785754
-0.922,-0.003779623
-0.923,-0.003779623
-0.924,-0.003776558
-0.925,-0.003776558
-0.926,-0.003776558
-0.927,-0.003779623
-0.928,-0.003782689
-0.929,-0.003785754
-0.93,-0.00378882
-0.931,-0.003798016
-0.932,-0.003801082
-0.933,-0.003807213
-0.934,-0.003816409
-0.935,-0.00382254
-0.936,-0.003831736
-0.937,-0.003843998
-0.938,-0.003850129
-0.939,-0.003859326
-0.94,-0.003877719
-0.941,-0.003880784
-0.942,-0.003899177
-0.943,-0.003908373
-0.944,-0.00391757
-0.945,-0.003935963
-0.946,-0.003948225
-0.947,-0.003957421
-0.948,-0.003972749
-0.949,-0.003985011
-0.95,-0.004000338
-0.951,-0.004015665
-0.952,-0.004027927
-0.953,-0.004040189
-0.954,-0.004058582
-0.955,-0.004070844
-0.956,-0.004086172
-0.957,-0.004101499
-0.958,-0.004116826
-0.959,-0.004129088
-0.96,-0.004144416
-0.961,-0.004159743
-0.962,-0.00417507
-0.963,-0.004190398
-0.964,-0.004205726
-0.965,-0.004217987
-0.966,-0.004233315
-0.967,-0.004251707
-0.968,-0.004260904
-0.969,-0.004276231
-0.97,-0.004294624
-0.971,-0.004306886
-0.972,-0.004319148
-0.973,-0.004337541
-0.974,-0.004349803
-0.975,-0.004362065
-0.976,-0.004377393
-0.977,-0.004389654
-0.978,-0.004401916
-0.979,-0.004417243
-0.98,-0.004429505
-0.981,-0.004438702
-0.982,-0.004454029
-0.983,-0.004466291
-0.984,-0.004478553
-0.985,-0.004490815
-0.986,-0.004503077
-0.987,-0.004515339
-0.988,-0.004527601
-0.989,-0.004542928
-0.99,-0.00454906
-0.991,-0.004558256
-0.992,-0.004570518
-0.993,-0.004579714
-0.994,-0.00458891
-0.995,-0.004604238
-0.996,-0.004610369
-0.997,-0.004619565
-0.998,-0.004634893
-0.999,-0.004644089
-1,-0.004647155
-1.001,-0.004665548
-1.002,-0.004668613
-1.003,-0.004674744
-1.004,-0.004690072
-1.005,-0.004693137
-1.006,-0.004702333
-1.007,-0.00471153
-1.008,-0.004717661
-1.009,-0.004723792
-1.01,-0.004736054
-1.011,-0.004742185
-1.012,-0.004748316
-1.013,-0.004757512
-1.014,-0.004766709
-1.015,-0.004769774
-1.016,-0.00477284
-1.017,-0.004782036
-1.018,-0.004791233
-1.019,-0.004797364
-1.02,-0.004803495
-1.021,-0.004809625
-1.022,-0.004815756
-1.023,-0.004818822
-1.024,-0.004824953
-1.025,-0.004831084
-1.026,-0.004837214
-1.027,-0.004843346
-1.028,-0.004846411
-1.029,-0.004852542
-1.03,-0.004858673
-1.031,-0.004861739
-1.032,-0.004864804
-1.033,-0.004870935
-1.034,-0.004870935
-1.035,-0.004877066
-1.036,-0.004883197
-1.037,-0.004883197
-1.038,-0.004889328
-1.039,-0.004895459
-1.04,-0.004895459
-1.041,-0.004898524
-1.042,-0.004904655
-1.043,-0.004904655
-1.044,-0.004913852
-1.045,-0.004913852
-1.046,-0.004916917
-1.047,-0.004926114
-1.048,-0.004926114
-1.049,-0.004929179
-1.05,-0.00493531
-1.051,-0.004938376
-1.052,-0.004938376
-1.053,-0.004944507
-1.054,-0.004950637
-1.055,-0.004947572
-1.056,-0.004953703
-1.057,-0.004959834
-1.058,-0.004959834
-1.059,-0.004965965
-1.06,-0.004972096
-1.061,-0.004969031
-1.062,-0.004975162
-1.063,-0.004981292
-1.064,-0.004981292
-1.065,-0.004984358
-1.066,-0.004990489
-1.067,-0.004990489
-1.068,-0.004993554
-1.069,-0.00499662
-1.07,-0.004999685
-1.071,-0.004999685
-1.072,-0.005002751
-1.073,-0.005008881
-1.074,-0.005005816
-1.075,-0.005008881
-1.076,-0.005011947
-1.077,-0.005011947
-1.078,-0.005011947
-1.079,-0.005018078
-1.08,-0.005015012
-1.081,-0.005015012
-1.082,-0.005018078
-1.083,-0.005018078
-1.084,-0.005018078
-1.085,-0.005021143
-1.086,-0.005021143
-1.087,-0.005015012
-1.088,-0.005021143
-1.089,-0.005021143
-1.09,-0.005011947
-1.091,-0.005021143
-1.092,-0.005015012
-1.093,-0.005015012
-1.094,-0.005018078
-1.095,-0.005015012
-1.096,-0.005011947
-1.097,-0.005018078
-1.098,-0.005015012
-1.099,-0.005008881
-1.1,-0.005011947
-1.101,-0.005002751
-1.102,-0.005002751
-1.103,-0.005008881
-1.104,-0.005002751
-1.105,-0.00499662
-1.106,-0.005002751
-1.107,-0.004993554
-1.108,-0.004990489
-1.109,-0.004987423
-1.11,-0.004987423
-1.111,-0.004981292
-1.112,-0.004978227
-1.113,-0.004975162
-1.114,-0.004972096
-1.115,-0.004965965
-1.116,-0.004965965
-1.117,-0.0049629
-1.118,-0.004953703
-1.119,-0.004953703
-1.12,-0.004950637
-1.121,-0.004944507
-1.122,-0.004944507
-1.123,-0.004938376
-1.124,-0.00493531
-1.125,-0.004929179
-1.126,-0.004932245
-1.127,-0.004923048
-1.128,-0.004919983
-1.129,-0.004919983
-1.13,-0.004916917
-1.131,-0.004913852
-1.132,-0.004910786
-1.133,-0.004904655
-1.134,-0.00490159
-1.135,-0.00490159
-1.136,-0.004895459
-1.137,-0.004895459
-1.138,-0.004889328
-1.139,-0.004892393
-1.14,-0.004886262
-1.141,-0.004886262
-1.142,-0.004880131
-1.143,-0.004874
-1.144,-0.004877066
-1.145,-0.004870935
-1.146,-0.004864804
-1.147,-0.004870935
-1.148,-0.004864804
-1.149,-0.004861739
-1.15,-0.004861739
-1.151,-0.004858673
-1.152,-0.004852542
-1.153,-0.004852542
-1.154,-0.004849477
-1.155,-0.004843346
-1.156,-0.004843346
-1.157,-0.004843346
-1.158,-0.004837214
-1.159,-0.004834149
-1.16,-0.004834149
-1.161,-0.004828018
-1.162,-0.004824953
-1.163,-0.004824953
-1.164,-0.004818822
-1.165,-0.004815756
-1.166,-0.004815756
-1.167,-0.004809625
-1.168,-0.004803495
-1.169,-0.00480656
-1.17,-0.004800429
-1.171,-0.004794298
-1.172,-0.004794298
-1.173,-0.004791233
-1.174,-0.004782036
-1.175,-0.004782036
-1.176,-0.004775905
-1.177,-0.004769774
-1.178,-0.004769774
-1.179,-0.004763643
-1.18,-0.004757512
-1.181,-0.004754446
-1.182,-0.004754446
-1.183,-0.00474525
-1.184,-0.004739119
-1.185,-0.004732988
-1.186,-0.004732988
-1.187,-0.004723792
-1.188,-0.004720726
-1.189,-0.00471153
-1.19,-0.004702333
-1.191,-0.004705399
-1.192,-0.004699268
-1.193,-0.004687006
-1.194,-0.004690072
-1.195,-0.00467781
-1.196,-0.004671679
-1.197,-0.004671679
-1.198,-0.004662482
-1.199,-0.004656351
-1.2,-0.004653286
-1.201,-0.004641024
-1.202,-0.004634893
-1.203,-0.004637958
-1.204,-0.004628762
-1.205,-0.004619565
-1.206,-0.0046165
-1.207,-0.004610369
-1.208,-0.004604238
-1.209,-0.004598107
-1.21,-0.004595041
-1.211,-0.004585845
-1.212,-0.004579714
-1.213,-0.004576649
-1.214,-0.004567452
-1.215,-0.004564387
-1.216,-0.004561321
-1.217,-0.00455519
-1.218,-0.00454906
-1.219,-0.004545994
-1.22,-0.004536797
-1.221,-0.004533732
-1.222,-0.004527601
-1.223,-0.004524535
-1.224,-0.004518405
-1.225,-0.004515339
-1.226,-0.004509208
-1.227,-0.004503077
-1.228,-0.004496946
-1.229,-0.004496946
-1.23,-0.00448775
-1.231,-0.004481619
-1.232,-0.004484684
-1.233,-0.004472422
-1.234,-0.004469357
-1.235,-0.004472422
-1.236,-0.004454029
-1.237,-0.00446016
-1.238,-0.004457095
-1.239,-0.004444833
-1.24,-0.004447898
-1.241,-0.004444833
-1.242,-0.004432571
-1.243,-0.004435637
-1.244,-0.004429505
-1.245,-0.004420309
-1.246,-0.004420309
-1.247,-0.004420309
-1.248,-0.004408047
-1.249,-0.004414178
-1.25,-0.004408047
-1.251,-0.004401916
-1.252,-0.004401916
-1.253,-0.004395785
-1.254,-0.004389654
-1.255,-0.004386589
-1.256,-0.004386589
-1.257,-0.004383523
-1.258,-0.004380458
-1.259,-0.004377393
-1.26,-0.004374327
-1.261,-0.004368196
-1.262,-0.004368196
-1.263,-0.004368196
-1.264,-0.004362065
-1.265,-0.004362065
-1.266,-0.004355934
-1.267,-0.004352869
-1.268,-0.004352869
-1.269,-0.004349803
-1.27,-0.004346738
-1.271,-0.004346738
-1.272,-0.004340607
-1.273,-0.004337541
-1.274,-0.004337541
-1.275,-0.004337541
-1.276,-0.00433141
-1.277,-0.00433141
-1.278,-0.00433141
-1.279,-0.004328344
-1.28,-0.004325279
-1.281,-0.004319148
-1.282,-0.004322214
-1.283,-0.004319148
-1.284,-0.004316083
-1.285,-0.004316083
-1.286,-0.004316083
-1.287,-0.004309952
-1.288,-0.004309952
-1.289,-0.004309952
-1.29,-0.004306886
-1.291,-0.004306886
-1.292,-0.004306886
-1.293,-0.00430382
-1.294,-0.004300755
-1.295,-0.004300755
-1.296,-0.004300755
-1.297,-0.00429769
-1.298,-0.00429769
-1.299,-0.00429769
-1.3,-0.00429769
-1.301,-0.004294624
-1.302,-0.00429769
-1.303,-0.004294624
-1.304,-0.004291559
-1.305,-0.004291559
-1.306,-0.004291559
-1.307,-0.004288493
-1.308,-0.004291559
-1.309,-0.004288493
-1.31,-0.004288493
-1.311,-0.004288493
-1.312,-0.004288493
-1.313,-0.004285428
-1.314,-0.004288493
-1.315,-0.004288493
-1.316,-0.004285428
-1.317,-0.004288493
-1.318,-0.004288493
-1.319,-0.004285428
-1.32,-0.004285428
-1.321,-0.004285428
-1.322,-0.004285428
-1.323,-0.004285428
-1.324,-0.004288493
-1.325,-0.004285428
-1.326,-0.004285428
-1.327,-0.004285428
-1.328,-0.004288493
-1.329,-0.004285428
-1.33,-0.004288493
-1.331,-0.004288493
-1.332,-0.004285428
-1.333,-0.004291559
-1.334,-0.004291559
-1.335,-0.004288493
-1.336,-0.004294624
-1.337,-0.004294624
-1.338,-0.004294624
-1.339,-0.004294624
-1.34,-0.004294624
-1.341,-0.00429769
-1.342,-0.00429769
-1.343,-0.004300755
-1.344,-0.00430382
-1.345,-0.004300755
-1.346,-0.004306886
-1.347,-0.004306886
-1.348,-0.004306886
-1.349,-0.004309952
-1.35,-0.004313017
-1.351,-0.004316083
-1.352,-0.004316083
-1.353,-0.004319148
-1.354,-0.004322214
-1.355,-0.004325279
-1.356,-0.004328344
-1.357,-0.00433141
-1.358,-0.00433141
-1.359,-0.004337541
-1.36,-0.004340607
-1.361,-0.004340607
-1.362,-0.004346738
-1.363,-0.004352869
-1.364,-0.004349803
-1.365,-0.004358999
-1.366,-0.004362065
-1.367,-0.004362065
-1.368,-0.004374327
-1.369,-0.004371261
-1.37,-0.004380458
-1.371,-0.004389654
-1.372,-0.004386589
-1.373,-0.004395785
-1.374,-0.004401916
-1.375,-0.004404982
-1.376,-0.004414178
-1.377,-0.004420309
-1.378,-0.004429505
-1.379,-0.004435637
-1.38,-0.004441767
-1.381,-0.004450964
-1.382,-0.00446016
-1.383,-0.004466291
-1.384,-0.004475488
-1.385,-0.004484684
-1.386,-0.004496946
-1.387,-0.004509208
-1.388,-0.004515339
-1.389,-0.004527601
-1.39,-0.004539863
-1.391,-0.00454906
-1.392,-0.004564387
-1.393,-0.004579714
-1.394,-0.004591976
-1.395,-0.004607304
-1.396,-0.004625696
-1.397,-0.004634893
-1.398,-0.00465022
-1.399,-0.004671679
-1.4,-0.004687006
-1.401,-0.004705399
-1.402,-0.004729923
-1.403,-0.004748316
-1.404,-0.004769774
-1.405,-0.004794298
-1.406,-0.004809625
-1.407,-0.004837214
-1.408,-0.004867869
-1.409,-0.004889328
-1.41,-0.004916917
-1.411,-0.004950637
-1.412,-0.004978227
-1.413,-0.005008881
-1.414,-0.005045668
-1.415,-0.005082454
-1.416,-0.005116174
-1.417,-0.005156024
-1.418,-0.005198942
-1.419,-0.005238793
-1.42,-0.005284776
-1.421,-0.005333823
-1.422,-0.005376739
-1.423,-0.005431918
-1.424,-0.005490162
-1.425,-0.005548407
-1.426,-0.005603585
-1.427,-0.005667961
-1.428,-0.005735401
-1.429,-0.005802842
-1.43,-0.005879479
-1.431,-0.005956116
-1.432,-0.006032753
-1.433,-0.006124718
-1.434,-0.006210551
-1.435,-0.006302515
-1.436,-0.006406742
-1.437,-0.006507902
-1.438,-0.006612129
-1.439,-0.006728617
-1.44,-0.006848171
-1.441,-0.006967725
-1.442,-0.00709954
-1.443,-0.007240553
-1.444,-0.007381565
-1.445,-0.007525643
-1.446,-0.007681982
-1.447,-0.007844454
-1.448,-0.008013055
-1.449,-0.008190853
-1.45,-0.00836865
-1.451,-0.008555645
-1.452,-0.008757967
-1.453,-0.008957223
-1.454,-0.009171807
-1.455,-0.009392521
-1.456,-0.009616302
-1.457,-0.009852344
-1.458,-0.01009758
-1.459,-0.01034282
-1.46,-0.01059726
-1.461,-0.01086395
-1.462,-0.01113372
-1.463,-0.01140654
-1.464,-0.01168857
-1.465,-0.01197979
-1.466,-0.01227714
-1.467,-0.01258062
-1.468,-0.01289637
-1.469,-0.01321518
-1.47,-0.01354012
-1.471,-0.01387119
-1.472,-0.0141992
-1.473,-0.0145364
-1.474,-0.01487974
-1.475,-0.01521694
-1.476,-0.01558173
-1.477,-0.01594039
-1.478,-0.01630212
-1.479,-0.01666998
-1.48,-0.01702864
-1.481,-0.0173873
-1.482,-0.01776435
-1.483,-0.01814448
-1.484,-0.01852459
-1.485,-0.01892004
-1.486,-0.01931549
-1.487,-0.01970787
-1.488,-0.02009719
-1.489,-0.0204957
-1.49,-0.02089728
-1.491,-0.02130192
-1.492,-0.0217127
-1.493,-0.02212347
-1.494,-0.02254038
-1.495,-0.02295728
-1.496,-0.02336193
-1.497,-0.02377577
-1.498,-0.0241896
-1.499,-0.02459118
-1.5,-0.02483642
-1.499,-0.02477818
-1.498,-0.02469541
-1.497,-0.02460038
-1.496,-0.02452068
-1.495,-0.02442871
-1.494,-0.02432755
-1.493,-0.02421106
-1.492,-0.02410071
-1.491,-0.02396889
-1.49,-0.02383401
-1.489,-0.02371752
-1.488,-0.02358264
-1.487,-0.02345083
-1.486,-0.02332514
-1.485,-0.02319026
-1.484,-0.02305538
-1.483,-0.0229205
-1.482,-0.02277029
-1.481,-0.0226354
-1.48,-0.02249439
-1.479,-0.02233805
-1.478,-0.02219398
-1.477,-0.02205296
-1.476,-0.02190276
-1.475,-0.02174948
-1.474,-0.0216054
-1.473,-0.02145213
-1.472,-0.02129272
-1.471,-0.02114252
-1.47,-0.02099537
-1.469,-0.02084517
-1.468,-0.02069802
-1.467,-0.02054168
-1.466,-0.02038228
-1.465,-0.02023513
-1.464,-0.02008492
-1.463,-0.01992859
-1.462,-0.01976918
-1.461,-0.01961897
-1.46,-0.0194657
-1.459,-0.01930936
-1.458,-0.01915915
-1.457,-0.01899974
-1.456,-0.01883727
-1.455,-0.01868093
-1.454,-0.0185062
-1.453,-0.01834373
-1.452,-0.01818739
-1.451,-0.01801573
-1.45,-0.01785938
-1.449,-0.01769692
-1.448,-0.01752525
-1.447,-0.01736584
-1.446,-0.01720031
-1.445,-0.01703171
-1.444,-0.0168723
-1.443,-0.0167037
-1.442,-0.01653816
-1.441,-0.01638182
-1.44,-0.01621629
-1.439,-0.01605382
-1.438,-0.01589441
-1.437,-0.01572887
-1.436,-0.01557254
-1.435,-0.01542233
-1.434,-0.01526599
-1.433,-0.01510045
-1.432,-0.01494411
-1.431,-0.01479084
-1.43,-0.0146253
-1.429,-0.01447203
-1.428,-0.01431875
-1.427,-0.01415628
-1.426,-0.01400301
-1.425,-0.0138436
-1.424,-0.01368113
-1.423,-0.01352479
-1.422,-0.01337458
-1.421,-0.01321518
-1.42,-0.0130619
-1.419,-0.01291783
-1.418,-0.01276149
-1.417,-0.01261434
-1.416,-0.01247333
-1.415,-0.01231699
-1.414,-0.01217291
-1.413,-0.01202577
-1.412,-0.01186943
-1.411,-0.01172842
-1.41,-0.01158741
-1.409,-0.01143413
-1.408,-0.01129925
-1.407,-0.01116437
-1.406,-0.01101723
-1.405,-0.01088541
-1.404,-0.0107536
-1.403,-0.01060952
-1.402,-0.01047464
-1.401,-0.01034589
-1.4,-0.01021101
-1.399,-0.01008226
-1.398,-0.00995657
-1.397,-0.009827821
-1.396,-0.00969907
-1.395,-0.009573385
-1.394,-0.009450765
-1.393,-0.009325081
-1.392,-0.009202462
-1.391,-0.009085974
-1.39,-0.00896642
-1.389,-0.008849931
-1.388,-0.008733443
-1.387,-0.008616954
-1.386,-0.008506597
-1.385,-0.00839624
-1.384,-0.008282817
-1.383,-0.008178591
-1.382,-0.008071299
-1.381,-0.007967073
-1.38,-0.007865911
-1.379,-0.007767816
-1.378,-0.007663589
-1.377,-0.00756856
-1.376,-0.007473529
-1.375,-0.007381565
-1.374,-0.007286535
-1.373,-0.007194571
-1.372,-0.007105672
-1.371,-0.007016772
-1.37,-0.006934005
-1.369,-0.006845106
-1.368,-0.006762337
-1.367,-0.006676504
-1.366,-0.006593736
-1.365,-0.006517099
-1.364,-0.006443528
-1.363,-0.00636689
-1.362,-0.006290253
-1.361,-0.006216682
-1.36,-0.006146176
-1.359,-0.006078735
-1.358,-0.006008229
-1.357,-0.005943854
-1.356,-0.005873348
-1.355,-0.005812038
-1.354,-0.005750729
-1.353,-0.005683288
-1.352,-0.005625044
-1.351,-0.0055668
-1.35,-0.00550549
-1.349,-0.005450311
-1.348,-0.005398198
-1.347,-0.005336888
-1.346,-0.005287841
-1.345,-0.005235727
-1.344,-0.005180549
-1.343,-0.005131501
-1.342,-0.005085519
-1.341,-0.005036471
-1.34,-0.004990489
-1.339,-0.004944507
-1.338,-0.004898524
-1.337,-0.004852542
-1.336,-0.004812691
-1.335,-0.00477284
-1.334,-0.004726857
-1.333,-0.004687006
-1.332,-0.004647155
-1.331,-0.004607304
-1.33,-0.004573583
-1.329,-0.004536797
-1.328,-0.004500012
-1.327,-0.004469357
-1.326,-0.004429505
-1.325,-0.004398851
-1.324,-0.004368196
-1.323,-0.004334475
-1.322,-0.00430382
-1.321,-0.004273166
-1.32,-0.004239446
-1.319,-0.004211857
-1.318,-0.004187332
-1.317,-0.004156678
-1.316,-0.004126023
-1.315,-0.004098434
-1.314,-0.004070844
-1.313,-0.00404632
-1.312,-0.004018731
-1.311,-0.003994207
-1.31,-0.003966617
-1.309,-0.003945159
-1.308,-0.003920636
-1.307,-0.003896111
-1.306,-0.003871588
-1.305,-0.003850129
-1.304,-0.003828671
-1.303,-0.003807213
-1.302,-0.00378882
-1.301,-0.003764296
-1.3,-0.003745903
-1.299,-0.003724444
-1.298,-0.003706052
-1.297,-0.003684593
-1.296,-0.0036662
-1.295,-0.003647808
-1.294,-0.003629415
-1.293,-0.003607956
-1.292,-0.003592629
-1.291,-0.003574236
-1.29,-0.003558908
-1.289,-0.003543581
-1.288,-0.003519057
-1.287,-0.003506796
-1.286,-0.003491468
-1.285,-0.003470009
-1.284,-0.003454682
-1.283,-0.00344242
-1.282,-0.003424027
-1.281,-0.0034087
-1.28,-0.003393373
-1.279,-0.003378045
-1.278,-0.003365783
-1.277,-0.003350456
-1.276,-0.003335128
-1.275,-0.003319801
-1.274,-0.003307539
-1.273,-0.003295277
-1.272,-0.003276884
-1.271,-0.003267688
-1.27,-0.00325236
-1.269,-0.003233967
-1.268,-0.003227836
-1.267,-0.003209443
-1.266,-0.003200247
-1.265,-0.003191051
-1.264,-0.003172658
-1.263,-0.003160396
-1.262,-0.003151199
-1.261,-0.003135872
-1.26,-0.00312361
-1.259,-0.003117479
-1.258,-0.003099086
-1.257,-0.003086824
-1.256,-0.003077628
-1.255,-0.003065366
-1.254,-0.003053104
-1.253,-0.003043907
-1.252,-0.003031645
-1.251,-0.003016318
-1.25,-0.003010187
-1.249,-0.002997925
-1.248,-0.002985663
-1.247,-0.002976467
-1.246,-0.002964205
-1.245,-0.002951943
-1.244,-0.002945812
-1.243,-0.00293355
-1.242,-0.002921288
-1.241,-0.002912092
-1.24,-0.002902895
-1.239,-0.002890633
-1.238,-0.002881437
-1.237,-0.00287224
-1.236,-0.002859978
-1.235,-0.002850782
-1.234,-0.002841586
-1.233,-0.002832389
-1.232,-0.002820127
-1.231,-0.002813996
-1.23,-0.002801734
-1.229,-0.002789472
-1.228,-0.002780276
-1.227,-0.00277108
-1.226,-0.002761883
-1.225,-0.002752687
-1.224,-0.00274349
-1.223,-0.002734293
-1.222,-0.002722032
-1.221,-0.002715901
-1.22,-0.002706704
-1.219,-0.002691377
-1.218,-0.002691377
-1.217,-0.002679115
-1.216,-0.002663787
-1.215,-0.002663787
-1.214,-0.00264846
-1.213,-0.002642329
-1.212,-0.002636198
-1.211,-0.002620871
-1.21,-0.002617805
-1.209,-0.002611674
-1.208,-0.002596347
-1.207,-0.002593281
-1.206,-0.002584085
-1.205,-0.002568757
-1.204,-0.002562626
-1.203,-0.002556496
-1.202,-0.002544234
-1.201,-0.002541168
-1.2,-0.002531972
-1.199,-0.00251971
-1.198,-0.002516645
-1.197,-0.002507448
-1.196,-0.002498251
-1.195,-0.002489055
-1.194,-0.002482924
-1.193,-0.002470662
-1.192,-0.002464531
-1.191,-0.0024584
-1.19,-0.002449204
-1.189,-0.002440007
-1.188,-0.002436942
-1.187,-0.002427745
-1.186,-0.002418549
-1.185,-0.002409352
-1.184,-0.002403222
-1.183,-0.002397091
-1.182,-0.00239096
-1.181,-0.002381763
-1.18,-0.002372567
-1.179,-0.002366436
-1.178,-0.002360305
-1.177,-0.002348043
-1.176,-0.002344977
-1.175,-0.002335781
-1.174,-0.002326585
-1.173,-0.002323519
-1.172,-0.002314323
-1.171,-0.002305126
-1.17,-0.002302061
-1.169,-0.00229593
-1.168,-0.002283668
-1.167,-0.002280602
-1.166,-0.002274471
-1.165,-0.002265275
-1.164,-0.002259144
-1.163,-0.002253013
-1.162,-0.002246882
-1.161,-0.002237685
-1.16,-0.00223462
-1.159,-0.002225423
-1.158,-0.002219293
-1.157,-0.002216227
-1.156,-0.002207031
-1.155,-0.002197834
-1.154,-0.002194769
-1.153,-0.002188638
-1.152,-0.002179441
-1.151,-0.00217331
-1.15,-0.002167179
-1.149,-0.002161048
-1.148,-0.002151852
-1.147,-0.002148786
-1.146,-0.002142655
-1.145,-0.002133459
-1.144,-0.002127328
-1.143,-0.002124263
-1.142,-0.002115066
-1.141,-0.002108935
-1.14,-0.002102804
-1.139,-0.002096673
-1.138,-0.002093608
-1.137,-0.002084411
-1.136,-0.00207828
-1.135,-0.002072149
-1.134,-0.002066019
-1.133,-0.002059887
-1.132,-0.002053756
-1.131,-0.002047626
-1.13,-0.002041495
-1.129,-0.002035364
-1.128,-0.002032298
-1.127,-0.002023102
-1.126,-0.002016971
-1.125,-0.002013905
-1.124,-0.002004709
-1.123,-0.001998578
-1.122,-0.001995512
-1.121,-0.001986316
-1.12,-0.00198325
-1.119,-0.001980185
-1.118,-0.001970988
-1.117,-0.001961792
-1.116,-0.001958727
-1.115,-0.001952596
-1.114,-0.001943399
-1.113,-0.001940334
-1.112,-0.001934203
-1.111,-0.001925006
-1.11,-0.001921941
-1.109,-0.00191581
-1.108,-0.001906613
-1.107,-0.001903548
-1.106,-0.001897417
-1.105,-0.001891286
-1.104,-0.00188209
-1.103,-0.001879024
-1.102,-0.001872893
-1.101,-0.001863697
-1.1,-0.001860631
-1.099,-0.0018545
-1.098,-0.001848369
-1.097,-0.001845304
-1.096,-0.001836107
-1.095,-0.001829976
-1.094,-0.001826911
-1.093,-0.001817714
-1.092,-0.001808518
-1.091,-0.001808518
-1.09,-0.001796256
-1.089,-0.00179319
-1.088,-0.001790125
-1.087,-0.001780929
-1.086,-0.001771732
-1.085,-0.001771732
-1.084,-0.00175947
-1.083,-0.00175947
-1.082,-0.001753339
-1.081,-0.001744143
-1.08,-0.001738012
-1.079,-0.001734946
-1.078,-0.001728815
-1.077,-0.001719619
-1.076,-0.001716554
-1.075,-0.001710422
-1.074,-0.001701226
-1.073,-0.001698161
-1.072,-0.00169203
-1.071,-0.001682833
-1.07,-0.001679768
-1.069,-0.001673637
-1.068,-0.00166444
-1.067,-0.001661375
-1.066,-0.001655244
-1.065,-0.001649113
-1.064,-0.001642982
-1.063,-0.001636851
-1.062,-0.001633785
-1.061,-0.001624589
-1.06,-0.001621523
-1.059,-0.001651364
-1.058,-0.0016437
-1.057,-0.001638795
-1.056,-0.001634197
-1.055,-0.001626534
-1.054,-0.001622242
-1.053,-0.001617644
-1.052,-0.001609367
-1.051,-0.001603236
-1.05,-0.001599251
-1.049,-0.001593426
-1.048,-0.001586069
-1.047,-0.001581778
-1.046,-0.00157442
-1.045,-0.001568902
-1.044,-0.00156553
-1.043,-0.001556641
-1.042,-0.001553575
-1.041,-0.001550509
-1.04,-0.0015407
-1.039,-0.001538861
-1.038,-0.00153273
-1.037,-0.001523533
-1.036,-0.001519548
-1.035,-0.001515563
-1.034,-0.001505447
-1.033,-0.001502075
-1.032,-0.001498396
-1.031,-0.001491039
-1.03,-0.001483989
-1.029,-0.001482762
-1.028,-0.001475099
-1.027,-0.001469581
-1.026,-0.001463756
-1.025,-0.001457012
-1.024,-0.001449962
-1.023,-0.001446896
-1.022,-0.001439232
-1.021,-0.001434941
-1.02,-0.00142973
-1.019,-0.001423292
-1.018,-0.001416855
-1.017,-0.001413176
-1.016,-0.001406738
-1.015,-0.001400607
-1.014,-0.001396009
-1.013,-0.001392024
-1.012,-0.00138436
-1.011,-0.001379762
-1.01,-0.001374857
-1.009,-0.001368113
-1.008,-0.001362902
-1.007,-0.001358304
-1.006,-0.00135064
-1.005,-0.001347881
-1.004,-0.00134175
-1.003,-0.001334087
-1.002,-0.001330714
-1.001,-0.00132489
-1,-0.001319372
-0.9990003,-0.001313854
-0.9980002,-0.001309256
-0.9970002,-0.001302819
-0.9960002,-0.001296688
-0.9950002,-0.001291783
-0.9940003,-0.001286878
-0.9930002,-0.00128044
-0.9920002,-0.001275229
-0.9910002,-0.001271857
-0.9900002,-0.001263274
-0.9890002,-0.001257756
-0.9880002,-0.001251932
-0.9870002,-0.00124672
-0.9860002,-0.001242122
-0.9850003,-0.001236298
-0.9840002,-0.00122894
-0.9830002,-0.001224955
-0.9820002,-0.001219437
-0.9810002,-0.001212693
-0.9800002,-0.001206869
-0.9790002,-0.001202577
-0.9780002,-0.00119614
-0.9770002,-0.001189396
-0.9760002,-0.001185411
-0.9750002,-0.001178973
-0.9740002,-0.001171616
-0.9730002,-0.001166711
-0.9720002,-0.001161193
-0.9710003,-0.00115353
-0.9700002,-0.001149851
-0.9690002,-0.00114372
-0.9680002,-0.00113575
-0.9670002,-0.001133604
-0.9660002,-0.001124408
-0.9650002,-0.001120116
-0.9640002,-0.001116131
-0.9630002,-0.001107241
-0.9620003,-0.001104482
-0.9610002,-0.001097738
-0.9600002,-0.001088848
-0.9590002,-0.001085782
-0.9580002,-0.001079958
-0.9570003,-0.001070761
-0.9560002,-0.001068003
-0.9550002,-0.001062178
-0.9540002,-0.001053288
-0.9530002,-0.001049303
-0.9520002,-0.001044398
-0.9510002,-0.001033976
-0.9500002,-0.00103091
-0.9490002,-0.001026005
-0.9480003,-0.001016809
-0.9470002,-0.001011291
-0.9460002,-0.00100608
-0.9450002,-0.0009974964
-0.9440002,-0.0009925916
-0.9430002,-0.0009883
-0.9420002,-0.0009791035
-0.9410002,-0.0009745053
-0.9400002,-0.0009696006
-0.9390002,-0.0009594844
-0.9380002,-0.000957032
-0.9370002,-0.000950288
-0.9360002,-0.0009417046
-0.9350002,-0.000937413
-0.9340003,-0.0009306689
-0.9330002,-0.000921779
-0.9320002,-0.0009171807
-0.9310002,-0.0009119695
-0.9300002,-0.000902773
-0.9290002,-0.0008987879
-0.9280002,-0.0008926569
-0.9270002,-0.0008834605
-0.9260002,-0.0008776361
-0.9250003,-0.0008727313
-0.9240002,-0.0008644544
-0.9230002,-0.0008586301
-0.9220002,-0.0008512728
-0.9210002,-0.0008445288
-0.9200003,-0.0008380913
-0.9190002,-0.00083288
-0.9180002,-0.0008258293
-0.9170002,-0.0008190853
-0.9160002,-0.0008126478
-0.9150002,-0.0008062103
-0.9140002,-0.0007994662
-0.9130002,-0.0007927222
-0.9120002,-0.0007862847
-0.9110003,-0.0007798471
-0.9100002,-0.0007727966
-0.9090002,-0.0007669721
-0.9080002,-0.0007596149
-0.9070002,-0.0007525643
-0.9060002,-0.0007470464
-0.9050002,-0.0007399959
-0.9040002,-0.0007329452
-0.9030002,-0.0007286536
-0.9020002,-0.0007209898
-0.9010002,-0.0007127131
-0.9000002,-0.0007078083
-0.8990002,-0.0006989184
-0.8980002,-0.000693094
-0.8970003,-0.0006878827
-0.8960002,-0.0006799124
-0.8950002,-0.0006731683
-0.8940002,-0.0006670374
-0.8930002,-0.0006590671
-0.8920002,-0.0006532427
-0.8910002,-0.0006480314
-0.8900002,-0.0006388349
-0.8890002,-0.0006330105
-0.8880002,-0.0006274926
-0.8870002,-0.0006189093
-0.8860002,-0.0006130849
-0.8850002,-0.000607567
-0.8840002,-0.0006005164
-0.8830003,-0.0005934658
-0.8820002,-0.0005870283
-0.8810002,-0.0005802842
-0.8800002,-0.0005735401
-0.8790002,-0.0005671026
-0.8780002,-0.0005612782
-0.8770002,-0.0005539211
-0.8760002,-0.0005459508
-0.8750002,-0.0005425788
-0.8740003,-0.0005336889
-0.8730002,-0.0005278645
-0.8720002,-0.0005226531
-0.8710002,-0.000512537
-0.8700002,-0.0005085519
-0.8690003,-0.0005021144
-0.8680002,-0.0004938376
-0.8670002,-0.0004883197
-0.8660002,-0.0004818822
-0.8650002,-0.0004732989
-0.8640002,-0.0004674745
-0.8630002,-0.0004613435
-0.8620002,-0.0004545994
-0.8610002,-0.0004475488
-0.8600003,-0.0004417244
-0.8590002,-0.0004340607
-0.8580002,-0.0004276232
-0.8570002,-0.0004217988
-0.8560002,-0.0004141351
-0.8550002,-0.0004080041
-0.8540002,-0.0004015666
-0.8530002,-0.0003942094
-0.8520002,-0.0003871588
-0.8510002,-0.0003816409
-0.8500002,-0.0003752034
-0.8490002,-0.0003666201
-0.8480002,-0.0003607956
-0.8470002,-0.0003552778
-0.8460003,-0.0003476141
-0.8450002,-0.0003417897
-0.8440002,-0.0003332063
-0.8430002,-0.0003261557
-0.8420002,-0.0003209444
-0.8410002,-0.0003135872
-0.8400002,-0.0003059235
-0.8390002,-0.0003007122
-0.8380002,-0.000293355
-0.8370003,-0.0002850782
-0.8360002,-0.0002789472
-0.8350002,-0.0002734294
-0.8340002,-0.0002663788
-0.8330002,-0.0002605543
-0.8320003,-0.0002516645
-0.8310002,-0.0002449204
-0.8300002,-0.0002381763
-0.8290002,-0.0002317388
-0.8280002,-0.0002231555
-0.8270002,-0.0002176376
-0.8260002,-0.000210587
-0.8250002,-0.0002035364
-0.8240002,-0.0001964858
-0.8230003,-0.0001903548
-0.8220002,-0.0001823845
-0.8210002,-0.0001753339
-0.8200002,-0.0001685899
-0.8190002,-0.0001612327
-0.8180002,-0.000153569
-0.8170002,-0.0001500849
-0.8160002,-0.0001437087
-0.8150002,-0.0001359223
-0.8140002,-0.0001302512
-0.8130002,-0.0001228634
-0.8120002,-0.0001144026
-0.8110002,-0.0001087622
-0.8100002,-0.0001020488
-0.8090003,-9.389456E-05
-0.8080002,-8.852997E-05
-0.8070002,-8.129543E-05
-0.8060002,-7.353976E-05
-0.8050002,-6.719421E-05
-0.8040002,-6.100194E-05
-0.8030002,-5.284775E-05
-0.8020002,-4.576649E-05
-0.8010002,-4.04632E-05
-0.8000003,-7.967072E-05
-0.8009998,-0.0001346655
-0.8019998,-0.0001723096
-0.8029998,-0.0001987341
-0.8039998,-0.0002261395
-0.8049998,-0.0002511538
-0.8059998,-0.000270589
-0.8069998,-0.0002922619
-0.8079998,-0.000308989
-0.8089998,-0.0003258491
-0.8099998,-0.0003420962
-0.8109998,-0.0003601825
-0.8119998,-0.0003748969
-0.8129998,-0.0003893046
-0.8139998,-0.0004064713
-0.8149998,-0.000420266
-0.8159998,-0.0004334476
-0.8169998,-0.0004493881
-0.8179998,-0.000461037
-0.8189998,-0.0004745251
-0.8199998,-0.0004880132
-0.8209998,-0.0004993554
-0.8219998,-0.0005106977
-0.8229998,-0.0005232662
-0.8239998,-0.0005339954
-0.8249998,-0.0005462574
-0.8259998,-0.0005572931
-0.8269998,-0.0005677157
-0.8279998,-0.0005781384
-0.8289998,-0.000588561
-0.8299998,-0.0005989837
-0.8309998,-0.0006084866
-0.8319998,-0.0006198289
-0.8329998,-0.000629945
-0.8339998,-0.0006391415
-0.8349998,-0.0006483379
-0.8359998,-0.0006596802
-0.8369998,-0.0006679571
-0.8379998,-0.0006777665
-0.8389998,-0.0006860433
-0.8399998,-0.0006961594
-0.8409998,-0.0007044363
-0.8419998,-0.0007145524
-0.8429998,-0.0007231357
-0.8439998,-0.0007304929
-0.8449998,-0.0007415286
-0.8459998,-0.000750725
-0.8469998,-0.0007565495
-0.8479998,-0.0007675852
-0.8489998,-0.0007770882
-0.8499998,-0.000782606
-0.8509998,-0.0007927222
-0.8519998,-0.0008013055
-0.8529998,-0.0008080496
-0.8539998,-0.000817246
-0.8549998,-0.0008270555
-0.8559998,-0.0008331866
-0.8569998,-0.0008414634
-0.8579998,-0.0008503532
-0.8589998,-0.0008574039
-0.8599998,-0.0008659872
-0.8609998,-0.0008748771
-0.8619998,-0.0008822342
-0.8629998,-0.0008895915
-0.8639998,-0.0008981748
-0.8649998,-0.000906145
-0.8659998,-0.0009141153
-0.8669998,-0.0009205528
-0.8679998,-0.0009312819
-0.8689998,-0.0009377195
-0.8699998,-0.000944157
-0.8709998,-0.0009545796
-0.8719998,-0.0009585648
-0.8729998,-0.0009686808
-0.8739998,-0.0009769576
-0.8749998,-0.0009812494
-0.8759998,-0.0009919786
-0.8769998,-0.0009996422
-0.8779998,-0.001004854
-0.8789998,-0.001015583
-0.8799998,-0.001021407
-0.8809998,-0.001027538
-0.8819998,-0.001037041
-0.8829998,-0.001045624
-0.8839998,-0.001052369
-0.8849998,-0.001058806
-0.8859998,-0.00106647
-0.8869998,-0.001073214
-0.8879998,-0.001079651
-0.8889998,-0.001088235
-0.8899998,-0.001095592
-0.8909998,-0.00110111
-0.8919998,-0.00111
-0.8929998,-0.001116744
-0.8939998,-0.001122568
-0.8949998,-0.001131765
-0.8959998,-0.001138202
-0.8969998,-0.001144027
-0.8979998,-0.001152303
-0.8989998,-0.001158128
-0.8999998,-0.001164872
-0.9009998,-0.001173149
-0.9019998,-0.001180199
-0.9029998,-0.001185717
-0.9039998,-0.001193381
-0.9049998,-0.001200125
-0.9059998,-0.001206256
-0.9069998,-0.001214226
-0.9079998,-0.001223423
-0.9089998,-0.001225875
-0.9099998,-0.001234152
-0.9109998,-0.001241815
-0.9119998,-0.001246107
-0.9129998,-0.001252545
-0.9139998,-0.001259902
-0.9149998,-0.0012645
-0.9159998,-0.001271551
-0.9169998,-0.001279214
-0.9179998,-0.001284119
-0.9189998,-0.001289637
-0.9199998,-0.001298527
-0.9209998,-0.001303125
-0.9219998,-0.001309256
-0.9229998,-0.001318453
-0.9239998,-0.001320292
-0.9249998,-0.001328875
-0.9259998,-0.001336539
-0.9269998,-0.001340217
-0.9279998,-0.001347575
-0.9289998,-0.001354625
-0.9299998,-0.001358917
-0.9309998,-0.001363515
-0.9319998,-0.001371792
-0.9329998,-0.001376697
-0.9339998,-0.001380069
-0.9349998,-0.001388652
-0.9359998,-0.001393557
-0.9369998,-0.001398155
-0.9379998,-0.001405206
-0.9389998,-0.00141103
-0.9399998,-0.001415322
-0.9409998,-0.001421453
-0.9419998,-0.001427584
-0.9429998,-0.001433408
-0.9439998,-0.001438006
-0.9449998,-0.001445364
-0.9459998,-0.001449962
-0.9469998,-0.001453947
-0.9479998,-0.001460997
-0.9489998,-0.001466515
-0.9499998,-0.001469274
-0.9509998,-0.001476938
-0.9519998,-0.001481536
-0.9529998,-0.001486441
-0.9539998,-0.001493185
-0.9549998,-0.00149717
-0.9559998,-0.001501768
-0.9569998,-0.001508819
-0.9579998,-0.001512498
-0.9589998,-0.001517402
-0.9599998,-0.00152384
-0.9609998,-0.001529358
-0.9619998,-0.001532423
-0.9629998,-0.001538554
-0.9639998,-0.001544992
-0.9649998,-0.001547444
-0.9659998,-0.001554188
-0.9669998,-0.001561239
-0.9679998,-0.001563691
-0.9689998,-0.001570129
-0.9699998,-0.001575953
-0.9709998,-0.001578405
-0.9719998,-0.001585456
-0.9729998,-0.001591281
-0.9739998,-0.001594039
-0.9749998,-0.001599557
-0.9759998,-0.001605995
-0.9769998,-0.001610593
-0.9779998,-0.001614885
-0.9789998,-0.001623161
-0.9799998,-0.001625001
-0.9809998,-0.001628373
-0.9819998,-0.00163573
-0.9829998,-0.001638795
-0.9839998,-0.001644313
-0.9849998,-0.001650751
-0.9859998,-0.001653203
-0.9869998,-0.001658108
-0.9879998,-0.001666385
-0.9889998,-0.001669144
-0.9899998,-0.001673435
-0.9909998,-0.00167926
-0.9919998,-0.001684165
-0.9929998,-0.001688456
-0.9939998,-0.001695507
-0.9949998,-0.001698879
-0.9959998,-0.001701944
-0.9969998,-0.001709608
-0.9979998,-0.001712674
-0.9989998,-0.001717578
-0.9999998,-0.001725855
-1.001,-0.001729227
-1.002,-0.001734132
-1.003,-0.001739956
-1.004,-0.001745168
-1.005,-0.001748846
-1.006,-0.001754977
-1.007,-0.001759882
-1.008,-0.001762028
-1.009,-0.001770611
-1.01,-0.001775516
-1.011,-0.001776742
-1.012,-0.001786858
-1.013,-0.001790843
-1.014,-0.001793909
-1.015,-0.001801266
-1.016,-0.001806477
-1.017,-0.001809236
-1.018,-0.001816287
-1.019,-0.001821805
-1.02,-0.00182671
-1.021,-0.001830695
-1.022,-0.001839585
-1.023,-0.001842343
-1.024,-0.001847555
-1.025,-0.001854299
-1.026,-0.001855832
-1.027,-0.001864415
-1.028,-0.001869933
-1.029,-0.001871772
-1.03,-0.00187821
-1.031,-0.001885873
-1.032,-0.001888019
-1.033,-0.001892617
-1.034,-0.001901201
-1.035,-0.001904573
-1.036,-0.001909784
-1.037,-0.001918367
-1.038,-0.001918981
-1.039,-0.001926338
-1.04,-0.001932162
-1.041,-0.001934001
-1.042,-0.001940439
-1.043,-0.00194749
-1.044,-0.001951168
-1.045,-0.001957912
-1.046,-0.001963737
-1.047,-0.001968028
-1.048,-0.001972933
-1.049,-0.001979677
-1.05,-0.001984275
-1.051,-0.001988567
-1.052,-0.001996231
-1.053,-0.002001749
-1.054,-0.002005121
-1.055,-0.00201401
-1.056,-0.002017689
-1.057,-0.002022594
-1.058,-0.002029644
-1.059,-0.002034856
-1.06,-0.002038228
-1.061,-0.002046198
-1.062,-0.002052329
-1.063,-0.002056314
-1.064,-0.002062138
-1.065,-0.002069802
-1.066,-0.002071948
-1.067,-0.002078999
-1.068,-0.002085129
-1.069,-0.002088502
-1.07,-0.002095859
-1.071,-0.002102909
-1.072,-0.002105975
-1.073,-0.002111186
-1.074,-0.002119157
-1.075,-0.002124061
-1.076,-0.002128966
-1.077,-0.002136017
-1.078,-0.002140615
-1.079,-0.002145213
-1.08,-0.002154103
-1.081,-0.002159621
-1.082,-0.002161154
-1.083,-0.002170963
-1.084,-0.002176481
-1.085,-0.002181079
-1.086,-0.00218721
-1.087,-0.002194261
-1.088,-0.002200392
-1.089,-0.00220407
-1.09,-0.002213573
-1.091,-0.002217558
-1.092,-0.00222185
-1.093,-0.002231353
-1.094,-0.002233193
-1.095,-0.00223963
-1.096,-0.00224852
-1.097,-0.002251585
-1.098,-0.002256797
-1.099,-0.002264767
-1.1,-0.002269058
-1.101,-0.00227427
-1.102,-0.002282547
-1.103,-0.002287145
-1.104,-0.002292969
-1.105,-0.002299713
-1.106,-0.002306764
-1.107,-0.002310749
-1.108,-0.002318413
-1.109,-0.002325463
-1.11,-0.002328222
-1.111,-0.002335886
-1.112,-0.002342937
-1.113,-0.002346922
-1.114,-0.002354586
-1.115,-0.002361943
-1.116,-0.002367154
-1.117,-0.002371752
-1.118,-0.002377883
-1.119,-0.002386467
-1.12,-0.002387999
-1.121,-0.002396276
-1.122,-0.00240302
-1.123,-0.00240486
-1.124,-0.002415895
-1.125,-0.0024208
-1.126,-0.002423865
-1.127,-0.002435514
-1.128,-0.002435821
-1.129,-0.002443791
-1.13,-0.002452068
-1.131,-0.002453294
-1.132,-0.00246249
-1.133,-0.002468622
-1.134,-0.002468928
-1.135,-0.002477512
-1.136,-0.002483029
-1.137,-0.002483642
-1.138,-0.002492839
-1.139,-0.002499276
-1.14,-0.002499276
-1.141,-0.002506633
-1.142,-0.002512765
-1.143,-0.002510925
-1.144,-0.002518589
-1.145,-0.002526559
-1.146,-0.002526253
-1.147,-0.002531157
-1.148,-0.002538515
-1.149,-0.0025425
-1.15,-0.002544952
-1.151,-0.002551696
-1.152,-0.002552309
-1.153,-0.002555375
-1.154,-0.002564571
-1.155,-0.002566717
-1.156,-0.002571928
-1.157,-0.002579592
-1.158,-0.002580818
-1.159,-0.002586336
-1.16,-0.002590628
-1.161,-0.002593693
-1.162,-0.002597985
-1.163,-0.002604422
-1.164,-0.002608714
-1.165,-0.002612393
-1.166,-0.002618524
-1.167,-0.002623428
-1.168,-0.002626187
-1.169,-0.002633545
-1.17,-0.00263753
-1.171,-0.002640595
-1.172,-0.002648565
-1.173,-0.00265347
-1.174,-0.002656535
-1.175,-0.00266328
-1.176,-0.002668184
-1.177,-0.002673396
-1.178,-0.002677994
-1.179,-0.002682899
-1.18,-0.002689949
-1.181,-0.002693935
-1.182,-0.002699452
-1.183,-0.002707729
-1.184,-0.002708036
-1.185,-0.002718458
-1.186,-0.00272367
-1.187,-0.002722444
-1.188,-0.002734092
-1.189,-0.002736545
-1.19,-0.002740223
-1.191,-0.002750033
-1.192,-0.002753405
-1.193,-0.002756164
-1.194,-0.00276536
-1.195,-0.002770265
-1.196,-0.002773331
-1.197,-0.00278222
-1.198,-0.002788045
-1.199,-0.00279203
-1.2,-0.00279908
-1.201,-0.002807664
-1.202,-0.00280981
-1.203,-0.002818393
-1.204,-0.002825444
-1.205,-0.002828509
-1.206,-0.002837399
-1.207,-0.002846596
-1.208,-0.002849968
-1.209,-0.002856405
-1.21,-0.002866828
-1.211,-0.002871119
-1.212,-0.00287725
-1.213,-0.002885527
-1.214,-0.002892578
-1.215,-0.002899935
-1.216,-0.002908518
-1.217,-0.002914956
-1.218,-0.002922006
-1.219,-0.002928138
-1.22,-0.002938254
-1.221,-0.002944078
-1.222,-0.002951742
-1.223,-0.002961244
-1.224,-0.002967376
-1.225,-0.002976572
-1.226,-0.002986075
-1.227,-0.002992206
-1.228,-0.002998644
-1.229,-0.003011825
-1.23,-0.002979532
-1.231,-0.002991794
-1.232,-0.003004056
-1.233,-0.003004056
-1.234,-0.003013253
-1.235,-0.003025514
-1.236,-0.003031645
-1.237,-0.003037777
-1.238,-0.003050038
-1.239,-0.003059235
-1.24,-0.003065366
-1.241,-0.003077628
-1.242,-0.003086824
-1.243,-0.003092955
-1.244,-0.003108283
-1.245,-0.003120545
-1.246,-0.00312361
-1.247,-0.003142003
-1.248,-0.003151199
-1.249,-0.00315733
-1.25,-0.003169592
-1.251,-0.003181854
-1.252,-0.003191051
-1.253,-0.003203312
-1.254,-0.003215575
-1.255,-0.003224771
-1.256,-0.003233967
-1.257,-0.003249295
-1.258,-0.003264622
-1.259,-0.003270753
-1.26,-0.003286081
-1.261,-0.003298342
-1.262,-0.003310604
-1.263,-0.003325932
-1.264,-0.003338194
-1.265,-0.00334739
-1.266,-0.003368848
-1.267,-0.00338111
-1.268,-0.003393373
-1.269,-0.003411765
-1.27,-0.003424027
-1.271,-0.003436289
-1.272,-0.003454682
-1.273,-0.003470009
-1.274,-0.003485337
-1.275,-0.003497599
-1.276,-0.003519057
-1.277,-0.003534385
-1.278,-0.003552777
-1.279,-0.003568105
-1.28,-0.003583432
-1.281,-0.003604891
-1.282,-0.003623284
-1.283,-0.003638611
-1.284,-0.003663135
-1.285,-0.003681528
-1.286,-0.003696855
-1.287,-0.003724444
-1.288,-0.003742838
-1.289,-0.00376123
-1.29,-0.00378882
-1.291,-0.003810278
-1.292,-0.003831736
-1.293,-0.003859326
-1.294,-0.00388385
-1.295,-0.003905308
-1.296,-0.003932897
-1.297,-0.003960487
-1.298,-0.003985011
-1.299,-0.0040126
-1.3,-0.00404632
-1.301,-0.004073909
-1.302,-0.004104564
-1.303,-0.004138284
-1.304,-0.004165874
-1.305,-0.004199594
-1.306,-0.00423638
-1.307,-0.004270101
-1.308,-0.00430382
-1.309,-0.004343672
-1.31,-0.004383523
-1.311,-0.004420309
-1.312,-0.00446016
-1.313,-0.004506143
-1.314,-0.004545994
-1.315,-0.004595041
-1.316,-0.004644089
-1.317,-0.004680875
-1.318,-0.004742185
-1.319,-0.004791233
-1.32,-0.00484028
-1.321,-0.00490159
-1.322,-0.004956769
-1.323,-0.005008881
-1.324,-0.005076322
-1.325,-0.005137632
-1.326,-0.005195876
-1.327,-0.005269447
-1.328,-0.005336888
-1.329,-0.005407395
-1.33,-0.005484032
-1.331,-0.005557603
-1.332,-0.005640371
-1.333,-0.005726204
-1.334,-0.005812038
-1.335,-0.005894806
-1.336,-0.005989837
-1.337,-0.006078735
-1.338,-0.00617683
-1.339,-0.006277991
-1.34,-0.006379152
-1.341,-0.006486444
-1.342,-0.006602933
-1.343,-0.006710225
-1.344,-0.006829778
-1.345,-0.006952398
-1.346,-0.007078082
-1.347,-0.007206833
-1.348,-0.007338648
-1.349,-0.007476595
-1.35,-0.007614542
-1.351,-0.007764751
-1.352,-0.007911894
-1.353,-0.008065168
-1.354,-0.008221507
-1.355,-0.008387043
-1.356,-0.008549514
-1.357,-0.008721181
-1.358,-0.008902045
-1.359,-0.009073711
-1.36,-0.009260706
-1.361,-0.009456896
-1.362,-0.009646957
-1.363,-0.009843147
-1.364,-0.0100516
-1.365,-0.01025086
-1.366,-0.01046851
-1.367,-0.01068616
-1.368,-0.01090074
-1.369,-0.01112758
-1.37,-0.01136056
-1.371,-0.01159047
-1.372,-0.01182345
-1.373,-0.01207175
-1.374,-0.01231699
-1.375,-0.01256223
-1.376,-0.0128228
-1.377,-0.01307723
-1.378,-0.0133378
-1.379,-0.01361369
-1.38,-0.01387732
-1.381,-0.01415015
-1.382,-0.01443524
-1.383,-0.01470807
-1.384,-0.01499009
-1.385,-0.01528131
-1.386,-0.01556334
-1.387,-0.01585456
-1.388,-0.01614885
-1.389,-0.01644313
-1.39,-0.01673742
-1.391,-0.01704703
-1.392,-0.01735052
-1.393,-0.01766013
-1.394,-0.01797587
-1.395,-0.01828855
-1.396,-0.01860736
-1.397,-0.01892617
-1.398,-0.01925111
-1.399,-0.01957606
-1.4,-0.01989486
-1.401,-0.02023513
-1.402,-0.02055088
-1.403,-0.02088195
-1.404,-0.02121915
-1.405,-0.02154409
-1.406,-0.02188743
-1.407,-0.0222277
-1.408,-0.02255264
-1.409,-0.0229021
-1.41,-0.02323931
-1.411,-0.02358264
-1.412,-0.02393517
-1.413,-0.02428157
-1.414,-0.0246249
-1.415,-0.0249805
-1.416,-0.02532997
-1.417,-0.02567943
-1.418,-0.02602889
-1.419,-0.02638449
-1.42,-0.02672783
-1.421,-0.02707729
-1.422,-0.02743595
-1.423,-0.02778235
-1.424,-0.02815021
-1.425,-0.02850887
-1.426,-0.0288614
-1.427,-0.02923233
-1.428,-0.02960018
-1.429,-0.02995271
-1.43,-0.0303267
-1.431,-0.03080693
-1.432,-0.03114414
-1.433,-0.03154265
-1.434,-0.03191051
-1.435,-0.03224771
-1.436,-0.03261557
-1.437,-0.03298343
-1.438,-0.03335128
-1.439,-0.03371914
-1.44,-0.034087
-1.441,-0.03445486
-1.442,-0.03479206
-1.443,-0.03515992
-1.444,-0.03552778
-1.445,-0.03589563
-1.446,-0.03626349
-1.447,-0.03663135
-1.448,-0.03699921
-1.449,-0.03736707
-1.45,-0.03773492
-1.451,-0.03810278
-1.452,-0.03847064
-1.453,-0.0388385
-1.454,-0.03920636
-1.455,-0.03957421
-1.456,-0.03994207
-1.457,-0.04030993
-1.458,-0.04067779
-1.459,-0.0410763
-1.46,-0.0414135
-1.461,-0.04178136
-1.462,-0.04217988
-1.463,-0.04254773
-1.464,-0.04291559
-1.465,-0.04325279
-1.466,-0.04358999
-1.467,-0.04395786
-1.468,-0.04432571
-1.469,-0.04466292
-1.47,-0.04503077
-1.471,-0.04539863
-1.472,-0.04576649
-1.473,-0.04610369
-1.474,-0.04647155
-1.475,-0.04683941
-1.476,-0.04720726
-1.477,-0.04757512
-1.478,-0.04791233
-1.479,-0.04828018
-1.48,-0.04864804
-1.481,-0.0490159
-1.482,-0.04938376
-1.483,-0.04975162
-1.484,-0.05008882
-1.485,-0.05045668
-1.486,-0.05082453
-1.487,-0.05116174
-1.488,-0.05152959
-1.489,-0.05189746
-1.49,-0.05226531
-1.491,-0.05263317
-1.492,-0.05300103
-1.493,-0.05333823
-1.494,-0.05373674
-1.495,-0.0541046
-1.496,-0.05444181
-1.497,-0.05484032
-1.498,-0.05517752
-1.499,-0.05554538
-1.5,-0.055668
-1.499,-0.05526949
-1.498,-0.05487097
-1.497,-0.05447246
-1.496,-0.05407395
-1.495,-0.05364478
-1.494,-0.05327692
-1.493,-0.05284775
-1.492,-0.05244924
-1.491,-0.05202007
-1.49,-0.05162156
-1.489,-0.05122305
-1.488,-0.05082453
-1.487,-0.05039537
-1.486,-0.04999685
-1.485,-0.04959834
-1.484,-0.04919983
-1.483,-0.04880131
-1.482,-0.0484028
-1.481,-0.04800429
-1.48,-0.04763643
-1.479,-0.04720726
-1.478,-0.04683941
-1.477,-0.04647155
-1.476,-0.04604238
-1.475001,-0.04567453
-1.474,-0.04530666
-1.473,-0.04490815
-1.472,-0.04457095
-1.471,-0.04417244
-1.47,-0.04377393
-1.469,-0.04343672
-1.468,-0.04303821
-1.467,-0.04267035
-1.466,-0.04233315
-1.465,-0.04193464
-1.464,-0.04156678
-1.463,-0.04119892
-1.462,-0.04083106
-1.461,-0.04043255
-1.46,-0.04009534
-1.459,-0.03972749
-1.458,-0.03935963
-1.457,-0.03899177
-1.456,-0.03865457
-1.455,-0.03828671
-1.454,-0.03794951
-1.453,-0.03758165
-1.452,-0.03721379
-1.451,-0.03684593
-1.45,-0.03650873
-1.449,-0.03611022
-1.448,-0.03577302
-1.447,-0.03543581
-1.446,-0.03506796
-1.445,-0.03473075
-1.444,-0.03436289
-1.443,-0.03402569
-1.442,-0.03368849
-1.441,-0.03335128
-1.44,-0.03301408
-1.439,-0.03264622
-1.438,-0.03227837
-1.437,-0.03197182
-1.436,-0.03160396
-1.435,-0.03126676
-1.434,-0.03092955
-1.433,-0.03059235
-1.432,-0.0302858
-1.431,-0.0299486
-1.43,-0.02961139
-1.429,-0.02927419
-1.428,-0.02896764
-1.427,-0.02863044
-1.426,-0.02832389
-1.425,-0.02798669
-1.424,-0.02768014
-1.423,-0.02734294
-1.422,-0.02703639
-1.421,-0.02669919
-1.42,-0.02636199
-1.419,-0.02608609
-1.418,-0.02574889
-1.417,-0.02544234
-1.416,-0.02513579
-1.415,-0.02479859
-1.414,-0.02449204
-1.413,-0.02421615
-1.412,-0.0239096
-1.411,-0.02360305
-1.41,-0.0232965
-1.409,-0.02298995
-1.408,-0.02271406
-1.407,-0.02240751
-1.406,-0.02210096
-1.405,-0.02182507
-1.404,-0.02154918
-1.403,-0.02124263
-1.402,-0.02096673
-1.401,-0.02069084
-1.4,-0.02041495
-1.399,-0.02013905
-1.398,-0.01986316
-1.397,-0.01958727
-1.396,-0.01928072
-1.395,-0.01900483
-1.394,-0.01872893
-1.393,-0.01845304
-1.392,-0.0182078
-1.391,-0.01793191
-1.39,-0.01765601
-1.389,-0.01741077
-1.388,-0.01713488
-1.387,-0.01688964
-1.386,-0.01661375
-1.385,-0.01636851
-1.384,-0.01612327
-1.383,-0.01599251
-1.382,-0.01574727
-1.381,-0.01551122
-1.38,-0.01528131
-1.379,-0.01504221
-1.378,-0.01481536
-1.377,-0.01459465
-1.376,-0.01436167
-1.375,-0.01414096
-1.374,-0.01392637
-1.373,-0.01370259
-1.372,-0.01348801
-1.371,-0.01328262
-1.37,-0.0130711
-1.369,-0.01286265
-1.368,-0.01265726
-1.367,-0.01245187
-1.366,-0.01224649
-1.365,-0.01205336
-1.364,-0.01185104
-1.363,-0.01165485
-1.362,-0.01146479
-1.361,-0.01127166
-1.36,-0.0110908
-1.359,-0.010913
-1.358,-0.01073214
-1.357,-0.01055741
-1.356,-0.0103888
-1.355,-0.01021714
-1.354,-0.0100516
-1.353,-0.009892195
-1.352,-0.00973279
-1.351,-0.009567254
-1.350001,-0.009417046
-1.349,-0.009260706
-1.348,-0.009110497
-1.347,-0.008969485
-1.346,-0.008819276
-1.345,-0.008678264
-1.344,-0.008546448
-1.343,-0.008408502
-1.342,-0.00827362
-1.341,-0.00814487
-1.34,-0.00801612
-1.339,-0.00788737
-1.338,-0.007764751
-1.337,-0.007645197
-1.336,-0.007525643
-1.335,-0.007409154
-1.334,-0.007298797
-1.333,-0.007185374
-1.332,-0.007078082
-1.331,-0.006970791
-1.33,-0.006866564
-1.329,-0.006765403
-1.328,-0.006670373
-1.327,-0.006572278
-1.326,-0.006480313
-1.325,-0.006388349
-1.324,-0.006296384
-1.323,-0.006207486
-1.322,-0.006124718
-1.321,-0.006038884
-1.32,-0.005956116
-1.319,-0.005879479
-1.318,-0.005799776
-1.317,-0.005726204
-1.316,-0.005655698
-1.315,-0.005579061
-1.314,-0.005508556
-1.313,-0.005441115
-1.312,-0.005376739
-1.311,-0.005309299
-1.31,-0.005247989
-1.309,-0.005189745
-1.308,-0.005119239
-1.307,-0.005067126
-1.306,-0.005008881
-1.305,-0.004944507
-1.304,-0.004895459
-1.303,-0.004843346
-1.302,-0.004785101
-1.301,-0.004742185
-1.3,-0.004687006
-1.299,-0.004637958
-1.298,-0.004595041
-1.297,-0.00454906
-1.296,-0.004500012
-1.295,-0.004457095
-1.294,-0.004417243
-1.293,-0.004374327
-1.292,-0.004334475
-1.291,-0.004294624
-1.29,-0.004254773
-1.289,-0.004214922
-1.288,-0.004181202
-1.287,-0.00414135
-1.286,-0.004104564
-1.285,-0.004073909
-1.284,-0.004037124
-1.283,-0.004003403
-1.282,-0.003972749
-1.281,-0.003935963
-1.28,-0.003905308
-1.279,-0.003874653
-1.278,-0.003843998
-1.277,-0.003813344
-1.276,-0.003785754
-1.275,-0.00376123
-1.274,-0.003730575
-1.273,-0.003702986
-1.272,-0.003678462
-1.271,-0.003650873
-1.27,-0.003623284
-1.269,-0.003601825
-1.268,-0.003574236
-1.267,-0.003549712
-1.266,-0.003528254
-1.265,-0.00350373
-1.264,-0.003479206
-1.263,-0.003460813
-1.262,-0.003433224
-1.261,-0.003411765
-1.26,-0.003393373
-1.259,-0.003365783
-1.258,-0.003350456
-1.257,-0.003332063
-1.256,-0.003307539
-1.255,-0.003289146
-1.254,-0.003273819
-1.253,-0.003249295
-1.252,-0.003230902
-1.251,-0.003212509
-1.25,-0.003194116
-1.249,-0.003175723
-1.248,-0.00315733
-1.247,-0.003138937
-1.246,-0.003120545
-1.245,-0.003105217
-1.244,-0.003089889
-1.243,-0.003068431
-1.242,-0.003059235
-1.241,-0.003037777
-1.24,-0.003022449
-1.239,-0.003010187
-1.238,-0.002991794
-1.237,-0.002973401
-1.236,-0.002961139
-1.235,-0.002945812
-1.234,-0.002930485
-1.233,-0.002915157
-1.232,-0.002902895
-1.231,-0.002887568
-1.23,-0.00287224
-1.229,-0.002856913
-1.228,-0.002844651
-1.227,-0.002829324
-1.226,-0.002817062
-1.225001,-0.0028048
-1.224,-0.002786407
-1.223,-0.002774145
-1.222,-0.002764949
-1.221,-0.002746556
-1.22,-0.002737359
-1.219,-0.002725097
-1.218,-0.002706704
-1.217,-0.002700574
-1.216,-0.002685246
-1.215,-0.002669919
-1.214,-0.002663787
-1.213,-0.002645395
-1.212,-0.002636198
-1.211,-0.002627002
-1.21,-0.002611674
-1.209,-0.002599412
-1.208,-0.002590216
-1.207,-0.002577954
-1.206,-0.002565692
-1.205,-0.002556496
-1.204,-0.002541168
-1.203,-0.002531972
-1.202,-0.002522775
-1.201,-0.002510513
-1.2,-0.002498251
-1.199,-0.00249212
-1.198,-0.002476793
-1.197,-0.002467597
-1.196,-0.0024584
-1.195,-0.002446138
-1.194,-0.002436942
-1.193,-0.00242468
-1.192,-0.002418549
-1.191,-0.002406287
-1.19,-0.002400156
-1.189,-0.002387894
-1.188,-0.002375632
-1.187,-0.002369501
-1.186,-0.002357239
-1.185,-0.002344977
-1.184,-0.002341912
-1.183,-0.00232965
-1.182,-0.002317388
-1.181,-0.002314323
-1.18,-0.002302061
-1.179,-0.002289799
-1.178,-0.002283668
-1.177,-0.002277537
-1.176,-0.002265275
-1.175,-0.002259144
-1.174,-0.002253013
-1.173,-0.002237685
-1.172,-0.00223462
-1.171,-0.002225423
-1.17,-0.002213162
-1.169,-0.002210096
-1.168,-0.0022009
-1.167,-0.002188638
-1.166,-0.002185572
-1.165,-0.002176376
-1.164,-0.002167179
-1.163,-0.002161048
-1.162,-0.002151852
-1.161,-0.002142655
-1.16,-0.002136525
-1.159,-0.002130394
-1.158,-0.002121197
-1.157,-0.002112001
-1.156,-0.00210587
-1.155,-0.002099739
-1.154,-0.002090542
-1.153,-0.002084411
-1.152,-0.00207828
-1.151,-0.002066019
-1.15,-0.002062953
-1.149,-0.002053756
-1.148,-0.00204456
-1.147,-0.002041495
-1.146,-0.002029233
-1.145,-0.002026167
-1.144,-0.002020036
-1.143,-0.002007774
-1.142,-0.002004709
-1.141,-0.001998578
-1.14,-0.001986316
-1.139,-0.001986316
-1.138,-0.00197712
-1.137,-0.001967923
-1.136,-0.001961792
-1.135,-0.001955661
-1.134,-0.001946465
-1.133,-0.001940334
-1.132,-0.001934203
-1.131,-0.001928072
-1.13,-0.001921941
-1.129,-0.001918875
-1.128,-0.001906613
-1.127,-0.001903548
-1.126,-0.001897417
-1.125,-0.00188822
-1.124,-0.00188209
-1.123,-0.001879024
-1.122,-0.001869828
-1.121,-0.001863697
-1.12,-0.001860631
-1.119,-0.001848369
-1.118,-0.001845304
-1.117,-0.001842238
-1.116,-0.001826911
-1.115,-0.001826911
-1.114,-0.00182078
-1.113,-0.001808518
-1.112,-0.001805453
-1.111,-0.001802387
-1.11,-0.001790125
-1.109,-0.00178706
-1.108,-0.001780929
-1.107,-0.001771732
-1.106,-0.001765601
-1.105,-0.00175947
-1.104,-0.001753339
-1.103,-0.001747208
-1.102,-0.001741077
-1.101,-0.001731881
-1.100001,-0.001722684
-1.099,-0.001722684
-1.098,-0.001710422
-1.097,-0.001704292
-1.096,-0.001701226
-1.095,-0.00169203
-1.094,-0.001685899
-1.093,-0.001679768
-1.092,-0.001673637
-1.091,-0.00166444
-1.09,-0.001661375
-1.089,-0.001655244
-1.088,-0.001646047
-1.087,-0.001642982
-1.086,-0.001633785
-1.085,-0.001624589
-1.084,-0.001618458
-1.083,-0.001615393
-1.082,-0.001606196
-1.081,-0.001635423
-1.08,-0.001631438
-1.079,-0.001623468
-1.078,-0.001616111
-1.077,-0.001613045
-1.076,-0.001605688
-1.075,-0.001596492
-1.074,-0.001593426
-1.073,-0.001585763
-1.072,-0.001577792
-1.071,-0.001573501
-1.07,-0.001567676
-1.069,-0.001559093
-1.068,-0.001554188
-1.067,-0.001548364
-1.066,-0.00154162
-1.065,-0.001533343
-1.064,-0.001528438
-1.063,-0.001521081
-1.062,-0.001513111
-1.061,-0.001511578
-1.06,-0.001501462
-1.059,-0.001496557
-1.058,-0.001493798
-1.057,-0.001484295
-1.056,-0.001477858
-1.055,-0.001473259
-1.054,-0.001466209
-1.053,-0.001460691
-1.052,-0.001454866
-1.051,-0.001449042
-1.05,-0.001442605
-1.049,-0.001435247
-1.048,-0.001430956
-1.047,-0.001423905
-1.046,-0.001417774
-1.045,-0.001413789
-1.044,-0.001405819
-1.043,-0.001399994
-1.042,-0.001396622
-1.041,-0.001387732
-1.04,-0.001383441
-1.039,-0.001379456
-1.038,-0.001370872
-1.037,-0.0013675
-1.036,-0.001363822
-1.035,-0.001353399
-1.034,-0.001348801
-1.033,-0.001344816
-1.032,-0.001336232
-1.031,-0.001330408
-1.03,-0.001327036
-1.029,-0.001320292
-1.028,-0.001313548
-1.027,-0.001309869
-1.026,-0.001304045
-1.025,-0.001296074
-1.024,-0.001293009
-1.023,-0.001289637
-1.022,-0.001278908
-1.021,-0.001278601
-1.02,-0.001272777
-1.019,-0.00126358
-1.018,-0.001260515
-1.017,-0.00125561
-1.016,-0.00124764
-1.015,-0.001243348
-1.014,-0.001238137
-1.013,-0.001232006
-1.012,-0.001225262
-1.011,-0.001221277
-1.01,-0.00121392
-1.009,-0.001209934
-1.008,-0.001205643
-1.007,-0.001199205
-1.006,-0.001193381
-1.005,-0.001191235
-1.004,-0.001182038
-1.003,-0.001178053
-1.002,-0.001174988
-1.001,-0.001167937
-1,-0.001161806
-0.9990004,-0.001158434
-0.9980004,-0.001151997
-0.9970005,-0.001145866
-0.9960005,-0.001142494
-0.9950004,-0.00113483
-0.9940004,-0.001129619
-0.9930004,-0.001125021
-0.9920005,-0.001118583
-0.9910004,-0.001112145
-0.9900004,-0.001106934
-0.9890004,-0.001103562
-0.9880005,-0.001097125
-0.9870005,-0.00109222
-0.9860004,-0.001087009
-0.9850004,-0.001081184
-0.9840004,-0.00107536
-0.9830005,-0.001071375
-0.9820005,-0.00106555
-0.9810004,-0.001059113
-0.9800004,-0.001054208
-0.9790004,-0.001049916
-0.9780005,-0.001041333
-0.9770004,-0.001038267
-0.9760004,-0.001032443
-0.9750004,-0.001025699
-0.9740005,-0.001020794
-0.9730005,-0.001015889
-0.9720004,-0.001007306
-0.9710004,-0.00100424
-0.9700004,-0.0009999488
-0.9690005,-0.0009913654
-0.9680004,-0.0009876869
-0.9670004,-0.0009830886
-0.9660004,-0.0009754249
-0.9650005,-0.000969294
-0.9640005,-0.0009646958
-0.9630004,-0.000957032
-0.9620004,-0.0009530469
-0.9610004,-0.0009499814
-0.9600005,-0.0009395588
-0.9590005,-0.0009371064
-0.9580004,-0.0009322016
-0.9570004,-0.0009239248
-0.9560004,-0.00091902
-0.9550005,-0.0009141153
-0.9540004,-0.0009067581
-0.9530004,-0.0009006272
-0.9520004,-0.0008975617
-0.9510005,-0.0008905111
-0.9500005,-0.0008834605
-0.9490004,-0.0008788622
-0.9480004,-0.0008718116
-0.9470004,-0.0008650676
-0.9460005,-0.0008623086
-0.9450005,-0.0008543384
-0.9440004,-0.0008488205
-0.9430004,-0.0008454485
-0.9420004,-0.0008368651
-0.9410005,-0.0008310407
-0.9400004,-0.0008258293
-0.9390004,-0.0008196984
-0.9380004,-0.0008132609
-0.9370005,-0.0008074365
-0.9360005,-0.0008019186
-0.9350004,-0.0007954811
-0.9340004,-0.0007884305
-0.9330004,-0.000785365
-0.9320005,-0.0007777013
-0.9310004,-0.0007709572
-0.9300004,-0.0007666656
-0.9290004,-0.0007586953
-0.9280005,-0.0007540971
-0.9270005,-0.0007485792
-0.9260004,-0.0007412221
-0.9250004,-0.0007369304
-0.9240004,-0.000731106
-0.9230005,-0.0007225226
-0.9220005,-0.000718231
-0.9210004,-0.0007121
-0.9200004,-0.0007056625
-0.9190004,-0.0007001446
-0.9180005,-0.0006961594
-0.9170004,-0.0006888023
-0.9160004,-0.0006823648
-0.9150004,-0.0006786863
-0.9140005,-0.0006710225
-0.9130005,-0.0006642784
-0.9120004,-0.0006605998
-0.9110004,-0.0006526296
-0.9100004,-0.0006461921
-0.9090005,-0.0006422069
-0.9080005,-0.0006348498
-0.9070004,-0.0006284123
-0.9060004,-0.000623201
-0.9050004,-0.0006167634
-0.9040005,-0.000610326
-0.9030004,-0.000604808
-0.9020004,-0.0005999033
-0.9010004,-0.0005916265
-0.9000005,-0.0005854955
-0.8990005,-0.0005805907
-0.8980004,-0.0005732336
-0.8970004,-0.0005683288
-0.8960004,-0.000562811
-0.8950005,-0.0005536145
-0.8940005,-0.0005496293
-0.8930004,-0.0005444181
-0.8920004,-0.0005361412
-0.8910004,-0.0005312365
-0.8900005,-0.0005269448
-0.8890004,-0.0005168287
-0.8880004,-0.0005110043
-0.8870004,-0.0005070192
-0.8860005,-0.0004972096
-0.8850005,-0.0004916918
-0.8840004,-0.0004883197
-0.8830004,-0.0004775905
-0.8820004,-0.000473912
-0.8810005,-0.0004693137
-0.8800004,-0.0004601173
-0.8790004,-0.0004536798
-0.8780004,-0.000448775
-0.8770005,-0.0004408048
-0.8760005,-0.0004343672
-0.8750004,-0.0004282363
-0.8740004,-0.0004221053
-0.8730004,-0.0004135219
-0.8720005,-0.0004086172
-0.8710005,-0.0004018731
-0.8700004,-0.0003935963
-0.8690004,-0.0003877719
-0.8680004,-0.0003813344
-0.8670005,-0.0003736707
-0.8660004,-0.0003678463
-0.8650004,-0.0003617153
-0.8640004,-0.0003534385
-0.8630005,-0.0003463879
-0.8620005,-0.00034087
-0.8610004,-0.0003335129
-0.8600004,-0.0003255426
-0.8590004,-0.0003200247
-0.8580005,-0.0003126676
-0.8570005,-0.0003046973
-0.8560004,-0.0002985664
-0.8550004,-0.0002912092
-0.8540004,-0.0002829324
-0.8530005,-0.0002768014
-0.8520004,-0.0002691377
-0.8510004,-0.0002605543
-0.8500004,-0.0002556496
-0.8490005,-0.0002470662
-0.8480005,-0.0002403222
-0.8470004,-0.0002323519
-0.8460004,-0.0002249948
-0.8450004,-0.0002176376
-0.8440005,-0.0002087477
-0.8430004,-0.0002032298
-0.8420004,-0.0001958727
-0.8410004,-0.0001869828
-0.8400005,-0.0001808518
-0.8390005,-0.0001707357
-0.8380004,-0.0001633786
-0.8370004,-0.0001572476
-0.8360004,-0.0001480511
-0.8350005,-0.0001425744
-0.8340005,-0.0001366274
-0.8330004,-0.0001275842
-0.8320004,-0.0001193074
-0.8310004,-0.0001123181
-0.8300005,-0.0001042865
-0.8290004,-9.588713E-05
-0.8280004,-8.770229E-05
-0.8270004,-8.065168E-05
-0.8260005,-7.176178E-05
-0.8250005,-6.342367E-05
-0.8240004,-5.698615E-05
-0.8230004,-4.726858E-05
-0.8220004,-3.957421E-05
-0.8210005,-3.289146E-05
-0.8200005,-2.344977E-05
-0.8190004,-1.305779E-05
-0.8180004,-7.325335E-06
-0.8170004,1.196706E-06
-0.8160005,9.841367E-06
-0.8150004,1.725983E-05
-0.8140004,2.523009E-05
-0.8130004,3.45185E-05
-0.8120005,4.209024E-05
-0.8110005,4.963133E-05
-0.8100004,5.858254E-05
-0.8090004,6.66141E-05
-0.8080004,7.357274E-05
-0.8070005,8.246265E-05
-0.8060004,9.080076E-05
-0.8050004,9.760613E-05
-0.8040004,0.0001064654
-0.8030005,0.0001147115
-0.8020005,0.0001222833
-0.8010004,0.0001304988
-0.8000004,8.583468E-05
-0.8009996,2.320687E-05
-0.8019996,-1.826911E-05
-0.8029996,-5.333823E-05
-0.8039996,-8.583234E-05
-0.8049996,-0.0001128699
-0.8059996,-0.0001395396
-0.8069996,-0.0001652284
-0.8079996,-0.0001859203
-0.8089996,-0.0002090341
-0.8099996,-0.0002304925
-0.8109996,-0.0002494678
-0.8119996,-0.0002687803
-0.8129996,-0.000287817
-0.8139996,-0.0003016318
-0.8149996,-0.0003181854
-0.8159996,-0.0003338194
-0.8169996,-0.0003519058
-0.8179996,-0.0003666201
-0.8189996,-0.0003831737
-0.8199996,-0.000397888
-0.8209996,-0.0004098434
-0.8219996,-0.0004257839
-0.8229996,-0.000439272
-0.8239996,-0.0004503077
-0.8249996,-0.0004659417
-0.8259996,-0.0004785102
-0.8269996,-0.0004892393
-0.8279996,-0.0005039537
-0.8289996,-0.0005156025
-0.8299996,-0.0005260251
-0.8309996,-0.0005385936
-0.8319996,-0.0005508556
-0.8329996,-0.0005615847
-0.8339996,-0.0005726205
-0.8349996,-0.0005842693
-0.8359996,-0.000594692
-0.8369996,-0.0006045015
-0.8379996,-0.0006161503
-0.8389996,-0.0006262665
-0.8399996,-0.0006357695
-0.8409996,-0.0006471117
-0.8419996,-0.0006569213
-0.8429996,-0.0006658112
-0.8439996,-0.0006771535
-0.8449996,-0.0006863499
-0.8459996,-0.0006949333
-0.8469996,-0.000705969
-0.8479996,-0.000715472
-0.8489996,-0.0007231357
-0.8499996,-0.0007323321
-0.8509996,-0.0007436744
-0.8519996,-0.0007510316
-0.8529996,-0.0007614543
-0.8539996,-0.0007703441
-0.8549996,-0.0007767816
-0.8559996,-0.0007872043
-0.8569996,-0.0007982401
-0.8579996,-0.000804371
-0.8589996,-0.0008129543
-0.8599996,-0.0008224574
-0.8609996,-0.0008304276
-0.8619996,-0.0008387044
-0.8629996,-0.0008482074
-0.8639996,-0.0008540318
-0.8649996,-0.0008620021
-0.8659996,-0.0008730378
-0.8669996,-0.0008791688
-0.8679996,-0.0008880587
-0.8689996,-0.0008984813
-0.8699996,-0.000902773
-0.8709996,-0.0009128891
-0.8719996,-0.0009214724
-0.8729996,-0.0009269903
-0.8739996,-0.0009367999
-0.8749996,-0.0009444635
-0.8759996,-0.0009499814
-0.8769996,-0.0009594844
-0.8779996,-0.0009686808
-0.8789996,-0.0009748118
-0.8799996,-0.0009815559
-0.8809996,-0.0009910589
-0.8819996,-0.0009993357
-0.8829996,-0.00100608
-0.8839996,-0.001012517
-0.8849996,-0.001021407
-0.8859996,-0.001027232
-0.8869996,-0.001034895
-0.8879996,-0.001041333
-0.8889996,-0.001049916
-0.8899996,-0.00105666
-0.8909996,-0.001063711
-0.8919996,-0.001071375
-0.8929996,-0.001078732
-0.8939996,-0.001083943
-0.8949996,-0.001093446
-0.8959996,-0.001099884
-0.8969996,-0.001106321
-0.8979996,-0.001114598
-0.8989996,-0.001120422
-0.8999996,-0.001128086
-0.9009996,-0.00113391
-0.9019996,-0.001140961
-0.9029996,-0.001148625
-0.9039996,-0.001155062
-0.9049996,-0.001161193
-0.9059996,-0.00116947
-0.9069996,-0.001173149
-0.9079996,-0.001180506
-0.9089996,-0.001188783
-0.9099996,-0.001193381
-0.9109996,-0.001202271
-0.9119996,-0.001207789
-0.9129996,-0.001213306
-0.9139996,-0.001220664
-0.9149996,-0.001226181
-0.9159996,-0.001231699
-0.9169996,-0.001239057
-0.9179996,-0.001245494
-0.9189996,-0.001249479
-0.9199996,-0.001256836
-0.9209996,-0.00126358
-0.9219996,-0.001268792
-0.9229996,-0.001275229
-0.9239996,-0.001281973
-0.9249996,-0.001286265
-0.9259996,-0.001292396
-0.9269996,-0.001299753
-0.9279996,-0.001304045
-0.9289996,-0.001310789
-0.9299996,-0.001317533
-0.9309996,-0.001322744
-0.9319996,-0.001327956
-0.9329996,-0.00133286
-0.9339996,-0.001339604
-0.9349996,-0.001344816
-0.9359996,-0.00134972
-0.9369996,-0.001357384
-0.9379996,-0.001362902
-0.9389996,-0.001365967
-0.9399996,-0.001374244
-0.9409996,-0.001378229
-0.9419996,-0.001382521
-0.9429996,-0.001390491
-0.9439996,-0.00139417
-0.9449996,-0.001398768
-0.9459996,-0.001406125
-0.9469996,-0.00141011
-0.9479996,-0.001415628
-0.9489996,-0.001421146
-0.9499996,-0.001426971
-0.9509996,-0.001430343
-0.9519996,-0.00143678
-0.9529996,-0.001444137
-0.9539996,-0.00144659
-0.9549996,-0.00145364
-0.9559996,-0.001459158
-0.9569996,-0.001460997
-0.9579996,-0.001468661
-0.9589996,-0.001472033
-0.9599996,-0.001476938
-0.9609996,-0.001486441
-0.9619996,-0.00148828
-0.9629996,-0.001492879
-0.9639996,-0.001500849
-0.9649996,-0.001503608
-0.9659996,-0.001507286
-0.9669996,-0.001516483
-0.9679996,-0.001518015
-0.9689996,-0.00152384
-0.9699996,-0.001529358
-0.9709996,-0.001533956
-0.9719996,-0.001539474
-0.9729996,-0.001545605
-0.9739996,-0.001548977
-0.9749996,-0.001554801
-0.9759996,-0.001557254
-0.9769996,-0.001565837
-0.9779996,-0.001569209
-0.9789996,-0.001573194
-0.9799996,-0.001579632
-0.9809996,-0.00158331
-0.9819996,-0.001589748
-0.9829996,-0.001595572
-0.9839996,-0.001596798
-0.9849996,-0.001605382
-0.9859996,-0.001609673
-0.9869996,-0.001613045
-0.9879996,-0.001621322
-0.9889996,-0.001625614
-0.9899996,-0.001628679
-0.9909996,-0.001635423
-0.9919996,-0.001640022
-0.9929996,-0.00164462
-0.9939996,-0.001647072
-0.9949996,-0.001655962
-0.9959996,-0.00166056
-0.9969996,-0.001663013
-0.9979996,-0.001672209
-0.9989996,-0.001673742
-0.9999996,-0.00167926
-1.001,-0.001686311
-1.002,-0.00168723
-1.003,-0.001693668
-1.004,-0.001701944
-1.005,-0.001703171
-1.006,-0.001711754
-1.007,-0.001716659
-1.008,-0.001718498
-1.009,-0.001725549
-1.01,-0.001733519
-1.011,-0.001736584
-1.012,-0.001743022
-1.013,-0.001750379
-1.014,-0.001750072
-1.015,-0.001759882
-1.016,-0.001763254
-1.017,-0.001766013
-1.018,-0.001772144
-1.019,-0.001779808
-1.02,-0.001783486
-1.021,-0.001789311
-1.022,-0.001796361
-1.023,-0.001800653
-1.024,-0.001805864
-1.025,-0.001815674
-1.026,-0.001817513
-1.027,-0.001821805
-1.028,-0.001828549
-1.029,-0.001831614
-1.03,-0.001835906
-1.031,-0.001846635
-1.032,-0.001848781
-1.033,-0.001854605
-1.034,-0.001863189
-1.035,-0.001865948
-1.036,-0.001869933
-1.037,-0.001879129
-1.038,-0.001881275
-1.039,-0.0018871
-1.04,-0.001894763
-1.041,-0.001898748
-1.042,-0.001903653
-1.043,-0.001910091
-1.044,-0.001916222
-1.045,-0.001921433
-1.046,-0.001928177
-1.047,-0.001934308
-1.048,-0.001938906
-1.049,-0.001944424
-1.05,-0.001952088
-1.051,-0.001955153
-1.052,-0.001962204
-1.053,-0.001969255
-1.054,-0.00197232
-1.055,-0.001979371
-1.056,-0.001987034
-1.057,-0.001992552
-1.058,-0.001996537
-1.059,-0.002005427
-1.06,-0.002006653
-1.061,-0.00201401
-1.062,-0.0020229
-1.063,-0.002029031
-1.064,-0.002030871
-1.065,-0.002042519
-1.066,-0.002045278
-1.067,-0.00205049
-1.068,-0.002059073
-1.069,-0.002064897
-1.07,-0.002069189
-1.071,-0.002075013
-1.072,-0.002081758
-1.073,-0.002087275
-1.074,-0.002092793
-1.075,-0.00210107
-1.076,-0.002107508
-1.077,-0.002110573
-1.078,-0.00211977
-1.079,-0.002124368
-1.08,-0.002129886
-1.081,-0.002138469
-1.082,-0.002143374
-1.083,-0.002147359
-1.084,-0.002157475
-1.085,-0.002163913
-1.086,-0.002166671
-1.087,-0.002174335
-1.088,-0.002182305
-1.089,-0.002189049
-1.09,-0.002197326
-1.091,-0.002201005
-1.092,-0.002211121
-1.093,-0.002217252
-1.094,-0.002220931
-1.095,-0.002230127
-1.096,-0.002237791
-1.097,-0.002244228
-1.098,-0.002250972
-1.099,-0.002258023
-1.1,-0.002265687
-1.101,-0.002270898
-1.102,-0.002276722
-1.103,-0.002286838
-1.104,-0.002291437
-1.105,-0.00230094
-1.106,-0.002306457
-1.107,-0.002316573
-1.108,-0.002322705
-1.109,-0.002328529
-1.11,-0.002335273
-1.111,-0.002343856
-1.112,-0.002348761
-1.113,-0.002356731
-1.114,-0.002365621
-1.115,-0.002370832
-1.116,-0.002378803
-1.117,-0.002388919
-1.118,-0.002390452
-1.119,-0.002396583
-1.12,-0.00240486
-1.121,-0.002407925
-1.122,-0.00241283
-1.123,-0.002421413
-1.124,-0.002424785
-1.125,-0.002429383
-1.126,-0.002437047
-1.127,-0.002442258
-1.128,-0.002442871
-1.129,-0.002452987
-1.13,-0.002454827
-1.131,-0.002455747
-1.132,-0.002467396
-1.133,-0.002467702
-1.134,-0.002470154
-1.135,-0.002479351
-1.136,-0.002479044
-1.137,-0.002480577
-1.138,-0.002487934
-1.139,-0.00249008
-1.14,-0.002491612
-1.141,-0.002495291
-1.142,-0.002501116
-1.143,-0.002504181
-1.144,-0.002506327
-1.145,-0.002511845
-1.146,-0.002513991
-1.147,-0.002514604
-1.148,-0.002521348
-1.149,-0.002524413
-1.15,-0.002525639
-1.151,-0.002534836
-1.152,-0.002535449
-1.153,-0.002533303
-1.154,-0.002544645
-1.155,-0.002545872
-1.156,-0.002547404
-1.157,-0.00255844
-1.158,-0.002556907
-1.159,-0.002562732
-1.16,-0.002570396
-1.161,-0.002570702
-1.162,-0.002576526
-1.163,-0.002583271
-1.164,-0.00258511
-1.165,-0.002591854
-1.166,-0.002597678
-1.167,-0.00260105
-1.168,-0.002604422
-1.169,-0.002614845
-1.17,-0.002616071
-1.171,-0.002621896
-1.172,-0.002632931
-1.173,-0.002632318
-1.174,-0.002643354
-1.175,-0.002650711
-1.176,-0.002651018
-1.177,-0.002659908
-1.178,-0.002665425
-1.179,-0.002666652
-1.18,-0.002674315
-1.181,-0.002684125
-1.182,-0.002686577
-1.183,-0.002694241
-1.184,-0.002704664
-1.185,-0.002707729
-1.186,-0.002716925
-1.187,-0.002723976
-1.188,-0.002727042
-1.189,-0.002736238
-1.19,-0.002743595
-1.191,-0.002747274
-1.192,-0.002759229
-1.193,-0.00276628
-1.194,-0.002770878
-1.195,-0.002779461
-1.196,-0.002788964
-1.197,-0.002794482
-1.198,-0.002803372
-1.199,-0.002814408
-1.2,-0.002818393
-1.201,-0.002831575
-1.202,-0.00284353
-1.203,-0.002847515
-1.204,-0.002860697
-1.205,-0.002870813
-1.206,-0.002875718
-1.207,-0.002887673
-1.208,-0.002898402
-1.209,-0.002906986
-1.21,-0.002918328
-1.211,-0.00292967
-1.212,-0.00293856
-1.213,-0.002947756
-1.214,-0.002959712
-1.215,-0.002970748
-1.216,-0.002979944
-1.217,-0.002992819
-1.218,-0.003005387
-1.219,-0.003014277
-1.22,-0.002991794
-1.221,-0.003004056
-1.222,-0.003013253
-1.223,-0.003022449
-1.224,-0.003040842
-1.225,-0.003046973
-1.226,-0.003059235
-1.227,-0.003074562
-1.228,-0.003086824
-1.229,-0.003099086
-1.23,-0.003111348
-1.231,-0.003120545
-1.232,-0.003142003
-1.233,-0.003151199
-1.234,-0.003163461
-1.235,-0.003181854
-1.236,-0.003191051
-1.237,-0.003203312
-1.238,-0.003221706
-1.239,-0.003233967
-1.24,-0.003249295
-1.241,-0.003264622
-1.242,-0.00327995
-1.243,-0.003292212
-1.244,-0.003310604
-1.245,-0.003325932
-1.246,-0.003341259
-1.247,-0.003359652
-1.248,-0.003374979
-1.249,-0.003390307
-1.25,-0.0034087
-1.251,-0.003427093
-1.252,-0.00344242
-1.253,-0.003460813
-1.254,-0.003479206
-1.255,-0.003494533
-1.256,-0.003512926
-1.257,-0.003534385
-1.258,-0.003555843
-1.259,-0.003574236
-1.26,-0.003592629
-1.261,-0.003617153
-1.262,-0.003635545
-1.263,-0.003660069
-1.264,-0.003681528
-1.265,-0.003702986
-1.266,-0.003724444
-1.267,-0.003748968
-1.268,-0.003767361
-1.269,-0.003798016
-1.27,-0.00382254
-1.271,-0.003843998
-1.272,-0.003874653
-1.273,-0.003902242
-1.274,-0.003923701
-1.275,-0.003954356
-1.276,-0.003985011
-1.277,-0.0040126
-1.278,-0.004043255
-1.279,-0.00408004
-1.28,-0.004110695
-1.281,-0.004138284
-1.282,-0.004178136
-1.283,-0.004208791
-1.284,-0.004245576
-1.285,-0.004288493
-1.286,-0.004319148
-1.287,-0.004362065
-1.288,-0.004404982
-1.289,-0.004438702
-1.29,-0.004481619
-1.291,-0.004527601
-1.292,-0.004570518
-1.293,-0.0046165
-1.294,-0.004668613
-1.295,-0.004714595
-1.296,-0.004760577
-1.297,-0.004818822
-1.298,-0.004874
-1.299,-0.004926114
-1.3,-0.004984358
-1.301,-0.005042602
-1.302,-0.005100846
-1.303,-0.005168287
-1.304,-0.005232662
-1.305,-0.005297037
-1.306,-0.005373674
-1.307,-0.005438049
-1.308,-0.005514686
-1.309,-0.005591323
-1.31,-0.005667961
-1.311,-0.005747663
-1.312,-0.005833496
-1.313,-0.00591933
-1.314,-0.006005164
-1.315,-0.006100194
-1.316,-0.006189092
-1.317,-0.006284122
-1.318,-0.006391414
-1.319,-0.006492575
-1.32,-0.006596802
-1.321,-0.006710225
-1.322,-0.006823647
-1.323,-0.00693707
-1.324,-0.007056624
-1.325,-0.007182309
-1.326,-0.007307994
-1.327,-0.007436744
-1.328,-0.007574691
-1.329,-0.007709572
-1.33,-0.007850585
-1.331,-0.008003858
-1.332,-0.008154066
-1.333,-0.008304276
-1.334,-0.008463681
-1.335,-0.008629217
-1.336,-0.008794753
-1.337,-0.008969485
-1.338,-0.009144218
-1.339,-0.009312819
-1.34,-0.009505944
-1.341,-0.009689873
-1.342,-0.009876868
-1.343,-0.01007612
-1.344,-0.01027845
-1.345,-0.01048077
-1.346,-0.01068922
-1.347,-0.01089767
-1.348,-0.01110919
-1.349,-0.01133297
-1.35,-0.01156288
-1.351,-0.01178053
-1.352,-0.01201964
-1.353,-0.01225568
-1.354,-0.01248559
-1.355,-0.01273083
-1.356,-0.01297914
-1.357,-0.01322437
-1.358,-0.01348494
-1.359,-0.01374551
-1.36,-0.01400607
-1.361,-0.01427277
-1.362,-0.01454253
-1.363,-0.01481536
-1.364,-0.01508512
-1.365,-0.01536102
-1.366,-0.01563998
-1.367,-0.01591893
-1.368,-0.01620402
-1.369,-0.01648911
-1.37,-0.01677727
-1.371,-0.01706849
-1.372,-0.01736584
-1.373,-0.01766013
-1.374,-0.01796055
-1.375,-0.01826096
-1.376,-0.01856445
-1.377,-0.01888326
-1.378,-0.01919593
-1.379,-0.01950248
-1.38,-0.01982129
-1.381,-0.02013704
-1.382,-0.02045278
-1.383,-0.02077772
-1.384,-0.02109654
-1.385,-0.02141534
-1.386,-0.02172496
-1.387,-0.02205296
-1.388,-0.02238403
-1.389,-0.02270898
-1.39,-0.02304005
-1.391,-0.02337725
-1.392,-0.02370219
-1.393,-0.02403327
-1.394,-0.02437353
-1.395,-0.02471074
-1.396,-0.02505407
-1.397,-0.02539741
-1.398,-0.02573767
-1.399,-0.02607794
-1.4,-0.02642434
-1.401,-0.02676767
-1.402,-0.02710488
-1.403,-0.02746047
-1.404,-0.027813
-1.405,-0.02815021
-1.406,-0.02850887
-1.407,-0.02886753
-1.408,-0.029217
-1.409,-0.02957259
-1.41,-0.02991899
-1.411,-0.03026846
-1.412,-0.03074562
-1.413,-0.03111348
-1.414,-0.03145069
-1.415,-0.03181854
-1.416,-0.0321864
-1.417,-0.03255426
-1.418,-0.03295277
-1.419,-0.03328998
-1.42,-0.03368849
-1.421,-0.03405635
-1.422,-0.03439355
-1.423,-0.03476141
-1.424,-0.03515992
-1.425,-0.03549712
-1.426,-0.03589563
-1.427,-0.03626349
-1.428,-0.03663135
-1.429,-0.03702986
-1.43,-0.03739772
-1.431,-0.03779623
-1.432,-0.03816409
-1.433,-0.03853195
-1.434,-0.03889981
-1.435,-0.03929832
-1.436,-0.03966618
-1.437,-0.04006469
-1.438,-0.04046321
-1.439,-0.04083106
-1.44,-0.04122957
-1.441,-0.04159743
-1.442,-0.04199595
-1.443,-0.04239446
-1.444,-0.04276232
-1.445,-0.04316083
-1.446,-0.04355934
-1.447,-0.0439272
-1.448,-0.04432571
-1.449,-0.04469357
-1.45,-0.04509208
-1.451,-0.0454906
-1.452,-0.04588911
-1.453,-0.04628762
-1.454,-0.04668614
-1.455,-0.04708464
-1.456,-0.04745251
-1.457,-0.04782036
-1.458,-0.04821887
-1.459,-0.04864804
-1.46,-0.0490159
-1.461,-0.04941441
-1.462,-0.04981292
-1.463,-0.05021144
-1.464,-0.05060995
-1.465,-0.05100846
-1.466,-0.05140698
-1.467,-0.05180549
-1.468,-0.052204
-1.469,-0.05263317
-1.47,-0.05300103
-1.471,-0.05339954
-1.472,-0.05379805
-1.473,-0.05419657
-1.474,-0.05459508
-1.475,-0.05499359
-1.476,-0.05542276
-1.477,-0.05582127
-1.478,-0.05621978
-1.479,-0.05664895
-1.48,-0.05704746
-1.481,-0.05744598
-1.482,-0.05784449
-1.483,-0.05821235
-1.484,-0.05864152
-1.485,-0.05904003
-1.486,-0.05943854
-1.487,-0.05986771
-1.488,-0.06023557
-1.489,-0.06063408
-1.49,-0.06106325
-1.491,-0.06146176
-1.492,-0.06186027
-1.493,-0.06228944
-1.494,-0.06268796
-1.495,-0.06308647
-1.496,-0.06348498
-1.497,-0.0639448
-1.498,-0.06431266
-1.499,-0.06474183
-1.5,-0.06486445
-1.499001,-0.06446593
-1.498001,-0.06409808
-1.497001,-0.06369957
-1.496001,-0.0632704
-1.495001,-0.06287188
-1.494001,-0.06247337
-1.493001,-0.0620442
-1.492001,-0.06164569
-1.491001,-0.06124718
-1.490001,-0.06081801
-1.489001,-0.06038884
-1.488001,-0.05999033
-1.487001,-0.05956116
-1.486001,-0.0591933
-1.485001,-0.05876414
-1.484001,-0.05833497
-1.483001,-0.05793646
-1.482001,-0.05750729
-1.481001,-0.05707812
-1.480001,-0.05667961
-1.479001,-0.05625044
-1.478001,-0.05585193
-1.477001,-0.05542276
-1.476001,-0.05502424
-1.475001,-0.05462573
-1.474001,-0.05422722
-1.473001,-0.05379805
-1.472001,-0.05339954
-1.471001,-0.05297038
-1.470001,-0.05257186
-1.469001,-0.05217335
-1.468001,-0.05177484
-1.467001,-0.05137632
-1.466001,-0.05097781
-1.465001,-0.0505793
-1.464001,-0.05018078
-1.463001,-0.04975162
-1.462001,-0.0493531
-1.461001,-0.04898525
-1.460001,-0.04858673
-1.459001,-0.04815757
-1.458001,-0.04775905
-1.457001,-0.04736054
-1.456001,-0.04696203
-1.455001,-0.04656351
-1.454001,-0.04619566
-1.453001,-0.04579714
-1.452001,-0.04539863
-1.451001,-0.04500012
-1.450001,-0.0446016
-1.449001,-0.04423375
-1.448001,-0.04386589
-1.447001,-0.04346738
-1.446001,-0.04306886
-1.445001,-0.04270101
-1.444001,-0.04230249
-1.443001,-0.04193464
-1.442001,-0.04153612
-1.441001,-0.04116827
-1.440001,-0.0408004
-1.439001,-0.04040189
-1.438001,-0.04000338
-1.437001,-0.03963552
-1.436001,-0.03926767
-1.435001,-0.03886915
-1.434001,-0.03850129
-1.433001,-0.03813344
-1.432001,-0.03776558
-1.431001,-0.03736707
-1.430001,-0.03702986
-1.429001,-0.036662
-1.428001,-0.03626349
-1.427001,-0.03592629
-1.426001,-0.03555843
-1.425001,-0.03515992
-1.424001,-0.03482271
-1.423001,-0.03445486
-1.422001,-0.03411765
-1.421001,-0.0337498
-1.420001,-0.03338194
-1.419001,-0.03304474
-1.418001,-0.03267688
-1.417001,-0.03230902
-1.416001,-0.03194116
-1.415001,-0.03160396
-1.414001,-0.0312361
-1.413001,-0.0308989
-1.412001,-0.03056169
-1.411001,-0.03019384
-1.410001,-0.02985664
-1.409001,-0.02951943
-1.408001,-0.02918223
-1.407001,-0.02884503
-1.406001,-0.02850782
-1.405001,-0.02817062
-1.404001,-0.02783342
-1.403001,-0.02746556
-1.402001,-0.02715901
-1.401001,-0.02682181
-1.400001,-0.0264846
-1.399001,-0.0261474
-1.398001,-0.0258102
-1.397001,-0.02547299
-1.396001,-0.02516645
-1.395001,-0.02482924
-1.394001,-0.02452269
-1.393001,-0.02421615
-1.392001,-0.02387894
-1.391001,-0.02357239
-1.390001,-0.02323519
-1.389001,-0.02292864
-1.388001,-0.02262209
-1.387001,-0.02231555
-1.386001,-0.02203965
-1.385001,-0.0217331
-1.384001,-0.02142656
-1.383001,-0.02112001
-1.382001,-0.02081346
-1.381001,-0.02053757
-1.380001,-0.02023102
-1.379001,-0.01995512
-1.378001,-0.01964858
-1.377001,-0.01937268
-1.376001,-0.01906613
-1.375001,-0.01879024
-1.374001,-0.01851435
-1.373001,-0.01823845
-1.372001,-0.01796256
-1.371001,-0.01768667
-1.370001,-0.01741077
-1.369001,-0.01713488
-1.368001,-0.01685899
-1.367001,-0.01661375
-1.366001,-0.01633785
-1.365001,-0.01606196
-1.364001,-0.015922
-1.363001,-0.01567063
-1.362001,-0.01541926
-1.361001,-0.01517096
-1.360001,-0.01493185
-1.359001,-0.01468661
-1.358001,-0.01445057
-1.357001,-0.01422372
-1.356001,-0.01398462
-1.355001,-0.01375777
-1.354001,-0.01353399
-1.353001,-0.01330408
-1.352001,-0.01308643
-1.351001,-0.01287491
-1.350001,-0.01265726
-1.349001,-0.01244268
-1.348001,-0.01223729
-1.347001,-0.01202884
-1.346001,-0.01182652
-1.345001,-0.01162419
-1.344001,-0.01143107
-1.343001,-0.01123181
-1.342001,-0.01103869
-1.341001,-0.01084863
-1.340001,-0.01066163
-1.339001,-0.0104777
-1.338001,-0.01029991
-1.337001,-0.01012211
-1.336001,-0.009950439
-1.335001,-0.009781837
-1.334001,-0.009613236
-1.333001,-0.009450765
-1.332001,-0.009288295
-1.331001,-0.009131956
-1.330001,-0.008975616
-1.329001,-0.008828473
-1.328001,-0.008678264
-1.327001,-0.008531122
-1.326001,-0.008393174
-1.325001,-0.008252162
-1.324001,-0.00811115
-1.323001,-0.0079824
-1.322001,-0.007847519
-1.321001,-0.007721834
-1.320001,-0.007599215
-1.319001,-0.007473529
-1.318001,-0.007353975
-1.317001,-0.007240553
-1.316001,-0.007117934
-1.315001,-0.007007576
-1.314001,-0.006900284
-1.313001,-0.006792993
-1.312001,-0.006685701
-1.311001,-0.006581475
-1.310001,-0.006483379
-1.309001,-0.006379152
-1.308001,-0.006284122
-1.307001,-0.006195223
-1.306001,-0.006097128
-1.305001,-0.00601436
-1.304001,-0.005928526
-1.303001,-0.005839627
-1.302001,-0.005759925
-1.301001,-0.005683288
-1.300001,-0.005597454
-1.299001,-0.005523883
-1.298001,-0.005453377
-1.297001,-0.005376739
-1.296001,-0.005306234
-1.295001,-0.005241858
-1.294001,-0.005168287
-1.293001,-0.005106977
-1.292001,-0.005042602
-1.291001,-0.004981292
-1.290001,-0.004919983
-1.289001,-0.004861739
-1.288001,-0.004803495
-1.287001,-0.004748316
-1.286001,-0.004693137
-1.285001,-0.004641024
-1.284001,-0.004585845
-1.283001,-0.004539863
-1.282001,-0.004490815
-1.281001,-0.004441767
-1.280001,-0.004398851
-1.279001,-0.004352869
-1.278001,-0.00430382
-1.277001,-0.00426397
-1.276001,-0.004221053
-1.275001,-0.004181202
-1.274001,-0.00414135
-1.273001,-0.004104564
-1.272001,-0.004061648
-1.271001,-0.004021796
-1.270001,-0.003988076
-1.269001,-0.00395129
-1.268001,-0.003914505
-1.267001,-0.00388385
-1.266001,-0.003843998
-1.265001,-0.003816409
-1.264001,-0.00378882
-1.263001,-0.003748968
-1.262001,-0.003721379
-1.261001,-0.003690724
-1.260001,-0.003660069
-1.259001,-0.003629415
-1.258001,-0.003604891
-1.257001,-0.003574236
-1.256001,-0.003546647
-1.255001,-0.003525188
-1.254001,-0.003494533
-1.253001,-0.003470009
-1.252001,-0.003439354
-1.251001,-0.003417896
-1.250001,-0.003393373
-1.249001,-0.003371914
-1.248001,-0.003344325
-1.247001,-0.003325932
-1.246001,-0.003301408
-1.245001,-0.00327995
-1.244001,-0.003255426
-1.243001,-0.003233967
-1.242001,-0.003209443
-1.241001,-0.003194116
-1.240001,-0.003172658
-1.239001,-0.003151199
-1.238001,-0.003129741
-1.237001,-0.003114413
-1.236001,-0.003089889
-1.235001,-0.003074562
-1.234001,-0.003056169
-1.233001,-0.003034711
-1.232001,-0.003016318
-1.231001,-0.003000991
-1.230001,-0.002976467
-1.229001,-0.002964205
-1.228001,-0.002948877
-1.227001,-0.002927419
-1.226001,-0.002912092
-1.225001,-0.002896764
-1.224001,-0.002878371
-1.223001,-0.002863044
-1.222001,-0.002847716
-1.221001,-0.002829324
-1.220001,-0.002813996
-1.219001,-0.002801734
-1.218001,-0.002783341
-1.217001,-0.002768014
-1.216001,-0.002752687
-1.215001,-0.002740425
-1.214001,-0.002725097
-1.213001,-0.002712835
-1.212001,-0.002694442
-1.211001,-0.002679115
-1.210001,-0.002669919
-1.209001,-0.002651526
-1.208001,-0.002636198
-1.207001,-0.002630068
-1.206001,-0.00261474
-1.205001,-0.002599412
-1.204001,-0.002590216
-1.203001,-0.002577954
-1.202001,-0.002559561
-1.201001,-0.002550365
-1.200001,-0.002535037
-1.199001,-0.00251971
-1.198001,-0.002513579
-1.197001,-0.002498251
-1.196001,-0.002482924
-1.195001,-0.002476793
-1.194001,-0.002464531
-1.193001,-0.002449204
-1.192001,-0.002443073
-1.191001,-0.002427745
-1.190001,-0.002415484
-1.189001,-0.002409352
-1.188001,-0.002397091
-1.187001,-0.002381763
-1.186001,-0.002375632
-1.185001,-0.002366436
-1.184001,-0.002348043
-1.183001,-0.002341912
-1.182001,-0.00232965
-1.181001,-0.002317388
-1.180001,-0.002308191
-1.179001,-0.002302061
-1.178001,-0.002289799
-1.177001,-0.002277537
-1.176001,-0.002274471
-1.175001,-0.002259144
-1.174001,-0.002249948
-1.173001,-0.002243817
-1.172001,-0.002228489
-1.171001,-0.002222358
-1.170001,-0.002216227
-1.169001,-0.002197834
-1.168001,-0.002194769
-1.167001,-0.002185572
-1.166001,-0.00217331
-1.165001,-0.002170245
-1.164001,-0.002157983
-1.163001,-0.002145721
-1.162001,-0.002142655
-1.161001,-0.002133459
-1.160001,-0.002121197
-1.159001,-0.002112001
-1.158001,-0.00210587
-1.157001,-0.002096673
-1.156001,-0.002090542
-1.155001,-0.002081346
-1.154001,-0.002069084
-1.153001,-0.002062953
-1.152001,-0.002056822
-1.151001,-0.00204456
-1.150001,-0.002035364
-1.149001,-0.002032298
-1.148001,-0.002020036
-1.147001,-0.002013905
-1.146001,-0.002007774
-1.145001,-0.001995512
-1.144001,-0.001989381
-1.143001,-0.001986316
-1.142001,-0.001970988
-1.141001,-0.001967923
-1.140001,-0.001958727
-1.139001,-0.001946465
-1.138001,-0.001943399
-1.137001,-0.001937268
-1.136001,-0.001925006
-1.135001,-0.001918875
-1.134001,-0.001912744
-1.133001,-0.001903548
-1.132001,-0.001900482
-1.131001,-0.001894351
-1.130001,-0.00188209
-1.129001,-0.001875959
-1.128001,-0.001872893
-1.127001,-0.001863697
-1.126001,-0.0018545
-1.125001,-0.001851435
-1.124001,-0.001842238
-1.123001,-0.001833042
-1.122001,-0.001829976
-1.121001,-0.00182078
-1.120001,-0.001814649
-1.119001,-0.001808518
-1.118001,-0.001799321
-1.117001,-0.001790125
-1.116001,-0.00178706
-1.115001,-0.001777863
-1.114001,-0.001768667
-1.113001,-0.001762536
-1.112001,-0.00175947
-1.111001,-0.001750274
-1.110001,-0.001744143
-1.109001,-0.001734946
-1.108001,-0.00172575
-1.107001,-0.001719619
-1.106001,-0.001716554
-1.105001,-0.001707357
-1.104001,-0.001698161
-1.103001,-0.001695095
-1.102001,-0.001682833
-1.101001,-0.001679768
-1.100001,-0.001670571
-1.099001,-0.00166444
-1.098001,-0.001655244
-1.097001,-0.001649113
-1.096001,-0.001642982
-1.095001,-0.001636851
-1.094001,-0.00163072
-1.093001,-0.001621523
-1.092001,-0.001615393
-1.091001,-0.001612327
-1.090001,-0.00163481
-1.089001,-0.001630519
-1.088001,-0.001625614
-1.087001,-0.001614885
-1.086001,-0.001608754
-1.085001,-0.001604462
-1.084001,-0.001592813
-1.083001,-0.001588522
-1.082001,-0.00158331
-1.081001,-0.001573807
-1.080001,-0.00156645
-1.079001,-0.001561852
-1.078001,-0.001554801
-1.077001,-0.001546524
-1.076001,-0.001541313
-1.075001,-0.001533649
-1.074001,-0.001525679
-1.073001,-0.001520468
-1.072001,-0.00151403
-1.071001,-0.001505753
-1.070001,-0.001501155
-1.069001,-0.001494718
-1.068001,-0.001485828
-1.067001,-0.001481536
-1.066001,-0.001473566
-1.065001,-0.001464369
-1.064001,-0.00146253
-1.063001,-0.001454253
-1.062001,-0.001444444
-1.061001,-0.001442605
-1.060001,-0.001434941
-1.059001,-0.001426971
-1.058001,-0.001425131
-1.057001,-0.001417774
-1.056001,-0.001407045
-1.055001,-0.001402753
-1.054001,-0.001396622
-1.053001,-0.001388652
-1.052001,-0.001383134
-1.051001,-0.001379149
-1.050001,-0.001370872
-1.049001,-0.001365354
-1.048001,-0.00136045
-1.047001,-0.001351866
-1.046001,-0.001346348
-1.045001,-0.001342057
-1.044001,-0.001334393
-1.043001,-0.001327342
-1.042001,-0.001321825
-1.041001,-0.001316
-1.040001,-0.001309256
-1.039001,-0.001304351
-1.038001,-0.00129914
-1.037001,-0.00129117
-1.036001,-0.001284426
-1.035001,-0.001281054
-1.034001,-0.001273083
-1.033001,-0.001267259
-1.032001,-0.001263274
-1.031001,-0.001255304
-1.030001,-0.001249173
-1.029001,-0.001244574
-1.028001,-0.001237217
-1.027001,-0.001232006
-1.026001,-0.001226488
-1.025001,-0.001220357
-1.024001,-0.001216065
-1.023001,-0.001209934
-1.022001,-0.001200125
-1.021001,-0.001199205
-1.020001,-0.001190622
-1.019001,-0.001184184
-1.018001,-0.001180812
-1.017001,-0.001174375
-1.016001,-0.001166098
-1.015001,-0.001163952
-1.014001,-0.001156595
-1.013001,-0.001148931
-1.012001,-0.001145253
-1.011001,-0.001138815
-1.010001,-0.001132991
-1.009001,-0.001127473
-1.008001,-0.001125327
-1.007001,-0.001115824
-1.006001,-0.001108467
-1.005001,-0.001106934
-1.004001,-0.001096511
-1.003001,-0.001094366
-1.002001,-0.001091607
-1.001001,-0.001080571
-1.000001,-0.001079038
-0.9990007,-0.001074747
-0.9980007,-0.00106555
-0.9970006,-0.001063404
-0.9960006,-0.001057273
-0.9950007,-0.001046851
-0.9940007,-0.001046544
-0.9930006,-0.001040413
-0.9920006,-0.001032443
-0.9910007,-0.001028458
-0.9900007,-0.001023247
-0.9890007,-0.001017116
-0.9880006,-0.001010371
-0.9870006,-0.001006386
-0.9860007,-0.0009987226
-0.9850007,-0.0009938178
-0.9840007,-0.0009916719
-0.9830006,-0.0009812494
-0.9820006,-0.0009791035
-0.9810007,-0.0009754249
-0.9800007,-0.0009656154
-0.9790006,-0.0009616303
-0.9780006,-0.0009576452
-0.9770007,-0.0009487552
-0.9760007,-0.0009450766
-0.9750007,-0.0009413981
-0.9740006,-0.0009331212
-0.9730006,-0.0009269903
-0.9720007,-0.0009226986
-0.9710007,-0.0009159546
-0.9700007,-0.0009098236
-0.9690006,-0.0009067581
-0.9680007,-0.000899401
-0.9670007,-0.0008929634
-0.9660007,-0.0008908176
-0.9650006,-0.0008816211
-0.9640006,-0.0008767164
-0.9630007,-0.0008727313
-0.9620007,-0.0008662938
-0.9610007,-0.0008592432
-0.9600006,-0.0008555645
-0.9590006,-0.0008488205
-0.9580007,-0.000842383
-0.9570007,-0.0008380913
-0.9560006,-0.0008313472
-0.9550006,-0.0008249097
-0.9540007,-0.0008206181
-0.9530007,-0.0008151002
-0.9520007,-0.0008077431
-0.9510006,-0.0008034513
-0.9500006,-0.0007970139
-0.9490007,-0.0007908829
-0.9480007,-0.0007856716
-0.9470007,-0.000782606
-0.9460006,-0.00077249
-0.9450006,-0.0007685049
-0.9440007,-0.0007623739
-0.9430007,-0.0007556298
-0.9420006,-0.0007510316
-0.9410006,-0.0007455137
-0.9400007,-0.0007393828
-0.9390007,-0.0007341714
-0.9380007,-0.000728347
-0.9370006,-0.0007216029
-0.9360006,-0.0007163917
-0.9350007,-0.0007102606
-0.9340007,-0.0007050494
-0.9330007,-0.0007004511
-0.9320006,-0.0006949333
-0.9310006,-0.0006872696
-0.9300007,-0.0006829779
-0.9290007,-0.0006768469
-0.9280006,-0.0006694898
-0.9270006,-0.0006642784
-0.9260007,-0.0006596802
-0.9250007,-0.0006532427
-0.9240007,-0.0006471117
-0.9230006,-0.00064282
-0.9220006,-0.0006363826
-0.9210007,-0.0006296384
-0.9200007,-0.0006256534
-0.9190007,-0.0006198289
-0.9180006,-0.0006130849
-0.9170007,-0.0006090997
-0.9160007,-0.0006035819
-0.9150007,-0.0005971444
-0.9140006,-0.0005922396
-0.9130006,-0.0005867218
-0.9120007,-0.0005796711
-0.9110007,-0.0005753795
-0.9100007,-0.0005707812
-0.9090006,-0.000562811
-0.9080006,-0.0005572931
-0.9070007,-0.0005539211
-0.9060007,-0.0005456443
-0.9050006,-0.0005395133
-0.9040006,-0.0005355282
-0.9030007,-0.0005269448
-0.9020007,-0.0005217335
-0.9010007,-0.0005177484
-0.9000006,-0.000509165
-0.8990006,-0.0005042602
-0.8980007,-0.0004999685
-0.8970007,-0.000492918
-0.8960007,-0.0004861739
-0.8950006,-0.0004815757
-0.8940006,-0.0004763643
-0.8930007,-0.0004705399
-0.8920007,-0.0004619566
-0.8910006,-0.0004567453
-0.8900006,-0.0004515339
-0.8890007,-0.0004450964
-0.8880007,-0.0004377393
-0.8870007,-0.0004337541
-0.8860006,-0.0004270101
-0.8850006,-0.0004208791
-0.8840007,-0.0004135219
-0.8830007,-0.0004080041
-0.8820007,-0.0004021796
-0.8810006,-0.0003957421
-0.8800007,-0.0003889981
-0.8790007,-0.0003834802
-0.8780007,-0.0003758165
-0.8770006,-0.0003696856
-0.8760006,-0.0003635546
-0.8750007,-0.000356504
-0.8740007,-0.0003506796
-0.8730007,-0.000344242
-0.8720006,-0.0003365783
-0.8710006,-0.000331367
-0.8700007,-0.0003243164
-0.8690007,-0.0003163462
-0.8680006,-0.0003108283
-0.8670006,-0.0003046973
-0.8660007,-0.0002973401
-0.8650007,-0.0002905961
-0.8640007,-0.0002847717
-0.8630006,-0.0002774145
-0.8620006,-0.0002697508
-0.8610007,-0.0002642329
-0.8600007,-0.0002559561
-0.8590007,-0.0002482924
-0.8580006,-0.000242468
-0.8570006,-0.0002341912
-0.8560007,-0.0002271406
-0.8550007,-0.0002210096
-0.8540006,-0.0002127328
-0.8530006,-0.0002050691
-0.8520007,-0.0001986316
-0.8510007,-0.0001909679
-0.8500007,-0.0001826911
-0.8490006,-0.000175947
-0.8480006,-0.0001698161
-0.8470007,-0.0001593934
-0.8460007,-0.0001526494
-0.8450007,-0.0001462119
-0.8440006,-0.0001387119
-0.8430007,-0.0001331021
-0.8420007,-0.0001259289
-0.8410007,-0.0001165485
-0.8400006,-0.0001094672
-0.8390006,-0.0001021714
-0.8380007,-9.328147E-05
-0.8370007,-8.555645E-05
-0.8360007,-7.761685E-05
-0.8350006,-7.022904E-05
-0.8340006,-6.063408E-05
-0.8330007,-5.333823E-05
-0.8320007,-4.579714E-05
-0.8310006,-3.696855E-05
-0.8300006,-2.976467E-05
-0.8290007,-2.075215E-05
-0.8280007,-1.149439E-05
-0.8270007,-5.792594E-06
-0.8260006,4.78332E-06
-0.8250006,1.266161E-05
-0.8240007,1.937502E-05
-0.8230007,2.973635E-05
-0.8220007,3.626582E-05
-0.8210006,4.475721E-05
-0.8200006,5.493462E-05
-0.8190007,6.336469E-05
-0.8180007,7.115101E-05
-0.8170006,8.037812E-05
-0.8160006,8.908409E-05
-0.8150007,9.683976E-05
-0.8140007,0.0001053618
-0.8130007,0.0001136386
-0.8120006,0.000121149
-0.8110006,0.0001310505
-0.8100007,0.0001381931
-0.8090007,0.0001459181
-0.8080007,0.0001554824
-0.8070006,0.0001638512
-0.8060006,0.0001714843
-0.8050007,0.0001793932
-0.8040007,0.000188651
-0.8030006,0.0001966825
-0.8020006,0.0002050206
-0.8010007,0.0002140332
-0.8000007,0.0001666101
-0.8009993,9.938411E-05
-0.8019994,5.557837E-05
-0.8029994,1.750507E-05
-0.8039994,-1.750274E-05
-0.8049994,-4.791233E-05
-0.8059993,-7.743292E-05
-0.8069994,-0.0001025392
-0.8079994,-0.0001281973
-0.8089994,-0.0001529051
-0.8099993,-0.0001744248
-0.8109994,-0.0001955153
-0.8119994,-0.0002176174
-0.8129994,-0.0002363782
-0.8139994,-0.0002554148
-0.8149993,-0.0002741143
-0.8159994,-0.000291281
-0.8169994,-0.0003059235
-0.8179994,-0.0003221706
-0.8189994,-0.0003396438
-0.8199994,-0.0003552778
-0.8209994,-0.0003702986
-0.8219994,-0.0003856261
-0.8229994,-0.0003988076
-0.8239993,-0.0004132154
-0.8249994,-0.0004279297
-0.8259994,-0.0004398851
-0.8269994,-0.0004542929
-0.8279994,-0.0004683941
-0.8289993,-0.0004794298
-0.8299994,-0.000492918
-0.8309994,-0.0005067126
-0.8319994,-0.0005171353
-0.8329993,-0.0005287841
-0.8339994,-0.0005419657
-0.8349994,-0.0005526949
-0.8359994,-0.0005640372
-0.8369994,-0.0005753795
-0.8379993,-0.0005873349
-0.8389994,-0.0005974509
-0.8399994,-0.0006081801
-0.8409994,-0.0006201355
-0.8419994,-0.0006290254
-0.8429993,-0.000639448
-0.8439994,-0.0006514034
-0.8449994,-0.0006593736
-0.8459994,-0.0006704094
-0.8469993,-0.0006811386
-0.8479994,-0.0006894154
-0.8489994,-0.0006989184
-0.8499994,-0.000709341
-0.8509994,-0.0007179244
-0.8519993,-0.000728347
-0.8529994,-0.0007390762
-0.8539994,-0.0007455137
-0.8549994,-0.000756856
-0.8559994,-0.0007666656
-0.8569994,-0.0007734096
-0.8579994,-0.0007832192
-0.8589994,-0.0007924156
-0.8599994,-0.0008000793
-0.8609993,-0.0008095824
-0.8619994,-0.0008187788
-0.8629994,-0.0008270555
-0.8639994,-0.0008347193
-0.8649994,-0.0008439157
-0.8659993,-0.0008531122
-0.8669994,-0.0008592432
-0.8679994,-0.0008696658
-0.8689994,-0.000877023
-0.8699993,-0.000883767
-0.8709994,-0.0008954158
-0.8719994,-0.0009003207
-0.8729994,-0.0009092105
-0.8739994,-0.0009199397
-0.8749993,-0.0009248445
-0.8759994,-0.0009334278
-0.8769994,-0.0009429308
-0.8779994,-0.0009487552
-0.8789994,-0.000957032
-0.8799993,-0.0009653088
-0.8809994,-0.0009732791
-0.8819994,-0.0009797165
-0.8829994,-0.0009892196
-0.8839993,-0.0009968834
-0.8849994,-0.001002401
-0.8859994,-0.001011291
-0.8869994,-0.001019261
-0.8879994,-0.001025086
-0.8889993,-0.001034282
-0.8899994,-0.001041946
-0.8909994,-0.001046851
-0.8919994,-0.001056354
-0.8929994,-0.001063098
-0.8939994,-0.001068922
-0.8949994,-0.001076892
-0.8959994,-0.001084556
-0.8969994,-0.001090994
-0.8979993,-0.001098044
-0.8989994,-0.001106628
-0.8999994,-0.001111839
-0.9009994,-0.001118583
-0.9019994,-0.00112686
-0.9029993,-0.001132991
-0.9039994,-0.001138509
-0.9049994,-0.001148625
-0.9059994,-0.001153836
-0.9069993,-0.001159661
-0.9079994,-0.001167324
-0.9089994,-0.001174068
-0.9099994,-0.001179586
-0.9109994,-0.001187556
-0.9119993,-0.001193994
-0.9129994,-0.001199205
-0.9139994,-0.001206256
-0.9149994,-0.001213613
-0.9159994,-0.001218824
-0.9169993,-0.001225875
-0.9179994,-0.001232006
-0.9189994,-0.00123875
-0.9199994,-0.001243348
-0.9209993,-0.001250092
-0.9219994,-0.001257756
-0.9229994,-0.001262048
-0.9239994,-0.001270018
-0.9249994,-0.001276149
-0.9259993,-0.001281054
-0.9269994,-0.001287798
-0.9279994,-0.001293929
-0.9289994,-0.001298527
-0.9299994,-0.001305577
-0.9309993,-0.001312628
-0.9319994,-0.001318759
-0.9329994,-0.001324277
-0.9339994,-0.001330101
-0.9349993,-0.00133378
-0.9359994,-0.001342057
-0.9369994,-0.001347268
-0.9379994,-0.001350947
-0.9389994,-0.001359223
-0.9399993,-0.001365967
-0.9409994,-0.001368113
-0.9419994,-0.00137731
-0.9429994,-0.001382215
-0.9439994,-0.001384974
-0.9449994,-0.001395396
-0.9459994,-0.001400914
-0.9469994,-0.001403366
-0.9479994,-0.001411643
-0.9489993,-0.001418081
-0.9499994,-0.001420533
-0.9509994,-0.001426971
-0.9519994,-0.001434328
-0.9529994,-0.001438619
-0.9539993,-0.001442298
-0.9549994,-0.001451495
-0.9559994,-0.001454866
-0.9569994,-0.001461611
-0.9579993,-0.001467435
-0.9589994,-0.001468968
-0.9599994,-0.001477858
-0.9609994,-0.001483069
-0.9619994,-0.001486441
-0.9629993,-0.001493798
-0.9639994,-0.001500236
-0.9649994,-0.001502382
-0.9659994,-0.001512498
-0.9669994,-0.001517096
-0.9679993,-0.001520161
-0.9689994,-0.001528438
-0.9699994,-0.001533036
-0.9709994,-0.001535795
-0.9719993,-0.001545298
-0.9729994,-0.001549896
-0.9739994,-0.001553575
-0.9749994,-0.001560932
-0.9759994,-0.001566143
-0.9769993,-0.001570435
-0.9779994,-0.00157626
-0.9789994,-0.001582084
-0.9799994,-0.001586989
-0.9809994,-0.001591281
-0.9819994,-0.001598025
-0.9829994,-0.001602623
-0.9839994,-0.001607528
-0.9849994,-0.001614578
-0.9859993,-0.001618563
-0.9869994,-0.001622548
-0.9879994,-0.001629906
-0.9889994,-0.001635117
-0.9899994,-0.001639715
-0.9909993,-0.00164554
-0.9919994,-0.001650751
-0.9929994,-0.001655656
-0.9939994,-0.001661787
-0.9949993,-0.001668837
-0.9959994,-0.001671903
-0.9969994,-0.001676194
-0.9979994,-0.001685084
-0.9989994,-0.001687843
-0.9999993,-0.001694894
-1.000999,-0.001704703
-1.001999,-0.001703477
-1.002999,-0.001713593
-1.003999,-0.001718498
-1.004999,-0.001722483
-1.005999,-0.001729534
-1.006999,-0.001736584
-1.007999,-0.001739343
-1.008999,-0.00174762
-1.009999,-0.001751912
-1.010999,-0.001756203
-1.011999,-0.001764787
-1.012999,-0.001768772
-1.013999,-0.00177429
-1.014999,-0.001781647
-1.015999,-0.001786858
-1.016999,-0.001791763
-1.017999,-0.001799427
-1.018999,-0.001804638
-1.019999,-0.001809236
-1.020999,-0.001816287
-1.021999,-0.001822418
-1.022999,-0.001827629
-1.023999,-0.001834373
-1.024999,-0.001841117
-1.025999,-0.001844796
-1.026999,-0.00185246
-1.027999,-0.00185951
-1.028999,-0.001862882
-1.029999,-0.00186932
-1.030999,-0.001875144
-1.031999,-0.001881888
-1.032999,-0.0018871
-1.033999,-0.001894763
-1.034999,-0.001898135
-1.035999,-0.001903347
-1.036999,-0.001913463
-1.037999,-0.001916835
-1.038999,-0.001923272
-1.039999,-0.001932775
-1.040999,-0.001934001
-1.041999,-0.001943198
-1.042999,-0.001951475
-1.043999,-0.001953927
-1.044999,-0.001962204
-1.045999,-0.001969255
-1.046999,-0.0019714
-1.047999,-0.001979984
-1.048999,-0.001987954
-1.049999,-0.001991326
-1.050999,-0.001999909
-1.051999,-0.00200788
-1.052999,-0.002009719
-1.053999,-0.002016463
-1.054999,-0.002026885
-1.055999,-0.002025659
-1.056999,-0.002036082
-1.057999,-0.002047118
-1.058999,-0.002048957
-1.059999,-0.002056621
-1.060999,-0.002067656
-1.061999,-0.002067963
-1.062999,-0.002077466
-1.063999,-0.002086049
-1.064999,-0.002086049
-1.065999,-0.002095859
-1.066999,-0.002105362
-1.067999,-0.002107814
-1.068999,-0.002113026
-1.069999,-0.002122222
-1.070999,-0.002127127
-1.071999,-0.002132338
-1.072999,-0.002141841
-1.073999,-0.002144907
-1.074999,-0.002150424
-1.075999,-0.00216238
-1.076999,-0.002166058
-1.077999,-0.002173109
-1.078999,-0.002182918
-1.079999,-0.002183532
-1.080999,-0.002193954
-1.081999,-0.002202844
-1.082999,-0.002205603
-1.083999,-0.002213267
-1.084999,-0.002224609
-1.085999,-0.002227981
-1.086999,-0.002233806
-1.087999,-0.002242696
-1.088999,-0.002246987
-1.089999,-0.002253731
-1.090999,-0.002262928
-1.091999,-0.002269058
-1.092999,-0.002274577
-1.093999,-0.002283467
-1.094999,-0.002293276
-1.095999,-0.002295115
-1.096999,-0.002304925
-1.097999,-0.002313202
-1.098999,-0.00231688
-1.099999,-0.002328836
-1.100999,-0.002336193
-1.101999,-0.002338645
-1.102999,-0.002351213
-1.103999,-0.002356425
-1.104999,-0.002360716
-1.105999,-0.002372672
-1.106999,-0.00237727
-1.107999,-0.002384934
-1.108999,-0.002393517
-1.109999,-0.002399035
-1.110999,-0.002403327
-1.111999,-0.002413136
-1.112999,-0.002420187
-1.113999,-0.002423252
-1.114999,-0.002428464
-1.115999,-0.002437967
-1.116999,-0.002443485
-1.117999,-0.002448389
-1.118999,-0.00245544
-1.119999,-0.00245544
-1.120999,-0.002464023
-1.121999,-0.002468622
-1.122999,-0.002470767
-1.123999,-0.002478125
-1.124999,-0.002481803
-1.125999,-0.002484255
-1.126999,-0.002493145
-1.127999,-0.002492839
-1.128999,-0.002494371
-1.129999,-0.002504488
-1.130999,-0.00250602
-1.131999,-0.002505407
-1.132999,-0.00251491
-1.133999,-0.002516137
-1.134999,-0.002517363
-1.135999,-0.002523494
-1.136999,-0.002527479
-1.137999,-0.002527172
-1.138999,-0.002532997
-1.139999,-0.002536369
-1.140999,-0.002537288
-1.141999,-0.002540354
-1.142999,-0.002544952
-1.143999,-0.002546791
-1.144999,-0.002547404
-1.145999,-0.002555988
-1.146999,-0.002558134
-1.147999,-0.002555681
-1.148999,-0.002567024
-1.149999,-0.002564571
-1.150999,-0.002570396
-1.151999,-0.00257714
-1.152999,-0.002574074
-1.153999,-0.002578979
-1.154999,-0.002587869
-1.155999,-0.002587562
-1.156999,-0.002591547
-1.157999,-0.002599211
-1.158999,-0.002599824
-1.159999,-0.002604422
-1.160999,-0.002613619
-1.161999,-0.002617604
-1.162999,-0.002617297
-1.163999,-0.002630172
-1.164999,-0.002630786
-1.165999,-0.00263753
-1.166999,-0.002645193
-1.167999,-0.0026455
-1.168999,-0.002651937
-1.169999,-0.00266328
-1.170999,-0.00266328
-1.171999,-0.002669411
-1.172999,-0.002677687
-1.173999,-0.002678914
-1.174999,-0.00268719
-1.175999,-0.002693015
-1.176999,-0.002703131
-1.177999,-0.002707729
-1.178999,-0.00271478
-1.179999,-0.002721831
-1.180999,-0.002726122
-1.181999,-0.00273256
-1.182999,-0.002742369
-1.183999,-0.002745741
-1.184999,-0.002753711
-1.185999,-0.002764441
-1.186999,-0.002767506
-1.187999,-0.002776396
-1.188999,-0.002786205
-1.189999,-0.002790191
-1.190999,-0.002799694
-1.191999,-0.00280889
-1.192999,-0.002815021
-1.193999,-0.002823911
-1.194999,-0.00283464
-1.195999,-0.002841997
-1.196999,-0.002851807
-1.197999,-0.002864682
-1.198999,-0.00286836
-1.199999,-0.002883075
-1.200999,-0.002893804
-1.201999,-0.002900548
-1.202999,-0.002913423
-1.203999,-0.002925379
-1.204999,-0.002933655
-1.205999,-0.002944691
-1.206999,-0.002957566
-1.207999,-0.002967069
-1.208999,-0.002978105
-1.209999,-0.002991593
-1.210999,-0.003002935
-1.211999,-0.002979532
-1.212999,-0.002991794
-1.213999,-0.003004056
-1.214999,-0.003013253
-1.215999,-0.00302858
-1.216999,-0.003040842
-1.217999,-0.003053104
-1.218999,-0.003068431
-1.219999,-0.003083759
-1.220999,-0.003092955
-1.221999,-0.003111348
-1.222999,-0.00312361
-1.223999,-0.003132806
-1.224999,-0.003154265
-1.225999,-0.003166527
-1.226999,-0.003178789
-1.227999,-0.003197182
-1.228999,-0.003215575
-1.229999,-0.003224771
-1.230999,-0.003243164
-1.231999,-0.003258491
-1.232999,-0.003273819
-1.233999,-0.003289146
-1.234999,-0.003310604
-1.235999,-0.003325932
-1.236999,-0.003344325
-1.237999,-0.003362718
-1.238999,-0.003374979
-1.239999,-0.003396438
-1.240999,-0.003414831
-1.241999,-0.003430158
-1.242999,-0.003448551
-1.243999,-0.003470009
-1.244999,-0.003482271
-1.245999,-0.003509861
-1.246999,-0.003528254
-1.247999,-0.003543581
-1.248999,-0.00357117
-1.249999,-0.003592629
-1.250999,-0.003604891
-1.251999,-0.003635545
-1.252999,-0.003660069
-1.253999,-0.003675397
-1.254999,-0.003702986
-1.255999,-0.00372751
-1.256999,-0.003748968
-1.257999,-0.003776558
-1.258999,-0.003801082
-1.259999,-0.003828671
-1.260999,-0.003853195
-1.261999,-0.00388385
-1.262999,-0.003908373
-1.263999,-0.003935963
-1.264999,-0.003966617
-1.265999,-0.003994207
-1.266999,-0.004027927
-1.267999,-0.004061648
-1.268999,-0.004089237
-1.269999,-0.004126023
-1.270999,-0.004159743
-1.271999,-0.004193463
-1.272999,-0.004230249
-1.273999,-0.004270101
-1.274999,-0.00430382
-1.275999,-0.004343672
-1.276999,-0.004383523
-1.277999,-0.00442644
-1.278999,-0.004466291
-1.279999,-0.004512274
-1.280999,-0.004552125
-1.281999,-0.004604238
-1.282999,-0.00465022
-1.283999,-0.004696202
-1.284999,-0.004748316
-1.285999,-0.004803495
-1.286999,-0.004852542
-1.287999,-0.004910786
-1.288999,-0.004972096
-1.289999,-0.005024209
-1.290999,-0.005088584
-1.291999,-0.005152959
-1.292999,-0.005211203
-1.293999,-0.00528171
-1.294999,-0.005352216
-1.295999,-0.005416591
-1.296999,-0.005490162
-1.297999,-0.005569865
-1.298999,-0.005646502
-1.299999,-0.005723139
-1.300999,-0.005808973
-1.301999,-0.005891741
-1.302999,-0.005977574
-1.303999,-0.006069539
-1.304999,-0.006164568
-1.305999,-0.006259599
-1.306999,-0.006357694
-1.307999,-0.006461921
-1.308999,-0.006563081
-1.309999,-0.006676504
-1.310999,-0.006786862
-1.311999,-0.006897219
-1.312999,-0.007019838
-1.313999,-0.007136327
-1.314999,-0.007262012
-1.315999,-0.007393827
-1.316999,-0.007522577
-1.317999,-0.007657459
-1.318999,-0.007798471
-1.319999,-0.007936417
-1.320999,-0.008089691
-1.321999,-0.008239901
-1.322999,-0.00839624
-1.323999,-0.008549514
-1.324999,-0.008724246
-1.325999,-0.008889783
-1.326999,-0.009058384
-1.327999,-0.009236182
-1.328999,-0.009410915
-1.329999,-0.009591779
-1.330999,-0.009784903
-1.331999,-0.009978029
-1.332999,-0.01016809
-1.333999,-0.01036735
-1.334999,-0.01057273
-1.335999,-0.01077812
-1.336999,-0.01098964
-1.337999,-0.01120729
-1.338999,-0.01142494
-1.339999,-0.01164565
-1.340999,-0.01187863
-1.341999,-0.01210241
-1.342999,-0.01232926
-1.343999,-0.01257756
-1.344999,-0.01280747
-1.345999,-0.01305271
-1.346999,-0.01331327
-1.347999,-0.01355545
-1.348999,-0.01380988
-1.349999,-0.01407658
-1.350999,-0.01433101
-1.351999,-0.01459158
-1.352999,-0.01486747
-1.353999,-0.01513417
-1.354999,-0.01540393
-1.355999,-0.01568596
-1.356999,-0.01595879
-1.357999,-0.01623775
-1.358999,-0.0165259
-1.359999,-0.01680792
-1.360999,-0.01708995
-1.361999,-0.01738117
-1.362999,-0.01767546
-1.363999,-0.01796974
-1.364999,-0.01827016
-1.365999,-0.01857671
-1.366999,-0.01887713
-1.367999,-0.0191898
-1.368999,-0.01950248
-1.369999,-0.0198121
-1.370999,-0.02012171
-1.371999,-0.02043132
-1.372999,-0.0207532
-1.373999,-0.02107201
-1.374999,-0.02140308
-1.375999,-0.02172189
-1.376999,-0.0220407
-1.377999,-0.02237177
-1.378999,-0.02269978
-1.379999,-0.02303698
-1.380999,-0.02337725
-1.381999,-0.02371139
-1.382999,-0.02404553
-1.383999,-0.02437967
-1.384999,-0.0247138
-1.385999,-0.02503568
-1.386999,-0.02538821
-1.387999,-0.02573154
-1.388999,-0.02606568
-1.389999,-0.02642128
-1.390999,-0.02676461
-1.391999,-0.02709875
-1.392999,-0.02745434
-1.393999,-0.02780381
-1.394999,-0.02814714
-1.395999,-0.028515
-1.396999,-0.0288706
-1.397999,-0.02922313
-1.398999,-0.02958179
-1.399999,-0.02994045
-1.400999,-0.03028685
-1.401999,-0.03074562
-1.402999,-0.03111348
-1.403999,-0.03145069
-1.404999,-0.03181854
-1.405999,-0.0321864
-1.406999,-0.03255426
-1.407999,-0.03295277
-1.408999,-0.03332063
-1.409999,-0.03368849
-1.410999,-0.03405635
-1.411999,-0.0344242
-1.412999,-0.03479206
-1.413999,-0.03519057
-1.414999,-0.03555843
-1.415999,-0.03592629
-1.416999,-0.0363248
-1.417999,-0.03669266
-1.418999,-0.03709117
-1.419999,-0.03745903
-1.420999,-0.03785754
-1.421999,-0.0382254
-1.422999,-0.03859326
-1.423999,-0.03896112
-1.424999,-0.03935963
-1.425999,-0.03972749
-1.426999,-0.040126
-1.427999,-0.04052451
-1.428999,-0.04089237
-1.429999,-0.04129088
-1.430999,-0.0416894
-1.431999,-0.04208791
-1.432999,-0.04245577
-1.433999,-0.04285428
-1.434999,-0.04325279
-1.435999,-0.04365131
-1.436999,-0.04401916
-1.437999,-0.04438702
-1.438999,-0.04481619
-1.439999,-0.04518405
-1.440999,-0.04558256
-1.441999,-0.04598107
-1.442999,-0.04634893
-1.443999,-0.0467781
-1.444999,-0.04717661
-1.445999,-0.04757512
-1.446999,-0.04794298
-1.447999,-0.04834149
-1.448999,-0.04877066
-1.449999,-0.04913852
-1.450999,-0.04956769
-1.451999,-0.0499662
-1.452999,-0.05036471
-1.453999,-0.05079388
-1.454999,-0.05116174
-1.455999,-0.05156025
-1.456999,-0.05195877
-1.457999,-0.05235728
-1.458999,-0.05275579
-1.459999,-0.05318496
-1.460999,-0.05358347
-1.461999,-0.05398199
-1.462999,-0.0543805
-1.463999,-0.054779
-1.464999,-0.05517752
-1.465999,-0.05557603
-1.466999,-0.0560052
-1.467999,-0.05640372
-1.468999,-0.05683288
-1.469999,-0.05723139
-1.470999,-0.05759925
-1.471999,-0.05802842
-1.472999,-0.05842693
-1.473999,-0.05882544
-1.474999,-0.05922396
-1.475999,-0.05965312
-1.476999,-0.06005164
-1.477999,-0.0604808
-1.478999,-0.06087932
-1.479999,-0.06124718
-1.480999,-0.06167634
-1.481999,-0.06210551
-1.482999,-0.06250402
-1.483999,-0.06293319
-1.484999,-0.06333171
-1.485999,-0.06376087
-1.486999,-0.06415939
-1.487999,-0.0645579
-1.488999,-0.06498706
-1.489999,-0.06538557
-1.490999,-0.06581475
-1.491999,-0.06621326
-1.492999,-0.06664243
-1.493999,-0.06704094
-1.494999,-0.0674701
-1.495999,-0.06786862
-1.496999,-0.06829779
-1.497999,-0.0686963
-1.498999,-0.06912547
-1.499999,-0.06924809
-1.499001,-0.06884957
-1.498001,-0.06845106
-1.497001,-0.06805255
-1.496001,-0.06762338
-1.495001,-0.06719422
-1.494001,-0.06682636
-1.493001,-0.06639718
-1.492001,-0.06596802
-1.491001,-0.06553885
-1.490001,-0.06510969
-1.489001,-0.06468052
-1.488001,-0.064282
-1.487001,-0.06382218
-1.486001,-0.06342367
-1.485001,-0.0629945
-1.484001,-0.06253468
-1.483001,-0.06210551
-1.482001,-0.061707
-1.481001,-0.06127783
-1.480001,-0.06087932
-1.479001,-0.06045015
-1.478001,-0.06002098
-1.477001,-0.05959181
-1.476001,-0.0591933
-1.475001,-0.05879479
-1.474001,-0.05836562
-1.473001,-0.05793646
-1.472001,-0.05753794
-1.471001,-0.05710877
-1.470001,-0.05671026
-1.469001,-0.0562811
-1.468001,-0.05585193
-1.467001,-0.05545342
-1.466001,-0.05502424
-1.465001,-0.05459508
-1.464001,-0.05419657
-1.463001,-0.05379805
-1.462001,-0.05336889
-1.461001,-0.05297038
-1.460001,-0.0525412
-1.459001,-0.05214269
-1.458001,-0.05171353
-1.457001,-0.05131501
-1.456001,-0.0509165
-1.455001,-0.05048734
-1.454001,-0.05008882
-1.453001,-0.04969031
-1.452001,-0.04929179
-1.451001,-0.04889328
-1.450001,-0.04849477
-1.449001,-0.0480656
-1.448001,-0.04766709
-1.447001,-0.04726858
-1.446001,-0.04683941
-1.445001,-0.04647155
-1.444001,-0.04607304
-1.443001,-0.04564387
-1.442001,-0.04527601
-1.441001,-0.0448775
-1.440001,-0.04447899
-1.439001,-0.04408047
-1.438001,-0.04371261
-1.437001,-0.0433141
-1.436001,-0.04291559
-1.435001,-0.04251708
-1.434001,-0.04211856
-1.433001,-0.04172005
-1.432001,-0.04135219
-1.431001,-0.04095368
-1.430001,-0.04058582
-1.429001,-0.04018731
-1.428001,-0.0397888
-1.427001,-0.03939028
-1.426001,-0.03902243
-1.425001,-0.03862391
-1.424001,-0.03825606
-1.423001,-0.0378882
-1.422001,-0.03748969
-1.421001,-0.03712183
-1.420001,-0.03675397
-1.419001,-0.03638611
-1.418001,-0.0359876
-1.417001,-0.03561974
-1.416001,-0.03525188
-1.415001,-0.03488402
-1.414001,-0.03454682
-1.413001,-0.03417896
-1.412001,-0.03378045
-1.411001,-0.03341259
-1.410001,-0.03307539
-1.409001,-0.03267688
-1.408001,-0.03230902
-1.407001,-0.03197182
-1.406001,-0.03160396
-1.405001,-0.0312361
-1.404001,-0.0308989
-1.403001,-0.03053104
-1.402001,-0.03019384
-1.401001,-0.02982598
-1.400001,-0.02948878
-1.399001,-0.02915157
-1.398001,-0.02878371
-1.397001,-0.02844651
-1.396001,-0.02810931
-1.395001,-0.0277721
-1.394001,-0.0274349
-1.393001,-0.0270977
-1.392001,-0.02676049
-1.391001,-0.02642329
-1.390001,-0.02608609
-1.389001,-0.02574889
-1.388001,-0.02541168
-1.387001,-0.02507448
-1.386001,-0.02473728
-1.385001,-0.02440007
-1.384001,-0.02409353
-1.383001,-0.02378698
-1.382001,-0.02344977
-1.381001,-0.02314323
-1.380001,-0.02283668
-1.379001,-0.02253013
-1.378001,-0.02219293
-1.377001,-0.02188638
-1.376001,-0.02157983
-1.375001,-0.02127328
-1.374001,-0.02096673
-1.373001,-0.02066019
-1.372001,-0.02035364
-1.371001,-0.02004709
-1.370001,-0.0197712
-1.369001,-0.01946465
-1.368001,-0.0191581
-1.367001,-0.01888221
-1.366001,-0.01860631
-1.365001,-0.01833042
-1.364001,-0.01805453
-1.363001,-0.01777863
-1.362001,-0.01750274
-1.361001,-0.01722685
-1.360001,-0.01695095
-1.359001,-0.01667506
-1.358001,-0.01639917
-1.357001,-0.01615393
-1.356001,-0.01599864
-1.355001,-0.0157442
-1.354001,-0.01548977
-1.353001,-0.0152384
-1.352001,-0.01499316
-1.351001,-0.01474179
-1.350001,-0.01449348
-1.349001,-0.01425438
-1.348001,-0.0140122
-1.347001,-0.01378229
-1.346001,-0.01355851
-1.345001,-0.0133286
-1.344001,-0.01310176
-1.343001,-0.01289024
-1.342001,-0.01266952
-1.341001,-0.01245187
-1.340001,-0.01224342
-1.339001,-0.0120319
-1.338001,-0.01182038
-1.337001,-0.01161193
-1.336001,-0.01140961
-1.335001,-0.01121035
-1.334001,-0.01101416
-1.333001,-0.01082104
-1.332001,-0.01062791
-1.331001,-0.01045011
-1.330001,-0.01026005
-1.329001,-0.01007612
-1.328001,-0.009904457
-1.327001,-0.009726659
-1.326001,-0.009554992
-1.325001,-0.009389456
-1.324001,-0.009220854
-1.323001,-0.009061449
-1.322001,-0.00890511
-1.321001,-0.008751836
-1.320001,-0.008601627
-1.319001,-0.008448353
-1.318001,-0.008304276
-1.317001,-0.008160197
-1.316001,-0.008022251
-1.315001,-0.007893501
-1.314001,-0.00775862
-1.313001,-0.00762987
-1.312001,-0.007510316
-1.311001,-0.0073785
-1.310001,-0.007258946
-1.309001,-0.007142458
-1.308001,-0.007022904
-1.307001,-0.006915612
-1.306001,-0.006802189
-1.305001,-0.006694897
-1.304001,-0.006587605
-1.303001,-0.00648951
-1.302001,-0.006385284
-1.301001,-0.006287188
-1.300001,-0.006198289
-1.299001,-0.006097128
-1.298001,-0.006011295
-1.297001,-0.005922395
-1.296001,-0.005833496
-1.295001,-0.005750729
-1.294001,-0.005671026
-1.293001,-0.005588258
-1.292001,-0.005511621
-1.291001,-0.005434984
-1.290001,-0.005361412
-1.289001,-0.005290906
-1.288001,-0.005223466
-1.287001,-0.005146828
-1.286001,-0.005088584
-1.285001,-0.005024209
-1.284001,-0.004953703
-1.283001,-0.004898524
-1.282001,-0.004837214
-1.281001,-0.004775905
-1.280001,-0.004720726
-1.279001,-0.004665548
-1.278001,-0.004607304
-1.277001,-0.004558256
-1.276001,-0.004509208
-1.275001,-0.004454029
-1.274001,-0.004404982
-1.273001,-0.004362065
-1.272001,-0.004313017
-1.271001,-0.004267035
-1.270001,-0.004227184
-1.269001,-0.004181202
-1.268001,-0.004138284
-1.267001,-0.004101499
-1.266001,-0.004055517
-1.265001,-0.004015665
-1.264001,-0.003981945
-1.263001,-0.003939028
-1.262001,-0.003908373
-1.261001,-0.003871588
-1.260001,-0.003834802
-1.259001,-0.003801082
-1.258001,-0.003773492
-1.257001,-0.003733641
-1.256001,-0.003706052
-1.255001,-0.003675397
-1.254001,-0.003641677
-1.253001,-0.003611021
-1.252001,-0.003583432
-1.251001,-0.003555843
-1.250001,-0.003525188
-1.249001,-0.003497599
-1.248001,-0.003473075
-1.247001,-0.00344242
-1.246001,-0.003417896
-1.245001,-0.003393373
-1.244001,-0.003362718
-1.243001,-0.003344325
-1.242001,-0.003319801
-1.241001,-0.003292212
-1.240001,-0.003267688
-1.239001,-0.003246229
-1.238001,-0.003221706
-1.237001,-0.003200247
-1.236001,-0.003178789
-1.235001,-0.00315733
-1.234001,-0.003132806
-1.233001,-0.003114413
-1.232001,-0.003096021
-1.231001,-0.003071497
-1.230001,-0.003056169
-1.229001,-0.003034711
-1.228001,-0.003013253
-1.227001,-0.002997925
-1.226001,-0.002973401
-1.225001,-0.002955008
-1.224001,-0.002939681
-1.223001,-0.002918222
-1.222001,-0.00289983
-1.221001,-0.002884502
-1.220001,-0.00286611
-1.219001,-0.002847716
-1.218001,-0.002835455
-1.217001,-0.002817062
-1.216001,-0.002798669
-1.215001,-0.002780276
-1.214001,-0.00277108
-1.213001,-0.002749621
-1.212001,-0.002737359
-1.211001,-0.002725097
-1.210001,-0.002700574
-1.209001,-0.002691377
-1.208001,-0.002676049
-1.207001,-0.002660722
-1.206001,-0.00264846
-1.205001,-0.002633133
-1.204001,-0.00261474
-1.203001,-0.002602478
-1.202001,-0.002590216
-1.201001,-0.002571823
-1.200001,-0.002562626
-1.199001,-0.002547299
-1.198001,-0.002531972
-1.197001,-0.00251971
-1.196001,-0.002507448
-1.195001,-0.002495186
-1.194001,-0.002482924
-1.193001,-0.002470662
-1.192001,-0.002452269
-1.191001,-0.002446138
-1.190001,-0.002433876
-1.189001,-0.002415484
-1.188001,-0.002409352
-1.187001,-0.002397091
-1.186001,-0.002381763
-1.185001,-0.002375632
-1.184001,-0.002360305
-1.183001,-0.002344977
-1.182001,-0.002338846
-1.181001,-0.002326585
-1.180001,-0.002311257
-1.179001,-0.002305126
-1.178001,-0.002292864
-1.177001,-0.002277537
-1.176001,-0.002274471
-1.175001,-0.002262209
-1.174001,-0.002246882
-1.173001,-0.002243817
-1.172001,-0.002231555
-1.171001,-0.002216227
-1.170001,-0.002210096
-1.169001,-0.002197834
-1.168001,-0.002188638
-1.167001,-0.002179441
-1.166001,-0.002170245
-1.165001,-0.002161048
-1.164001,-0.002148786
-1.163001,-0.002142655
-1.162001,-0.002133459
-1.161001,-0.002121197
-1.160001,-0.002115066
-1.159001,-0.002102804
-1.158001,-0.002093608
-1.157001,-0.002087477
-1.156001,-0.002075215
-1.155001,-0.002066019
-1.154001,-0.002059887
-1.153001,-0.002050691
-1.152001,-0.002038429
-1.151001,-0.002029233
-1.150001,-0.002026167
-1.149001,-0.00201084
-1.148001,-0.002007774
-1.147001,-0.001998578
-1.146001,-0.00198325
-1.145001,-0.001980185
-1.144001,-0.001970988
-1.143001,-0.001958727
-1.142001,-0.001955661
-1.141001,-0.001946465
-1.140001,-0.001937268
-1.139001,-0.001931137
-1.138001,-0.001921941
-1.137001,-0.001909679
-1.136001,-0.001906613
-1.135001,-0.001897417
-1.134001,-0.001885155
-1.133001,-0.00188209
-1.132001,-0.001875959
-1.131001,-0.001863697
-1.130001,-0.001860631
-1.129001,-0.001851435
-1.128001,-0.001842238
-1.127001,-0.001833042
-1.126001,-0.001829976
-1.125001,-0.00182078
-1.124001,-0.001811583
-1.123001,-0.001808518
-1.122001,-0.001796256
-1.121001,-0.001790125
-1.120001,-0.001783994
-1.119001,-0.001774798
-1.118001,-0.001768667
-1.117001,-0.001765601
-1.116001,-0.001753339
-1.115001,-0.001750274
-1.114001,-0.001738012
-1.113001,-0.001728815
-1.112001,-0.00172575
-1.111001,-0.001716554
-1.110001,-0.001707357
-1.109001,-0.001704292
-1.108001,-0.001698161
-1.107001,-0.001685899
-1.106001,-0.001682833
-1.105001,-0.001673637
-1.104001,-0.001661375
-1.103001,-0.001658309
-1.102001,-0.001649113
-1.101001,-0.001639916
-1.100001,-0.001636851
-1.099001,-0.00163072
-1.098001,-0.001618458
-1.097001,-0.001612327
-1.096001,-0.001606196
-1.095001,-0.001632664
-1.094001,-0.001625001
-1.093001,-0.001620403
-1.092001,-0.001611819
-1.091001,-0.001605688
-1.090001,-0.001597411
-1.089001,-0.001589135
-1.088001,-0.001585763
-1.087001,-0.001576873
-1.086001,-0.001567063
-1.085001,-0.001565224
-1.084001,-0.001554801
-1.083001,-0.001546218
-1.082001,-0.001544685
-1.081001,-0.001533649
-1.080001,-0.001529358
-1.079001,-0.001524453
-1.078001,-0.001513724
-1.077001,-0.001507899
-1.076001,-0.001502995
-1.075001,-0.001493185
-1.074001,-0.001486441
-1.073001,-0.001480617
-1.072001,-0.001475099
-1.071001,-0.001465902
-1.070001,-0.001461304
-1.069001,-0.00145364
-1.068001,-0.001443831
-1.067001,-0.001440459
-1.066001,-0.001432489
-1.065001,-0.001423905
-1.064001,-0.001422985
-1.063001,-0.001412563
-1.062001,-0.001403673
-1.061001,-0.001401527
-1.060001,-0.001392331
-1.059001,-0.001385587
-1.058001,-0.001381601
-1.057001,-0.001373631
-1.056001,-0.001366274
-1.055001,-0.001361369
-1.054001,-0.001354932
-1.053001,-0.001345735
-1.052001,-0.00134175
-1.051001,-0.001335313
-1.050001,-0.001325503
-1.049001,-0.001322131
-1.048001,-0.001316613
-1.047001,-0.001306497
-1.046001,-0.001305271
-1.045001,-0.001296381
-1.044001,-0.001288717
-1.043001,-0.001285958
-1.042001,-0.001277682
-1.041001,-0.001269405
-1.040001,-0.001267566
-1.039001,-0.001260208
-1.038001,-0.001251318
-1.037001,-0.00124856
-1.036001,-0.001238137
-1.035001,-0.001232006
-1.034001,-0.00122986
-1.033001,-0.00122097
-1.032001,-0.001213306
-1.031001,-0.00121208
-1.030001,-0.001202577
-1.029001,-0.001197059
-1.028001,-0.001192155
-1.027001,-0.001185411
-1.026001,-0.00117836
-1.025001,-0.001173455
-1.024001,-0.001166711
-1.023001,-0.001160274
-1.022001,-0.001152916
-1.021001,-0.001149851
-1.020001,-0.0011428
-1.019001,-0.001136669
-1.018001,-0.001132071
-1.017001,-0.001121955
-1.016001,-0.001119503
-1.015001,-0.001113372
-1.014001,-0.001104482
-1.013001,-0.001102029
-1.012001,-0.001095592
-1.011001,-0.001086089
-1.010001,-0.001085169
-1.009001,-0.001077812
-1.008001,-0.001069535
-1.007001,-0.001067696
-1.006001,-0.001062791
-1.005001,-0.001051142
-1.004001,-0.001050529
-1.003001,-0.001042253
-1.002001,-0.001034895
-1.001001,-0.001031523
-1.000001,-0.001028151
-0.9990008,-0.001018342
-0.9980009,-0.001015583
-0.9970009,-0.001011291
-0.9960009,-0.001002095
-0.9950009,-0.0009962702
-0.9940009,-0.0009938178
-0.9930009,-0.0009861541
-0.9920009,-0.0009803297
-0.9910009,-0.0009775708
-0.9900008,-0.0009674546
-0.9890009,-0.0009637761
-0.9880009,-0.000957032
-0.9870009,-0.000950288
-0.9860009,-0.0009453832
-0.9850008,-0.0009417046
-0.9840009,-0.0009328147
-0.9830009,-0.0009285231
-0.9820009,-0.0009236183
-0.9810008,-0.0009177938
-0.9800009,-0.0009107432
-0.9790009,-0.0009067581
-0.9780009,-0.0009018534
-0.9770009,-0.00089327
-0.9760008,-0.0008914307
-0.9750009,-0.0008834605
-0.9740009,-0.0008767164
-0.9730009,-0.0008739574
-0.9720009,-0.000864761
-0.9710009,-0.0008589366
-0.9700009,-0.0008561776
-0.9690009,-0.000848514
-0.9680009,-0.0008420764
-0.9670008,-0.0008377847
-0.9660009,-0.0008316538
-0.9650009,-0.0008255228
-0.9640009,-0.0008224574
-0.9630009,-0.0008151002
-0.9620008,-0.0008092758
-0.9610009,-0.0008040644
-0.9600009,-0.0007967073
-0.9590009,-0.0007896567
-0.9580009,-0.0007856716
-0.9570009,-0.0007801537
-0.9560009,-0.0007727966
-0.9550009,-0.0007691179
-0.9540009,-0.0007632935
-0.9530008,-0.0007559364
-0.9520009,-0.0007519512
-0.9510009,-0.0007461268
-0.9500009,-0.0007387697
-0.9490009,-0.000735091
-0.9480008,-0.0007295733
-0.9470009,-0.0007228291
-0.9460009,-0.0007176179
-0.9450009,-0.0007124065
-0.9440009,-0.000705969
-0.9430009,-0.000699838
-0.9420009,-0.0006955464
-0.9410009,-0.0006891088
-0.9400009,-0.0006814452
-0.9390008,-0.0006780731
-0.9380009,-0.0006722487
-0.9370009,-0.0006636653
-0.9360009,-0.0006618261
-0.9350009,-0.0006550819
-0.9340008,-0.0006468052
-0.9330009,-0.0006452725
-0.9320009,-0.0006357695
-0.9310009,-0.0006311712
-0.9300008,-0.0006284123
-0.9290009,-0.0006201355
-0.9280009,-0.0006167634
-0.9270009,-0.0006115522
-0.9260009,-0.0006029688
-0.9250008,-0.0005992902
-0.9240009,-0.0005943854
-0.9230009,-0.0005870283
-0.9220009,-0.0005830431
-0.9210009,-0.0005778318
-0.9200009,-0.0005704747
-0.9190009,-0.0005655699
-0.9180009,-0.0005609716
-0.9170009,-0.0005557603
-0.9160008,-0.0005487097
-0.9150009,-0.0005450312
-0.9140009,-0.000538287
-0.9130009,-0.0005327692
-0.9120009,-0.0005284776
-0.9110008,-0.0005217335
-0.9100009,-0.0005156025
-0.9090009,-0.0005113108
-0.9080009,-0.0005051799
-0.9070009,-0.0004999685
-0.9060009,-0.0004938376
-0.9050009,-0.0004864805
-0.9040009,-0.0004828018
-0.9030009,-0.0004778971
-0.9020008,-0.0004720727
-0.9010009,-0.0004650221
-0.9000009,-0.0004601173
-0.8990009,-0.0004539863
-0.8980009,-0.0004484684
-0.8970008,-0.0004432572
-0.8960009,-0.0004377393
-0.8950009,-0.0004306886
-0.8940009,-0.0004254773
-0.8930008,-0.0004199595
-0.8920009,-0.0004126023
-0.8910009,-0.0004064713
-0.8900009,-0.0004018731
-0.8890009,-0.0003942094
-0.8880008,-0.0003889981
-0.8870009,-0.0003840933
-0.8860009,-0.0003767362
-0.8850009,-0.0003712183
-0.8840009,-0.0003647808
-0.8830009,-0.0003586498
-0.8820009,-0.0003525188
-0.8810009,-0.0003476141
-0.8800009,-0.0003399504
-0.8790008,-0.0003335129
-0.8780009,-0.000327995
-0.8770009,-0.0003206378
-0.8760009,-0.0003135872
-0.8750009,-0.000308989
-0.8740008,-0.0003016318
-0.8730009,-0.0002945812
-0.8720009,-0.0002884502
-0.8710009,-0.0002826258
-0.8700009,-0.0002749621
-0.8690009,-0.0002694443
-0.8680009,-0.0002639264
-0.8670009,-0.0002550365
-0.8660009,-0.0002473728
-0.8650008,-0.0002443073
-0.8640009,-0.0002341912
-0.8630009,-0.0002280602
-0.8620009,-0.000223462
-0.8610009,-0.0002127328
-0.8600008,-0.0002078281
-0.8590009,-0.0002016971
-0.8580009,-0.0001928072
-0.8570009,-0.0001863697
-0.8560008,-0.0001799322
-0.8550009,-0.0001707357
-0.8540009,-0.0001652178
-0.8530009,-0.0001578607
-0.8520009,-0.0001483577
-0.8510008,-0.0001434529
-0.8500009,-0.0001382215
-0.8490009,-0.0001294848
-0.8480009,-0.0001232926
-0.8470009,-0.0001163952
-0.8460009,-0.0001070148
-0.8450009,-0.000101313
-0.8440009,-9.322015E-05
-0.8430009,-8.42996E-05
-0.8420008,-7.79234E-05
-0.8410009,-7.02597E-05
-0.8400009,-6.090997E-05
-0.8390009,-5.370608E-05
-0.8380009,-4.637958E-05
-0.8370008,-3.6662E-05
-0.8360009,-3.000991E-05
-0.8350009,-2.292864E-05
-0.8340009,-1.391612E-05
-0.8330009,-4.75033E-06
-0.8320009,1.22736E-06
-0.8310009,1.063839E-05
-0.8300009,2.093841E-05
-0.8290009,2.65789E-05
-0.8280008,3.629648E-05
-0.8270009,4.59221E-05
-0.8260009,5.091884E-05
-0.8250009,6.167868E-05
-0.8240009,6.964893E-05
-0.8230008,7.553466E-05
-0.8220009,8.60186E-05
-0.8210009,9.42341E-05
-0.8200009,0.0001021124
-0.8190009,0.0001125963
-0.8180009,0.0001209958
-0.8170009,0.0001287514
-0.8160009,0.0001382544
-0.8150009,0.000146194
-0.8140008,0.0001536432
-0.8130009,0.0001631768
-0.8120009,0.0001720973
-0.8110009,0.0001781057
-0.8100009,0.000188651
-0.8090008,0.0001967132
-0.8080009,0.0002042236
-0.8070009,0.0002134814
-0.8060009,0.0002233216
-0.8050008,0.000229943
-0.8040009,0.0002395073
-0.8030009,0.0002482133
-0.8020009,0.0002560303
-0.8010009,0.000264491
-0.8000008,0.0002171293
-0.8009992,0.0001469604
-0.8019992,0.0001005796
-0.8029991,6.21385E-05
-0.8039991,2.391193E-05
-0.8049992,-6.344382E-06
-0.8059992,-3.604891E-05
-0.8069991,-6.694897E-05
-0.8079991,-9.104366E-05
-0.8089992,-0.000115261
-0.8099992,-0.0001408884
-0.8109992,-0.0001629599
-0.8119991,-0.0001839278
-0.8129991,-0.0002054168
-0.8139992,-0.000225649
-0.8149992,-0.0002422332
-0.8159992,-0.0002632012
-0.8169991,-0.0002810116
-0.8179991,-0.0002927419
-0.8189992,-0.000312361
-0.8199992,-0.0003295277
-0.8209991,-0.0003420962
-0.8219991,-0.0003604891
-0.8229992,-0.0003758165
-0.8239992,-0.0003874653
-0.8249992,-0.0004034059
-0.8259991,-0.0004190398
-0.8269991,-0.0004300755
-0.8279992,-0.0004435637
-0.8289992,-0.0004601173
-0.8299991,-0.0004699268
-0.8309991,-0.0004843346
-0.8319992,-0.0004975162
-0.8329992,-0.0005073257
-0.8339992,-0.0005208139
-0.8349991,-0.0005336889
-0.8359991,-0.0005428853
-0.8369992,-0.0005560669
-0.8379992,-0.0005677157
-0.8389992,-0.0005778318
-0.8399991,-0.0005891741
-0.8409991,-0.0006014361
-0.8419992,-0.0006097128
-0.8429992,-0.0006210551
-0.8439991,-0.0006330105
-0.8449991,-0.0006419004
-0.8459992,-0.00065171
-0.8469992,-0.0006630523
-0.8479992,-0.0006716356
-0.8489991,-0.0006814452
-0.8499991,-0.0006934005
-0.8509992,-0.0007013708
-0.8519992,-0.0007111803
-0.8529992,-0.0007216029
-0.8539991,-0.0007304929
-0.8549991,-0.0007384631
-0.8559992,-0.0007485792
-0.8569992,-0.0007583887
-0.8579991,-0.000766359
-0.8589991,-0.0007755554
-0.8599992,-0.000785365
-0.8609992,-0.0007921091
-0.8619992,-0.0008013055
-0.8629991,-0.0008114216
-0.8639991,-0.0008181657
-0.8649992,-0.0008270555
-0.8659992,-0.0008371716
-0.8669991,-0.0008439157
-0.8679991,-0.0008528056
-0.8689992,-0.000861389
-0.8699992,-0.0008690527
-0.8709992,-0.000877023
-0.8719991,-0.0008843801
-0.8729991,-0.0008938831
-0.8739992,-0.0009009338
-0.8749992,-0.000908904
-0.8759992,-0.0009184069
-0.8769991,-0.0009245379
-0.8779991,-0.0009322016
-0.8789992,-0.0009410915
-0.8799992,-0.0009481421
-0.8809991,-0.0009551927
-0.8819991,-0.0009640827
-0.8829992,-0.0009723594
-0.8839992,-0.0009775708
-0.8849992,-0.0009861541
-0.8859991,-0.0009965767
-0.8869991,-0.0009987226
-0.8879992,-0.001011291
-0.8889992,-0.001017422
-0.8899992,-0.001023553
-0.8909991,-0.001033056
-0.8919991,-0.001039494
-0.8929992,-0.001045011
-0.8939992,-0.001054514
-0.8949991,-0.001060339
-0.8959991,-0.00106647
-0.8969992,-0.001075053
-0.8979992,-0.001079958
-0.8989992,-0.001087928
-0.8999991,-0.001096818
-0.9009991,-0.001101416
-0.9019992,-0.001108467
-0.9029992,-0.001118277
-0.9039991,-0.001121955
-0.9049991,-0.001130538
-0.9059991,-0.001139428
-0.9069992,-0.001141268
-0.9079992,-0.00115169
-0.9089991,-0.001157515
-0.9099991,-0.001161806
-0.9109992,-0.001169777
-0.9119992,-0.001178053
-0.9129992,-0.001182958
-0.9139991,-0.001189396
-0.9149991,-0.001197059
-0.9159992,-0.001203497
-0.9169992,-0.001209015
-0.9179991,-0.001217292
-0.9189991,-0.00122281
-0.9199992,-0.001228327
-0.9209992,-0.001236911
-0.9219992,-0.001242122
-0.9229991,-0.001247027
-0.9239991,-0.00125469
-0.9249992,-0.001260821
-0.9259992,-0.001266646
-0.9269992,-0.001273083
-0.9279991,-0.001279827
-0.9289991,-0.001284732
-0.9299992,-0.00129117
-0.9309992,-0.001297914
-0.9319991,-0.001302819
-0.9329991,-0.001309563
-0.9339992,-0.001315387
-0.9349992,-0.001321211
-0.9359992,-0.00132489
-0.9369991,-0.001333473
-0.9379991,-0.001338378
-0.9389992,-0.001343283
-0.9399992,-0.00135064
-0.9409992,-0.001357078
-0.9419991,-0.001361063
-0.9429991,-0.001369033
-0.9439992,-0.001374244
-0.9449992,-0.001377003
-0.9459991,-0.001386813
-0.9469991,-0.001389572
-0.9479992,-0.001394477
-0.9489992,-0.00140306
-0.9499992,-0.001408271
-0.9509991,-0.001412256
-0.9519991,-0.001420227
-0.9529992,-0.001425131
-0.9539992,-0.001429423
-0.9549991,-0.001435247
-0.9559991,-0.001443218
-0.9569992,-0.001447203
-0.9579992,-0.001452414
-0.9589992,-0.001459158
-0.9599991,-0.001464676
-0.9609991,-0.001468355
-0.9619992,-0.001476325
-0.9629992,-0.001480923
-0.9639992,-0.001485521
-0.9649991,-0.001492879
-0.9659991,-0.001497477
-0.9669992,-0.001502382
-0.9679992,-0.001509126
-0.9689991,-0.00151495
-0.9699991,-0.001518322
-0.9709992,-0.001526905
-0.9719992,-0.001531504
-0.9729992,-0.001536102
-0.9739991,-0.001542539
-0.9749991,-0.001549896
-0.9759992,-0.001551123
-0.9769992,-0.001558786
-0.9779992,-0.001567063
-0.9789991,-0.001568289
-0.9799991,-0.001577792
-0.9809992,-0.001583617
-0.9819992,-0.001586069
-0.9829991,-0.001594653
-0.9839991,-0.001598331
-0.9849992,-0.001602929
-0.9859992,-0.001612126
-0.9869992,-0.001614885
-0.9879991,-0.001621629
-0.9889991,-0.001626227
-0.9899992,-0.00163481
-0.9909992,-0.001639409
-0.9919991,-0.00164554
-0.9929991,-0.001651671
-0.9939992,-0.001658108
-0.9949992,-0.00166148
-0.9959992,-0.001670063
-0.9969991,-0.001673435
-0.9979991,-0.00167834
-0.9989992,-0.001687843
-0.9999992,-0.001690909
-1.000999,-0.0016952
-1.001999,-0.001706849
-1.002999,-0.001708075
-1.003999,-0.001716352
-1.004999,-0.001725549
-1.005999,-0.001725242
-1.006999,-0.001735358
-1.007999,-0.001740263
-1.008999,-0.001745474
-1.009999,-0.001753445
-1.010999,-0.001758962
-1.011999,-0.001763867
-1.012999,-0.001771224
-1.013999,-0.001776129
-1.014999,-0.001783486
-1.015999,-0.001789617
-1.016999,-0.001793909
-1.017999,-0.001799733
-1.018999,-0.00180801
-1.019999,-0.001815367
-1.020999,-0.001820885
-1.021999,-0.001827323
-1.022999,-0.001833454
-1.023999,-0.001838358
-1.024999,-0.001847248
-1.025999,-0.001853992
-1.026999,-0.001856445
-1.027999,-0.001865948
-1.028999,-0.001873918
-1.029999,-0.001878516
-1.030999,-0.0018871
-1.031999,-0.001892311
-1.032999,-0.001899361
-1.033999,-0.001906719
-1.034999,-0.001910704
-1.035999,-0.001918367
-1.036999,-0.001925418
-1.037999,-0.001931549
-1.038999,-0.001938293
-1.039999,-0.001944117
-1.040999,-0.001952701
-1.041999,-0.00195638
-1.042999,-0.001966496
-1.043999,-0.0019714
-1.044999,-0.001978758
-1.045999,-0.001986421
-1.046999,-0.001990406
-1.047999,-0.001997457
-1.048999,-0.00200696
-1.049999,-0.002009719
-1.050999,-0.002017383
-1.051999,-0.002027499
-1.052999,-0.00203179
-1.053999,-0.002038841
-1.054999,-0.002048037
-1.055999,-0.002052635
-1.056999,-0.002059993
-1.057999,-0.00206643
-1.058999,-0.002073787
-1.059999,-0.002081144
-1.060999,-0.002091261
-1.061999,-0.002096472
-1.062999,-0.002099231
-1.063999,-0.00210996
-1.064999,-0.002114865
-1.065999,-0.002120689
-1.066999,-0.002129273
-1.067999,-0.002135403
-1.068999,-0.002140615
-1.069999,-0.002150424
-1.070999,-0.002156555
-1.071999,-0.002160847
-1.072999,-0.002170044
-1.073999,-0.002177707
-1.074999,-0.002181999
-1.075999,-0.002191195
-1.076999,-0.002198552
-1.077999,-0.002202231
-1.078999,-0.002212041
-1.079999,-0.002219091
-1.080999,-0.002224609
-1.081999,-0.00223166
-1.082999,-0.00224055
-1.083999,-0.002246067
-1.084999,-0.002252198
-1.085999,-0.002260782
-1.086999,-0.002268446
-1.087999,-0.002273657
-1.088999,-0.002282547
-1.089999,-0.002290517
-1.090999,-0.002295728
-1.091999,-0.002302166
-1.092999,-0.002311056
-1.093999,-0.002315961
-1.094999,-0.002322705
-1.095999,-0.002331594
-1.096999,-0.002336806
-1.097999,-0.002343856
-1.098999,-0.002353666
-1.099999,-0.002357957
-1.100999,-0.002364395
-1.101999,-0.002373898
-1.102999,-0.002379722
-1.103999,-0.002384014
-1.104999,-0.002393824
-1.105999,-0.002398728
-1.106999,-0.00240302
-1.107999,-0.002413443
-1.108999,-0.002418654
-1.109999,-0.002423559
-1.110999,-0.002432142
-1.111999,-0.002435208
-1.112999,-0.002443485
-1.113999,-0.002449309
-1.114999,-0.002452681
-1.115999,-0.002457892
-1.116999,-0.002462797
-1.117999,-0.002467396
-1.118999,-0.002472606
-1.119999,-0.002475672
-1.120999,-0.002482723
-1.121999,-0.002484255
-1.122999,-0.002492532
-1.123999,-0.002494985
-1.124999,-0.002495598
-1.125999,-0.002503261
-1.126999,-0.002502648
-1.127999,-0.002504488
-1.128999,-0.002512765
-1.129999,-0.002513071
-1.130999,-0.002514604
-1.131999,-0.002520735
-1.132999,-0.002522574
-1.133999,-0.002521961
-1.134999,-0.002528705
-1.135999,-0.002530851
-1.136999,-0.002530544
-1.137999,-0.002538821
-1.138999,-0.002540967
-1.139999,-0.002541273
-1.140999,-0.002547098
-1.141999,-0.002547711
-1.142999,-0.002549244
-1.143999,-0.002556907
-1.144999,-0.002556601
-1.145999,-0.002559666
-1.146999,-0.002565184
-1.147999,-0.002566717
-1.148999,-0.002572235
-1.149999,-0.002579899
-1.150999,-0.002578672
-1.151999,-0.002579592
-1.152999,-0.002589402
-1.153999,-0.002589095
-1.154999,-0.002590935
-1.155999,-0.00260105
-1.156999,-0.00260289
-1.157999,-0.002605649
-1.158999,-0.002613312
-1.159999,-0.002616991
-1.160999,-0.002620976
-1.161999,-0.002629559
-1.162999,-0.00263569
-1.163999,-0.002635997
-1.164999,-0.002644887
-1.165999,-0.002651018
-1.166999,-0.002653777
-1.167999,-0.002660214
-1.168999,-0.002667571
-1.169999,-0.002670637
-1.170999,-0.00267922
-1.171999,-0.00268811
-1.172999,-0.002690562
-1.173999,-0.00269792
-1.174999,-0.002706503
-1.175999,-0.002709262
-1.176999,-0.002716006
-1.177999,-0.002727042
-1.178999,-0.002730107
-1.179999,-0.002737771
-1.180999,-0.002746661
-1.181999,-0.002750952
-1.182999,-0.002757696
-1.183999,-0.002768732
-1.184999,-0.002773331
-1.185999,-0.002779155
-1.186999,-0.00279203
-1.187999,-0.002798161
-1.188999,-0.002802146
-1.189999,-0.002818086
-1.190999,-0.002822378
-1.191999,-0.002830961
-1.192999,-0.002843837
-1.193999,-0.002849661
-1.194999,-0.002856405
-1.195999,-0.002874185
-1.196999,-0.002881235
-1.197999,-0.002888899
-1.198999,-0.002905146
-1.199999,-0.002910051
-1.200999,-0.002922006
-1.201999,-0.002937947
-1.202999,-0.002946224
-1.203999,-0.00295634
-1.204999,-0.002974733
-1.205999,-0.002982703
-1.206999,-0.002996498
-1.207999,-0.002976467
-1.208999,-0.002985663
-1.209999,-0.002997925
-1.210999,-0.003013253
-1.211999,-0.003025514
-1.212999,-0.003037777
-1.213999,-0.003053104
-1.214999,-0.003068431
-1.215999,-0.003077628
-1.216999,-0.003096021
-1.217999,-0.003111348
-1.218999,-0.003120545
-1.219999,-0.003138937
-1.220999,-0.003154265
-1.221999,-0.003169592
-1.222999,-0.003184919
-1.223999,-0.003203312
-1.224999,-0.003215575
-1.225999,-0.003233967
-1.226999,-0.003249295
-1.227999,-0.003264622
-1.228999,-0.003286081
-1.229999,-0.003304473
-1.230999,-0.003316735
-1.231999,-0.003338194
-1.232999,-0.003359652
-1.233999,-0.003371914
-1.234999,-0.003393373
-1.235999,-0.003411765
-1.236999,-0.003430158
-1.237999,-0.003448551
-1.238999,-0.003470009
-1.239999,-0.003488402
-1.240999,-0.003509861
-1.241999,-0.003534385
-1.242999,-0.003552777
-1.243999,-0.003574236
-1.244999,-0.00359876
-1.245999,-0.003620218
-1.246999,-0.003638611
-1.247999,-0.0036662
-1.248999,-0.003690724
-1.249999,-0.003712183
-1.250999,-0.003736707
-1.251999,-0.003767361
-1.252999,-0.00378882
-1.253999,-0.003816409
-1.254999,-0.003843998
-1.255999,-0.003868522
-1.256999,-0.003899177
-1.257999,-0.003932897
-1.258999,-0.003957421
-1.259999,-0.003985011
-1.260999,-0.004021796
-1.261999,-0.004049386
-1.262999,-0.004083106
-1.263999,-0.004119892
-1.264999,-0.004153612
-1.265999,-0.004187332
-1.266999,-0.004224118
-1.267999,-0.004260904
-1.268999,-0.00429769
-1.269999,-0.004337541
-1.270999,-0.004377393
-1.271999,-0.004414178
-1.272999,-0.00446016
-1.273999,-0.004506143
-1.274999,-0.00454906
-1.275999,-0.004595041
-1.276999,-0.004644089
-1.277999,-0.004690072
-1.278999,-0.004742185
-1.279999,-0.004794298
-1.280999,-0.004849477
-1.281999,-0.00490159
-1.282999,-0.0049629
-1.283999,-0.005018078
-1.284999,-0.005079388
-1.285999,-0.005140697
-1.286999,-0.005202007
-1.287999,-0.005269447
-1.288999,-0.005339954
-1.289999,-0.005401264
-1.290999,-0.005480966
-1.291999,-0.005557603
-1.292999,-0.005631175
-1.293999,-0.005710877
-1.294999,-0.005793645
-1.295999,-0.005873348
-1.296999,-0.005959181
-1.297999,-0.006051145
-1.298999,-0.006140045
-1.299999,-0.006232009
-1.300999,-0.006339301
-1.301999,-0.006434331
-1.302999,-0.006535492
-1.303999,-0.006645849
-1.304999,-0.006750076
-1.305999,-0.006860433
-1.306999,-0.006979987
-1.307999,-0.00709341
-1.308999,-0.007219094
-1.309999,-0.007344779
-1.310999,-0.007470464
-1.311999,-0.00760228
-1.312999,-0.007740227
-1.313999,-0.007881239
-1.314999,-0.008022251
-1.315999,-0.008175525
-1.316999,-0.008319603
-1.317999,-0.008475943
-1.318999,-0.008638413
-1.319999,-0.008800884
-1.320999,-0.00896642
-1.321999,-0.009138087
-1.322999,-0.009312819
-1.323999,-0.009487552
-1.324999,-0.009674546
-1.325999,-0.009861541
-1.326999,-0.01004854
-1.327999,-0.01024779
-1.328999,-0.01045318
-1.329999,-0.01064631
-1.330999,-0.01086395
-1.331999,-0.01107241
-1.332999,-0.01127779
-1.333999,-0.01150157
-1.334999,-0.01172229
-1.335999,-0.01193687
-1.336999,-0.01216985
-1.337999,-0.0123967
-1.338999,-0.01262661
-1.339999,-0.01287184
-1.340999,-0.01311402
-1.341999,-0.01335619
-1.342999,-0.01360756
-1.343999,-0.01386506
-1.344999,-0.01411336
-1.345999,-0.014377
-1.346999,-0.01464676
-1.347999,-0.01490119
-1.348999,-0.01517709
-1.349999,-0.01544685
-1.350999,-0.01571661
-1.351999,-0.01599251
-1.352999,-0.0162776
-1.353999,-0.01655042
-1.354999,-0.01683551
-1.355999,-0.0171206
-1.356999,-0.01740876
-1.357999,-0.01770918
-1.358999,-0.01800346
-1.359999,-0.01829162
-1.360999,-0.0185951
-1.361999,-0.01888939
-1.362999,-0.01919287
-1.363999,-0.01949942
-1.364999,-0.0198029
-1.365999,-0.02010945
-1.366999,-0.02042213
-1.367999,-0.02073174
-1.368999,-0.02105055
-1.369999,-0.02137549
-1.370999,-0.0216943
-1.371999,-0.02201005
-1.372999,-0.02233192
-1.373999,-0.02265687
-1.374999,-0.02298181
-1.375999,-0.02331288
-1.376999,-0.02365008
-1.377999,-0.02397809
-1.378999,-0.02431836
-1.379999,-0.02465249
-1.380999,-0.02499276
-1.381999,-0.02534223
-1.382999,-0.0256641
-1.383999,-0.0260013
-1.384999,-0.02634464
-1.385999,-0.02667265
-1.386999,-0.02701291
-1.387999,-0.02736545
-1.388999,-0.02769958
-1.389999,-0.02805518
-1.390999,-0.02841691
-1.391999,-0.02876024
-1.392999,-0.02912197
-1.393999,-0.02947756
-1.394999,-0.02983009
-1.395999,-0.03020102
-1.396999,-0.03065366
-1.397999,-0.03099086
-1.398999,-0.03135872
-1.399999,-0.03172658
-1.400999,-0.03209443
-1.401999,-0.0324623
-1.402999,-0.03286081
-1.403999,-0.03322866
-1.404999,-0.03359652
-1.405999,-0.03396438
-1.406999,-0.03433224
-1.407999,-0.0347001
-1.408999,-0.03509861
-1.409999,-0.03546647
-1.410999,-0.03583432
-1.411999,-0.03623284
-1.412999,-0.03660069
-1.413999,-0.03696856
-1.414999,-0.03736707
-1.415999,-0.03773492
-1.416999,-0.03810278
-1.417999,-0.03850129
-1.418999,-0.03886915
-1.419999,-0.03926767
-1.420999,-0.03966618
-1.421999,-0.04003404
-1.422999,-0.04043255
-1.423999,-0.04083106
-1.424999,-0.04119892
-1.425999,-0.04159743
-1.426999,-0.04199595
-1.427999,-0.0423638
-1.428999,-0.04276232
-1.429999,-0.04316083
-1.430999,-0.04355934
-1.431999,-0.04395786
-1.432999,-0.04432571
-1.433999,-0.04472422
-1.434999,-0.04512274
-1.435999,-0.04552125
-1.436999,-0.04588911
-1.437999,-0.04628762
-1.438999,-0.04668614
-1.439999,-0.04708464
-1.440999,-0.04748316
-1.441999,-0.04788167
-1.442999,-0.04828018
-1.443999,-0.0486787
-1.444999,-0.04910786
-1.445999,-0.04950638
-1.446999,-0.04990489
-1.447999,-0.0503034
-1.448999,-0.05070192
-1.449999,-0.05106977
-1.450999,-0.05146828
-1.451999,-0.05189746
-1.452999,-0.05229596
-1.453999,-0.05272513
-1.454999,-0.05312365
-1.455999,-0.05352216
-1.456999,-0.05392068
-1.457999,-0.05434984
-1.458999,-0.05474835
-1.459999,-0.05514687
-1.460999,-0.05554538
-1.461999,-0.05597454
-1.462999,-0.05637306
-1.463999,-0.05677157
-1.464999,-0.05717008
-1.465999,-0.05759925
-1.466999,-0.05799776
-1.467999,-0.05839628
-1.468999,-0.05879479
-1.469999,-0.05922396
-1.470999,-0.05962247
-1.471999,-0.06002098
-1.472999,-0.06045015
-1.473999,-0.06087932
-1.474999,-0.06127783
-1.475999,-0.061707
-1.476999,-0.06210551
-1.477999,-0.06253468
-1.478999,-0.06296384
-1.479999,-0.06333171
-1.480999,-0.06376087
-1.481999,-0.06419004
-1.482999,-0.06458855
-1.483999,-0.06498706
-1.484999,-0.06541623
-1.485999,-0.0658454
-1.486999,-0.06621326
-1.487999,-0.06667308
-1.488999,-0.06707159
-1.489999,-0.06750076
-1.490999,-0.06792993
-1.491999,-0.06832844
-1.492999,-0.06875761
-1.493999,-0.06918678
-1.494999,-0.06958529
-1.495999,-0.07001445
-1.496999,-0.07041297
-1.497999,-0.07084214
-1.498999,-0.0712713
-1.499999,-0.07142458
-1.499001,-0.07102606
-1.498001,-0.0705969
-1.497001,-0.07019839
-1.496001,-0.06979987
-1.495001,-0.06937071
-1.494001,-0.06894153
-1.493001,-0.06851237
-1.492001,-0.0680832
-1.491001,-0.06768469
-1.490001,-0.06725552
-1.489001,-0.06682636
-1.488001,-0.06639718
-1.487001,-0.06596802
-1.486001,-0.06553885
-1.485001,-0.06510969
-1.484001,-0.06468052
-1.483001,-0.06425135
-1.482001,-0.06385284
-1.481001,-0.06342367
-1.480001,-0.0629945
-1.479001,-0.06256533
-1.478001,-0.06213617
-1.477001,-0.061707
-1.476001,-0.06127783
-1.475001,-0.06084866
-1.474001,-0.0604195
-1.473001,-0.06002098
-1.472001,-0.05959181
-1.471001,-0.05916265
-1.470001,-0.05876414
-1.469001,-0.05830431
-1.468001,-0.0579058
-1.467001,-0.05753794
-1.466001,-0.05707812
-1.465001,-0.05664895
-1.464001,-0.05625044
-1.463001,-0.05579061
-1.462001,-0.05539211
-1.461001,-0.05499359
-1.460001,-0.05456442
-1.459001,-0.05413526
-1.458001,-0.05373674
-1.457001,-0.05333823
-1.456001,-0.05290907
-1.455001,-0.05251055
-1.454001,-0.05208138
-1.453001,-0.05165222
-1.452001,-0.0512537
-1.451001,-0.05085519
-1.450001,-0.05042602
-1.449001,-0.05002751
-1.448001,-0.049629
-1.447001,-0.04923048
-1.446001,-0.04880131
-1.445001,-0.0484028
-1.444001,-0.04800429
-1.443001,-0.04757512
-1.442001,-0.04720726
-1.441001,-0.0467781
-1.440001,-0.04637958
-1.439001,-0.04598107
-1.438001,-0.04558256
-1.437001,-0.04518405
-1.436001,-0.04478553
-1.435001,-0.04438702
-1.434001,-0.04401916
-1.433001,-0.04362065
-1.432001,-0.04322214
-1.431001,-0.04285428
-1.430001,-0.04245577
-1.429001,-0.04205726
-1.428001,-0.04165874
-1.427001,-0.04126023
-1.426001,-0.04089237
-1.425001,-0.04049386
-1.424001,-0.04009534
-1.423001,-0.03969683
-1.422001,-0.03935963
-1.421001,-0.03896112
-1.420001,-0.03856261
-1.419001,-0.03819475
-1.418001,-0.03779623
-1.417001,-0.03742838
-1.416001,-0.03706052
-1.415001,-0.036662
-1.414001,-0.03629415
-1.413001,-0.03592629
-1.412001,-0.03555843
-1.411001,-0.03515992
-1.410001,-0.03479206
-1.409001,-0.0344242
-1.408001,-0.03405635
-1.407001,-0.03368849
-1.406001,-0.03332063
-1.405001,-0.03295277
-1.404001,-0.03258491
-1.403001,-0.03221706
-1.402001,-0.0318492
-1.401001,-0.03148134
-1.400001,-0.03114414
-1.399001,-0.03077628
-1.398001,-0.03040842
-1.397001,-0.03007122
-1.396001,-0.02970336
-1.395001,-0.02936616
-1.394001,-0.0289983
-1.393001,-0.0286611
-1.392001,-0.02832389
-1.391001,-0.02798669
-1.390001,-0.02764949
-1.389001,-0.02731228
-1.388001,-0.02697508
-1.387001,-0.02660722
-1.386001,-0.02630067
-1.385001,-0.02596347
-1.384001,-0.02562627
-1.383001,-0.02528906
-1.382001,-0.02495186
-1.381001,-0.02461466
-1.380001,-0.02427745
-1.379001,-0.02397091
-1.378001,-0.0236337
-1.377001,-0.02332716
-1.376001,-0.02302061
-1.375001,-0.0226834
-1.374001,-0.02237686
-1.373001,-0.02207031
-1.372001,-0.02176376
-1.371001,-0.02142656
-1.370001,-0.02112001
-1.369001,-0.02084411
-1.368001,-0.02053757
-1.367001,-0.02023102
-1.366001,-0.01992447
-1.365001,-0.01964858
-1.364001,-0.01934203
-1.363001,-0.01906613
-1.362001,-0.01875959
-1.361001,-0.01848369
-1.360001,-0.0182078
-1.359001,-0.01793191
-1.358001,-0.01765601
-1.357001,-0.01738012
-1.356001,-0.01710423
-1.355001,-0.01682833
-1.354001,-0.01655244
-1.353001,-0.01627655
-1.352001,-0.01600065
-1.351001,-0.01585762
-1.350001,-0.01559399
-1.349001,-0.01534875
-1.348001,-0.01510658
-1.347001,-0.01485521
-1.346001,-0.01460997
-1.345001,-0.01437087
-1.344001,-0.01412563
-1.343001,-0.01389572
-1.342001,-0.0136658
-1.341001,-0.01343589
-1.340001,-0.01321211
-1.339001,-0.0129914
-1.338001,-0.01276762
-1.337001,-0.01254997
-1.336001,-0.01234458
-1.335001,-0.01213306
-1.334001,-0.01192154
-1.333001,-0.01171922
-1.332001,-0.0115169
-1.331001,-0.01131151
-1.330001,-0.01112145
-1.329001,-0.01092526
-1.328001,-0.0107352
-1.327001,-0.01055741
-1.326001,-0.01036735
-1.325001,-0.01018342
-1.324001,-0.01000868
-1.323001,-0.009830886
-1.322001,-0.009662284
-1.321001,-0.009493683
-1.320001,-0.009322016
-1.319001,-0.00916261
-1.318001,-0.009006271
-1.317001,-0.008846866
-1.316001,-0.008690527
-1.315001,-0.008540317
-1.314001,-0.008399305
-1.313001,-0.008252162
-1.312001,-0.00811115
-1.311001,-0.007973203
-1.310001,-0.007838323
-1.309001,-0.007709572
-1.308001,-0.007580821
-1.307001,-0.007458202
-1.306001,-0.007338648
-1.305001,-0.007219094
-1.304001,-0.00709954
-1.303001,-0.006986118
-1.302001,-0.00687576
-1.301001,-0.006765403
-1.300001,-0.006661177
-1.299001,-0.006563081
-1.298001,-0.006458855
-1.297001,-0.006360759
-1.296001,-0.006268795
-1.295001,-0.006167634
-1.294001,-0.006078735
-1.293001,-0.005992902
-1.292001,-0.005900937
-1.291001,-0.005818169
-1.290001,-0.005735401
-1.289001,-0.005652633
-1.288001,-0.005575996
-1.287001,-0.005496293
-1.286001,-0.005416591
-1.285001,-0.005352216
-1.284001,-0.005278645
-1.283001,-0.005211203
-1.282001,-0.005146828
-1.281001,-0.005076322
-1.280001,-0.005011947
-1.279001,-0.004953703
-1.278001,-0.004892393
-1.277001,-0.004828018
-1.276001,-0.004775905
-1.275001,-0.004714595
-1.274001,-0.004659417
-1.273001,-0.004610369
-1.272001,-0.00455519
-1.271001,-0.004506143
-1.270001,-0.004457095
-1.269001,-0.004411113
-1.268001,-0.004358999
-1.267001,-0.004316083
-1.266001,-0.004270101
-1.265001,-0.004224118
-1.264001,-0.004184267
-1.263001,-0.00414135
-1.262001,-0.004098434
-1.261001,-0.004064713
-1.260001,-0.004018731
-1.259001,-0.003981945
-1.258001,-0.003945159
-1.257001,-0.003908373
-1.256001,-0.003871588
-1.255001,-0.003837867
-1.254001,-0.003804147
-1.253001,-0.003770427
-1.252001,-0.003736707
-1.251001,-0.003702986
-1.250001,-0.003672331
-1.249001,-0.003644742
-1.248001,-0.003611021
-1.247001,-0.003580367
-1.246001,-0.003552777
-1.245001,-0.003525188
-1.244001,-0.003494533
-1.243001,-0.003466944
-1.242001,-0.00344242
-1.241001,-0.003411765
-1.240001,-0.003387242
-1.239001,-0.003365783
-1.238001,-0.003335128
-1.237001,-0.003310604
-1.236001,-0.003289146
-1.235001,-0.003264622
-1.234001,-0.003240098
-1.233001,-0.003212509
-1.232001,-0.003194116
-1.231001,-0.003169592
-1.230001,-0.003148134
-1.229001,-0.003126675
-1.228001,-0.003102152
-1.227001,-0.003083759
-1.226001,-0.0030623
-1.225001,-0.003040842
-1.224001,-0.003022449
-1.223001,-0.003004056
-1.222001,-0.002979532
-1.221001,-0.00296727
-1.220001,-0.002942747
-1.219001,-0.002924354
-1.218001,-0.002912092
-1.217001,-0.002884502
-1.216001,-0.002869175
-1.215001,-0.002853847
-1.214001,-0.002832389
-1.213001,-0.002823193
-1.212001,-0.002801734
-1.211001,-0.002780276
-1.210001,-0.002768014
-1.209001,-0.002749621
-1.208001,-0.002734293
-1.207001,-0.002722032
-1.206001,-0.002700574
-1.205001,-0.002685246
-1.204001,-0.002672984
-1.203001,-0.002657657
-1.202001,-0.002639264
-1.201001,-0.002627002
-1.200001,-0.002611674
-1.199001,-0.002593281
-1.198001,-0.00258102
-1.197001,-0.002571823
-1.196001,-0.00255343
-1.195001,-0.002541168
-1.194001,-0.002525841
-1.193001,-0.002510513
-1.192001,-0.002498251
-1.191001,-0.002482924
-1.190001,-0.002470662
-1.189001,-0.0024584
-1.188001,-0.002446138
-1.187001,-0.002430811
-1.186001,-0.002418549
-1.185001,-0.002406287
-1.184001,-0.00239096
-1.183001,-0.002378698
-1.182001,-0.002369501
-1.181001,-0.002354174
-1.180001,-0.002344977
-1.179001,-0.002332716
-1.178001,-0.002317388
-1.177001,-0.002308191
-1.176001,-0.00229593
-1.175001,-0.002283668
-1.174001,-0.002274471
-1.173001,-0.002262209
-1.172001,-0.002253013
-1.171001,-0.002237685
-1.170001,-0.002228489
-1.169001,-0.002219293
-1.168001,-0.002207031
-1.167001,-0.002194769
-1.166001,-0.002188638
-1.165001,-0.002176376
-1.164001,-0.002164114
-1.163001,-0.002157983
-1.162001,-0.002142655
-1.161001,-0.002133459
-1.160001,-0.002130394
-1.159001,-0.002108935
-1.158001,-0.00210587
-1.157001,-0.002093608
-1.156001,-0.002081346
-1.155001,-0.002075215
-1.154001,-0.002066019
-1.153001,-0.002050691
-1.152001,-0.002047626
-1.151001,-0.002035364
-1.150001,-0.002026167
-1.149001,-0.002020036
-1.148001,-0.002007774
-1.147001,-0.001995512
-1.146001,-0.001989381
-1.145001,-0.001980185
-1.144001,-0.001974054
-1.143001,-0.001967923
-1.142001,-0.00194953
-1.141001,-0.001946465
-1.140001,-0.001937268
-1.139001,-0.001925006
-1.138001,-0.00191581
-1.137001,-0.001912744
-1.136001,-0.001900482
-1.135001,-0.001894351
-1.134001,-0.001885155
-1.133001,-0.001875959
-1.132001,-0.001866762
-1.131001,-0.001860631
-1.130001,-0.0018545
-1.129001,-0.001845304
-1.128001,-0.001836107
-1.127001,-0.001829976
-1.126001,-0.001817714
-1.125001,-0.001811583
-1.124001,-0.001805453
-1.123001,-0.001796256
-1.122001,-0.00178706
-1.121001,-0.001780929
-1.120001,-0.001771732
-1.119001,-0.001765601
-1.118001,-0.001756405
-1.117001,-0.001747208
-1.116001,-0.001741077
-1.115001,-0.001734946
-1.114001,-0.00172575
-1.113001,-0.001716554
-1.112001,-0.001710422
-1.111001,-0.001701226
-1.110001,-0.001695095
-1.109001,-0.00169203
-1.108001,-0.001673637
-1.107001,-0.001673637
-1.106001,-0.00166444
-1.105001,-0.001652178
-1.104001,-0.001649113
-1.103001,-0.001642982
-1.102001,-0.00163072
-1.101001,-0.001627655
-1.100001,-0.001618458
-1.099001,-0.001606196
-1.098001,-0.001635423
-1.097001,-0.001632971
-1.096001,-0.001621016
-1.095001,-0.001613045
-1.094001,-0.001608141
-1.093001,-0.001596492
-1.092001,-0.001591587
-1.091001,-0.001587602
-1.090001,-0.001573807
-1.089001,-0.001571048
-1.088001,-0.00156645
-1.087001,-0.001553269
-1.086001,-0.001551429
-1.085001,-0.001544992
-1.084001,-0.001530584
-1.083001,-0.001528132
-1.082001,-0.001523533
-1.081001,-0.001509432
-1.080001,-0.001507593
-1.079001,-0.001502688
-1.078001,-0.001488587
-1.077001,-0.001484602
-1.076001,-0.001480003
-1.075001,-0.001469887
-1.074001,-0.001464676
-1.073001,-0.001457012
-1.072001,-0.001450268
-1.071001,-0.001442298
-1.070001,-0.00143678
-1.069001,-0.001428503
-1.068001,-0.001422679
-1.067001,-0.001418387
-1.066001,-0.001408578
-1.065001,-0.001403366
-1.064001,-0.001399381
-1.063001,-0.001388652
-1.062001,-0.00138436
-1.061001,-0.001379762
-1.060001,-0.001368113
-1.059001,-0.001363209
-1.058001,-0.00135861
-1.057001,-0.001348801
-1.056001,-0.001343283
-1.055001,-0.001338072
-1.054001,-0.001329488
-1.053001,-0.001323664
-1.052001,-0.00131692
-1.051001,-0.001309563
-1.050001,-0.001305577
-1.049001,-0.001301286
-1.048001,-0.001289637
-1.047001,-0.001287185
-1.046001,-0.00128044
-1.045001,-0.001271551
-1.044001,-0.00126542
-1.043001,-0.001261435
-1.042001,-0.001252238
-1.041001,-0.001246414
-1.040001,-0.001241202
-1.039001,-0.001233845
-1.038001,-0.001225262
-1.037001,-0.001220051
-1.036001,-0.001215759
-1.035001,-0.001206256
-1.034001,-0.001201351
-1.033001,-0.00119614
-1.032001,-0.001185411
-1.031001,-0.001182652
-1.030001,-0.001175908
-1.029001,-0.001166405
-1.028001,-0.001165485
-1.027001,-0.001156288
-1.026001,-0.001150158
-1.025001,-0.001146479
-1.024001,-0.001136976
-1.023001,-0.001129619
-1.022001,-0.001127473
-1.021001,-0.001120116
-1.020001,-0.001110613
-1.019001,-0.00110816
-1.018001,-0.001101723
-1.017001,-0.00109314
-1.016001,-0.001089154
-1.015001,-0.001083943
-1.014001,-0.00107444
-1.013001,-0.001071375
-1.012001,-0.001064324
-1.011001,-0.001056967
-1.010001,-0.001052369
-1.009001,-0.001046851
-1.008001,-0.001039494
-1.007001,-0.001034282
-1.006001,-0.001029071
-1.005001,-0.00102202
-1.004001,-0.00101497
-1.003001,-0.001012211
-1.002001,-0.001004547
-1.001001,-0.0009974964
-1.000001,-0.0009935113
-0.9990011,-0.0009858476
-0.9980011,-0.0009800232
-0.9970011,-0.0009769576
-0.9960011,-0.0009677612
-0.9950011,-0.0009619368
-0.9940011,-0.000957032
-0.9930011,-0.0009512077
-0.9920011,-0.0009444635
-0.9910011,-0.0009398654
-0.9900011,-0.0009340409
-0.9890011,-0.0009266838
-0.9880011,-0.0009214724
-0.9870011,-0.0009168742
-0.9860011,-0.000908904
-0.9850011,-0.0009036926
-0.9840011,-0.0009000141
-0.9830011,-0.0008923503
-0.9820011,-0.0008856063
-0.9810011,-0.0008813146
-0.9800011,-0.0008724247
-0.9790011,-0.0008693592
-0.9780011,-0.0008656807
-0.9770011,-0.000855258
-0.9760011,-0.0008528056
-0.9750011,-0.000848514
-0.9740011,-0.0008390109
-0.9730011,-0.0008341062
-0.9720011,-0.0008288948
-0.9710011,-0.0008218443
-0.9700011,-0.0008160198
-0.9690011,-0.0008117282
-0.9680011,-0.0008059037
-0.9670011,-0.0007997728
-0.9660011,-0.0007936418
-0.9650011,-0.000788737
-0.9640011,-0.0007804602
-0.9630011,-0.0007764751
-0.9620011,-0.0007706507
-0.9610011,-0.0007639066
-0.9600011,-0.0007590018
-0.9590011,-0.0007544036
-0.9580011,-0.000747353
-0.9570011,-0.0007427548
-0.9560011,-0.0007353976
-0.9550011,-0.0007292667
-0.9540011,-0.0007258946
-0.9530011,-0.0007185375
-0.9520011,-0.0007117934
-0.9510011,-0.000709341
-0.9500011,-0.000702597
-0.9490011,-0.0006961594
-0.9480011,-0.0006909482
-0.9470011,-0.0006851237
-0.9460011,-0.0006796059
-0.9450011,-0.0006750076
-0.9440011,-0.0006691832
-0.9430011,-0.000661213
-0.9420011,-0.0006593736
-0.9410011,-0.0006529361
-0.9400011,-0.0006434331
-0.9390011,-0.0006412873
-0.9380011,-0.0006357695
-0.9370011,-0.0006287188
-0.9360011,-0.0006253468
-0.9350011,-0.0006192158
-0.9340011,-0.0006121653
-0.9330011,-0.0006087932
-0.9320011,-0.0006023557
-0.9310011,-0.0005965313
-0.9300011,-0.0005913199
-0.9290011,-0.0005867218
-0.9280011,-0.0005799776
-0.9270011,-0.0005762991
-0.9260011,-0.0005698616
-0.9250011,-0.0005643437
-0.9240011,-0.0005591324
-0.9230011,-0.0005542276
-0.9220011,-0.0005468705
-0.9210011,-0.0005419657
-0.9200011,-0.0005385936
-0.9190011,-0.0005306234
-0.9180011,-0.0005257186
-0.9170011,-0.00052204
-0.9160011,-0.0005134566
-0.9150011,-0.0005085519
-0.9140011,-0.0005064061
-0.9130011,-0.0004969031
-0.9120011,-0.0004935311
-0.9110011,-0.0004892393
-0.9100011,-0.0004815757
-0.9090011,-0.0004757512
-0.9080011,-0.0004732989
-0.9070011,-0.0004659417
-0.9060011,-0.0004604238
-0.9050011,-0.0004561322
-0.9040011,-0.0004500012
-0.9030011,-0.0004438702
-0.9020011,-0.0004408048
-0.9010011,-0.0004325279
-0.9000011,-0.0004276232
-0.8990011,-0.0004227184
-0.8980011,-0.0004150547
-0.8970011,-0.0004095368
-0.8960011,-0.0004058582
-0.8950011,-0.0003985011
-0.8940011,-0.0003929832
-0.8930011,-0.0003889981
-0.8920011,-0.0003807213
-0.8910011,-0.0003758165
-0.8900011,-0.0003721379
-0.8890011,-0.0003629415
-0.8880011,-0.0003592629
-0.8870011,-0.000353745
-0.8860011,-0.0003448552
-0.8850011,-0.0003405634
-0.8840011,-0.0003350456
-0.8830011,-0.0003267688
-0.8820011,-0.0003230902
-0.8810011,-0.0003172658
-0.8800011,-0.000308989
-0.8790011,-0.0003050039
-0.8780011,-0.000299486
-0.8770011,-0.0002896764
-0.8760011,-0.0002856913
-0.8750011,-0.0002792538
-0.8740011,-0.0002718967
-0.8730011,-0.0002660722
-0.8720011,-0.000261474
-0.8710011,-0.0002522776
-0.8700011,-0.0002464531
-0.8690011,-0.0002412418
-0.8680011,-0.0002323519
-0.8670011,-0.0002268341
-0.8660011,-0.0002219293
-0.8650011,-0.0002124263
-0.8640011,-0.000207215
-0.8630011,-0.000201084
-0.8620011,-0.0001909679
-0.8610011,-0.0001866762
-0.8600011,-0.0001796256
-0.8590011,-0.0001713488
-0.8580011,-0.0001661375
-0.8570011,-0.0001587803
-0.8560011,-0.0001508101
-0.8550011,-0.0001437595
-0.8540011,-0.0001396929
-0.8530011,-0.0001331327
-0.8520011,-0.0001244574
-0.8510011,-0.0001189702
-0.8500011,-0.0001108467
-0.8490011,-0.0001029991
-0.8480011,-9.717463E-05
-0.8470011,-8.911241E-05
-0.8460011,-8.013054E-05
-0.8450011,-7.375435E-05
-0.8440011,-6.560016E-05
-0.8430011,-5.799776E-05
-0.8420011,-5.165222E-05
-0.8410011,-4.340606E-05
-0.8400011,-3.390307E-05
-0.8390011,-2.859978E-05
-0.8380011,-1.817714E-05
-0.8370011,-1.017623E-05
-0.8360011,-2.665802E-06
-0.8350011,4.967249E-06
-0.8340011,1.419435E-05
-0.8330011,2.161282E-05
-0.8320011,2.884736E-05
-0.8310011,3.79825E-05
-0.8300011,4.699502E-05
-0.8290011,5.465872E-05
-0.8280011,6.27516E-05
-0.8270011,7.081382E-05
-0.8260011,7.961175E-05
-0.8250011,8.893081E-05
-0.8240011,9.61347E-05
-0.8230011,0.0001043195
-0.8220011,0.0001132707
-0.8210011,0.000121333
-0.8200011,0.0001300083
-0.8190011,0.0001404616
-0.8180011,0.0001479413
-0.8170011,0.0001563408
-0.8160011,0.0001649854
-0.8150011,0.0001736301
-0.8140011,0.0001816923
-0.8130011,0.0001908888
-0.8120011,0.00019984
-0.8110011,0.0002075343
-0.8100011,0.0002170067
-0.8090011,0.0002254368
-0.8080011,0.0002337749
-0.8070011,0.0002431859
-0.8060011,0.0002522597
-0.8050011,0.0002594636
-0.8040011,0.0002692119
-0.8030011,0.0002788681
-0.8020011,0.0002857042
-0.8010011,0.0002995093
