EXPID. 1027
[电化学]: CV : 0 >> 0.7 >> 0 >> 0(V) @ 0.01(V/s) X 10(Seg)
起始电位 (V),0
上限电位 (V),0.7
下限电位 (V),0
终止电位 (V),0
扫速 (V/s),0.01
电解液 信息:
KOH,1
0.001,1.330124E-05
0.002,1.400631E-05
0.003,1.450291E-05
0.004,1.500259E-05
0.005,1.546241E-05
0.006,1.597128E-05
0.007,1.639432E-05
0.008,1.672845E-05
0.009,1.705646E-05
0.01,1.735688E-05
0.011,1.76573E-05
0.012,1.80037E-05
0.013,1.833477E-05
0.014,1.85984E-05
0.015,1.900304E-05
0.016,1.938929E-05
0.017,1.968971E-05
0.018,2.00637E-05
0.019,2.025376E-05
0.02,2.055724E-05
0.021,2.080248E-05
0.022,2.105998E-05
0.023,2.140638E-05
0.024,2.17865E-05
0.025,2.210531E-05
0.026,2.23996E-05
0.027,2.262951E-05
0.028,2.295751E-05
0.029,2.315677E-05
0.03,2.375866E-05
0.031,2.40039E-05
0.032,2.437175E-05
0.033,2.46783E-05
0.034,2.49542E-05
0.035,2.519943E-05
0.036,2.553664E-05
0.037,2.568991E-05
0.038,2.587384E-05
0.039,2.62417E-05
0.04,2.645628E-05
0.041,2.685479E-05
0.042,2.722265E-05
0.043,2.737593E-05
0.044,2.768247E-05
0.045,2.789706E-05
0.046,2.808099E-05
0.047,2.841819E-05
0.048,2.863277E-05
0.049,2.887801E-05
0.05,2.915391E-05
0.051,2.952177E-05
0.052,2.988962E-05
0.053,3.010421E-05
0.054,3.03801E-05
0.055,3.059468E-05
0.056,3.083992E-05
0.057,3.10545E-05
0.058,3.13304E-05
0.059,3.16676E-05
0.06,3.212742E-05
0.061,3.240332E-05
0.062,3.267921E-05
0.063,3.304707E-05
0.064,3.335362E-05
0.065,3.359886E-05
0.066,3.39054E-05
0.067,3.41813E-05
0.068,3.464112E-05
0.069,3.503963E-05
0.07,3.540749E-05
0.071,3.586731E-05
0.072,3.614321E-05
0.073,3.648041E-05
0.074,3.687892E-05
0.075,3.721613E-05
0.076,3.767595E-05
0.077,3.810511E-05
0.078,3.856494E-05
0.079,3.908607E-05
0.08,3.957655E-05
0.081,4.009768E-05
0.082,4.058816E-05
0.083,4.110929E-05
0.084,4.166107E-05
0.085,4.21209E-05
0.086,4.270334E-05
0.087,4.337774E-05
0.088,4.386822E-05
0.089,4.451197E-05
0.09,4.521704E-05
0.091,4.576882E-05
0.092,4.656585E-05
0.093,4.724025E-05
0.094,4.791466E-05
0.095,4.8773E-05
0.096,4.960068E-05
0.097,5.03977E-05
0.098,5.128669E-05
0.099,5.217568E-05
0.1,5.318729E-05
0.101,5.413758E-05
0.102,5.530247E-05
0.103,5.625277E-05
0.104,5.723373E-05
0.105,5.839861E-05
0.106,5.950218E-05
0.107,6.063641E-05
0.108,6.189326E-05
0.109,6.30888E-05
0.11,6.43763E-05
0.111,6.584774E-05
0.112,6.710459E-05
0.113,6.85147E-05
0.114,7.013941E-05
0.115,7.167216E-05
0.116,7.348078E-05
0.117,7.519746E-05
0.118,7.694478E-05
0.119,7.884538E-05
0.12,8.05927E-05
0.121,8.258527E-05
0.122,8.463914E-05
0.123,8.660105E-05
0.124,8.893081E-05
0.125,9.126058E-05
0.126,9.365166E-05
0.127,9.625732E-05
0.128,9.867905E-05
0.129,0.0001014073
0.13,0.0001041969
0.131,0.0001069558
0.132,0.0001100826
0.133,0.0001130868
0.134,0.0001164282
0.135,0.0001199841
0.136,0.0001232642
0.137,0.0001269121
0.138,0.000130652
0.139,0.0001343919
0.14,0.0001385916
0.141,0.0001426994
0.142,0.0001469297
0.143,0.000151528
0.144,0.0001560955
0.145,0.0001608777
0.146,0.0001659357
0.147,0.0001709631
0.148,0.0001762664
0.149,0.0001815084
0.15,0.0001870569
0.151,0.0001929426
0.152,0.0001986444
0.153,0.0002047754
0.154,0.000211121
0.155,0.0002174359
0.156,0.0002242106
0.157,0.0002309853
0.158,0.0002378213
0.159,0.0002449026
0.16,0.0002520451
0.161,0.0002594023
0.162,0.000266974
0.163,0.0002745458
0.164,0.000282516
0.165,0.0002902717
0.166,0.0003022683
0.167,0.0003102385
0.168,0.0003185153
0.169,0.0003270987
0.17,0.000335682
0.171,0.0003439588
0.172,0.0003531553
0.173,0.0003617386
0.174,0.0003706285
0.175,0.0003795184
0.176,0.0003884083
0.177,0.0003976048
0.178,0.0004064947
0.179,0.0004156911
0.18,0.0004248876
0.181,0.000434084
0.182,0.0004432805
0.183,0.0004524769
0.184,0.0004616734
0.185,0.0004708698
0.186,0.0004800663
0.187,0.0004892627
0.188,0.0004984592
0.189,0.0005073491
0.19,0.0005165455
0.191,0.000525742
0.192,0.0005349384
0.193,0.0005444415
0.194,0.0005536379
0.195,0.0005625277
0.196,0.0005720307
0.197,0.0005812272
0.198,0.0005904236
0.199,0.0005999266
0.2,0.0006094296
0.201,0.0006189327
0.202,0.0006290487
0.203,0.0006388583
0.204,0.0006489744
0.205,0.0006597036
0.206,0.0006701262
0.207,0.0006811619
0.208,0.0006921976
0.209,0.0007038465
0.21,0.0007158018
0.211,0.0007277572
0.212,0.0007409389
0.213,0.0007538139
0.214,0.000767302
0.215,0.0007817098
0.216,0.0007961175
0.217,0.000811445
0.218,0.0008273855
0.219,0.000843326
0.22,0.0008614123
0.221,0.0008788856
0.222,0.0008972785
0.223,0.0009175107
0.224,0.0009371297
0.225,0.0009582816
0.226,0.0009806596
0.227,0.001002731
0.228,0.001027561
0.229,0.001052085
0.23,0.001077529
0.231,0.001105425
0.232,0.001132708
0.233,0.001162136
0.234,0.001193098
0.235,0.001224059
0.236,0.001257473
0.237,0.001291806
0.238,0.001327059
0.239,0.001364765
0.24,0.001403083
0.241,0.001442934
0.242,0.001484625
0.243,0.001528155
0.244,0.00157383
0.245,0.001619813
0.246,0.001668247
0.247,0.001719441
0.248,0.001770941
0.249,0.00182612
0.25,0.001883138
0.251,0.001941075
0.252,0.002002998
0.253,0.002065534
0.254,0.002130829
0.255,0.002199802
0.256,0.002270615
0.257,0.002343573
0.258,0.002419597
0.259,0.002497154
0.26,0.002579922
0.261,0.002663303
0.262,0.002750669
0.263,0.002842021
0.264,0.002933985
0.265,0.003031468
0.266,0.003163695
0.267,0.003264856
0.268,0.003372148
0.269,0.003482505
0.27,0.003595928
0.271,0.003715482
0.272,0.003835035
0.273,0.00396072
0.274,0.00408947
0.275,0.004224352
0.276,0.004362299
0.277,0.004503311
0.278,0.004647388
0.279,0.004800662
0.28,0.004950871
0.281,0.005110276
0.282,0.005272747
0.283,0.005438283
0.284,0.005613015
0.285,0.005787748
0.286,0.005968611
0.287,0.006155606
0.288,0.0063426
0.289,0.006535726
0.29,0.006734982
0.291,0.006937304
0.292,0.007145756
0.293,0.007357275
0.294,0.007568793
0.295,0.007792573
0.296,0.008016353
0.297,0.008240134
0.298,0.008476176
0.299,0.008712218
0.3,0.008951326
0.301,0.009193499
0.302,0.009444868
0.303,0.009693173
0.304,0.009944541
0.305,0.01020817
0.306,0.01046567
0.307,0.01073237
0.308,0.0110052
0.309,0.01126883
0.31,0.01153859
0.311,0.01181755
0.312,0.01209038
0.313,0.0123724
0.314,0.01265443
0.315,0.01293339
0.316,0.01322154
0.317,0.01350357
0.318,0.01379172
0.319,0.01407988
0.32,0.01436803
0.321,0.01465925
0.322,0.01494741
0.323,0.01523863
0.324,0.01553292
0.325,0.01581801
0.326,0.01611229
0.327,0.01640045
0.328,0.0166886
0.329,0.01697982
0.33,0.01727105
0.331,0.01755307
0.332,0.01783816
0.333,0.01812018
0.334,0.01839914
0.335,0.01868117
0.336,0.01896013
0.337,0.01923602
0.338,0.01950885
0.339,0.01977861
0.34,0.02004837
0.341,0.02030894
0.342,0.0205787
0.343,0.02083007
0.344,0.02108144
0.345,0.02134201
0.346,0.02158418
0.347,0.02182022
0.348,0.02206853
0.349,0.02228924
0.35,0.02251915
0.351,0.02274906
0.352,0.02295751
0.353,0.0231721
0.354,0.02338055
0.355,0.02356755
0.356,0.02376987
0.357,0.0239538
0.358,0.0241224
0.359,0.02430633
0.36,0.02446267
0.361,0.02461901
0.362,0.02476615
0.363,0.0249041
0.364,0.02503898
0.365,0.0251616
0.366,0.02528115
0.367,0.02538231
0.368,0.02548041
0.369,0.02557544
0.37,0.02564288
0.371,0.02571645
0.372,0.02577776
0.373,0.02582374
0.374,0.02586666
0.375,0.02589731
0.376,0.02591877
0.377,0.0259249
0.378,0.0259341
0.379,0.02592184
0.38,0.02590038
0.381,0.02587586
0.382,0.02582681
0.383,0.02577469
0.384,0.02570725
0.385,0.02561835
0.386,0.02553252
0.387,0.02542523
0.388,0.02529954
0.389,0.02516773
0.39,0.02502365
0.391,0.02485505
0.392,0.02468338
0.393,0.02449639
0.394,0.02428794
0.395,0.02407335
0.396,0.02385264
0.397,0.02361353
0.398,0.02336216
0.399,0.02310772
0.4,0.02282877
0.401,0.02254981
0.402,0.02226165
0.403,0.02196123
0.404,0.02166082
0.405,0.02134507
0.406,0.0210232
0.407,0.02070438
0.408,0.02037331
0.409,0.02005144
0.41,0.01972956
0.411,0.01939236
0.412,0.01907355
0.413,0.01873635
0.414,0.01841447
0.415,0.01809259
0.416,0.01776765
0.417,0.01746724
0.418,0.01715149
0.419,0.01684801
0.42,0.01655985
0.421,0.01625024
0.422,0.01596821
0.423,0.01568926
0.424,0.0153919
0.425,0.01512214
0.426,0.01485851
0.427,0.01457649
0.428,0.01432512
0.429,0.01407681
0.43,0.01381011
0.431,0.01357407
0.432,0.0133319
0.433,0.0130836
0.434,0.01285368
0.435,0.01262377
0.436,0.01239999
0.437,0.01217928
0.438,0.01196776
0.439,0.01175931
0.44,0.01156312
0.441,0.01132707
0.442,0.01111862
0.443,0.01090097
0.444,0.01070785
0.445,0.01052085
0.446,0.01033692
0.447,0.01016832
0.448,0.01000279
0.449,0.009843381
0.45,0.009690107
0.451,0.009542963
0.452,0.009401952
0.453,0.009264005
0.454,0.00913832
0.455,0.009012635
0.456,0.008893081
0.457,0.00878579
0.458,0.008678498
0.459,0.008580402
0.46,0.008488438
0.461,0.008399539
0.462,0.008322901
0.463,0.00824933
0.464,0.008175759
0.465,0.008120581
0.466,0.008071532
0.467,0.008019419
0.468,0.007988765
0.469,0.007958109
0.47,0.00793052
0.471,0.007924389
0.472,0.007912127
0.473,0.007915192
0.474,0.007939717
0.475,0.007961174
0.476,0.00799183
0.477,0.008037812
0.478,0.008089925
0.479,0.0081543
0.48,0.008227872
0.481,0.008319836
0.482,0.0084118
0.483,0.008519093
0.484,0.008641711
0.485,0.008764331
0.486,0.00890841
0.487,0.009058618
0.488,0.009218022
0.489,0.009398886
0.49,0.009582815
0.491,0.009769809
0.492,0.009984394
0.493,0.01019285
0.494,0.01041356
0.495,0.01065267
0.496,0.01089178
0.497,0.01114008
0.498,0.01140065
0.499,0.01166734
0.5,0.01193711
0.501,0.01222526
0.502,0.01251035
0.503,0.01280464
0.504,0.01310812
0.505,0.0134208
0.506,0.01373041
0.507,0.01405229
0.508,0.01437723
0.509,0.01470217
0.51,0.01503937
0.511,0.01538884
0.512,0.01572604
0.513,0.01608164
0.514,0.01643417
0.515,0.0167775
0.516,0.01715149
0.517,0.01750402
0.518,0.01786881
0.519,0.018252
0.52,0.01861679
0.521,0.01899385
0.522,0.01938316
0.523,0.01975409
0.524,0.02014034
0.525,0.02053885
0.526,0.02091897
0.527,0.02130829
0.528,0.02170986
0.529,0.02209612
0.53,0.02249769
0.531,0.02290847
0.532,0.02330085
0.533,0.02370856
0.534,0.0241224
0.535,0.02452091
0.536,0.02492862
0.537,0.02534553
0.538,0.02574404
0.539,0.02616095
0.54,0.02658092
0.541,0.02698863
0.542,0.02741473
0.543,0.02783163
0.544,0.02824241
0.545,0.02867464
0.546,0.02909461
0.547,0.02950845
0.548,0.02994682
0.549,0.03114647
0.55,0.03154498
0.551,0.03200481
0.552,0.03243398
0.553,0.03286314
0.554,0.03329231
0.555,0.03372148
0.556,0.03415065
0.557,0.03461047
0.558,0.03503963
0.559,0.0354688
0.56,0.03592863
0.561,0.03638845
0.562,0.03681761
0.563,0.03724678
0.564,0.03770661
0.565,0.03813577
0.566,0.03859559
0.567,0.03905542
0.568,0.03951524
0.569,0.03994441
0.57,0.04040423
0.571,0.04086405
0.572,0.04129322
0.573,0.04175304
0.574,0.04221286
0.575,0.04264203
0.576,0.04310185
0.577,0.04356168
0.578,0.0440215
0.579,0.04448132
0.58,0.04494114
0.581,0.04537031
0.582,0.04583013
0.583,0.04632061
0.584,0.04674978
0.585,0.0472096
0.586,0.04770008
0.587,0.04812925
0.588,0.04858907
0.589,0.04907954
0.59,0.04950871
0.591,0.04996854
0.592,0.05042836
0.593,0.05088818
0.594,0.051348
0.595,0.05183848
0.596,0.0522983
0.597,0.05272747
0.598,0.05321795
0.599,0.05370842
0.6,0.05416824
0.601,0.05462807
0.602,0.05508789
0.603,0.05554771
0.604,0.05603819
0.605,0.05649801
0.606,0.05695784
0.607,0.05741766
0.608,0.05790814
0.609,0.05836796
0.61,0.05882778
0.611,0.05931826
0.612,0.05977808
0.613,0.0602379
0.614,0.06072838
0.615,0.0611882
0.616,0.06167868
0.617,0.06216915
0.618,0.06262898
0.619,0.0630888
0.62,0.06357928
0.621,0.0640391
0.622,0.06449892
0.623,0.0649894
0.624,0.06547987
0.625,0.0659397
0.626,0.06643017
0.627,0.06688999
0.628,0.06734982
0.629,0.0678403
0.63,0.06830012
0.631,0.06875994
0.632,0.06928107
0.633,0.0697409
0.634,0.07020072
0.635,0.0706912
0.636,0.07118168
0.637,0.0716415
0.638,0.07213198
0.639,0.0725918
0.64,0.07308228
0.641,0.0735421
0.642,0.07403257
0.643,0.07449239
0.644,0.07498287
0.645,0.07547335
0.646,0.07593317
0.647,0.07642365
0.648,0.07691412
0.649,0.0774046
0.65,0.07786443
0.651,0.0783549
0.652,0.07881473
0.653,0.0793052
0.654,0.07979568
0.655,0.0802555
0.656,0.08074598
0.657,0.08123646
0.658,0.08169628
0.659,0.08221742
0.66,0.08267724
0.661,0.08313706
0.662,0.08365819
0.663,0.08411801
0.664,0.08460849
0.665,0.08509897
0.666,0.08558945
0.667,0.08607992
0.668,0.0865704
0.669,0.08703022
0.67,0.0875207
0.671,0.08804183
0.672,0.08850165
0.673,0.08899213
0.674,0.08948261
0.675,0.08997308
0.676,0.0904329
0.677,0.09095404
0.678,0.09141386
0.679,0.09190433
0.68,0.09242547
0.681,0.09288529
0.682,0.09337576
0.683,0.09386625
0.684,0.09432607
0.685,0.09481654
0.686,0.09530702
0.687,0.09576684
0.688,0.09625732
0.689,0.09671714
0.69,0.09720763
0.691,0.09763679
0.692,0.09815792
0.693,0.09861775
0.694,0.09907757
0.695,0.09956805
0.696,0.1000279
0.697,0.1005183
0.698,0.1010088
0.699,0.1014686
0.7,0.1015913
0.6990001,0.1011008
0.6980001,0.1006103
0.6970001,0.1000892
0.6960001,0.09962936
0.6950001,0.09913888
0.6940001,0.09861775
0.6930001,0.09815792
0.6920001,0.09766745
0.6910001,0.09717696
0.6900001,0.09668649
0.6890001,0.09622667
0.6880001,0.09573619
0.6870001,0.09524571
0.6860001,0.09478589
0.6850001,0.09429541
0.6840001,0.09383559
0.6830001,0.09334511
0.6820001,0.09285464
0.6810001,0.09239481
0.6800001,0.09193499
0.6790001,0.09144451
0.6780001,0.09098469
0.6770001,0.09052487
0.6760001,0.09006505
0.6750001,0.08960523
0.6740001,0.08914541
0.6730001,0.08865493
0.6720001,0.08819511
0.6710001,0.08773528
0.6700001,0.08727546
0.6690001,0.08681564
0.6680001,0.08632516
0.6670001,0.08589599
0.6660001,0.08540551
0.6650001,0.08494569
0.6640001,0.08448587
0.6630001,0.08399539
0.6620001,0.08353557
0.6610001,0.0831064
0.6600001,0.08261593
0.6590001,0.08215611
0.6580001,0.08169628
0.6570001,0.08123646
0.6560001,0.08080729
0.6550001,0.08034747
0.6540001,0.07988765
0.6530001,0.07942782
0.6520001,0.078968
0.6510001,0.07850818
0.6500001,0.0780177
0.6490001,0.07755788
0.6480001,0.07709806
0.6470001,0.07663824
0.6460001,0.07620906
0.6450001,0.07568794
0.6440001,0.07525877
0.6430001,0.0748296
0.6420001,0.07430847
0.6410001,0.07384864
0.6400001,0.07338882
0.6390001,0.07289835
0.6380001,0.07243852
0.6370001,0.07200935
0.6360001,0.07151888
0.6350001,0.07105906
0.6340001,0.07059924
0.6330001,0.07010876
0.6320001,0.06964894
0.6310001,0.06918911
0.6300001,0.06872929
0.6290001,0.06826947
0.6280001,0.06780964
0.6270001,0.06731917
0.6260001,0.06685934
0.6250001,0.06639952
0.6240001,0.0659397
0.6230001,0.06547987
0.6220001,0.06505071
0.6210001,0.06456023
0.6200001,0.06410041
0.6190001,0.06367125
0.6180001,0.06318077
0.6170001,0.06272095
0.6160001,0.06226112
0.6150001,0.06177064
0.6140001,0.06131082
0.6130001,0.06088165
0.6120001,0.06039118
0.6110001,0.059962
0.6100001,0.05950218
0.6090001,0.05901171
0.6080001,0.05858254
0.6070001,0.05812272
0.6060001,0.05763224
0.6050001,0.05720307
0.6040001,0.05674325
0.6030001,0.05625277
0.6020001,0.05582361
0.6010001,0.05536379
0.6000001,0.05490396
0.5990001,0.05444414
0.5980001,0.05401497
0.5970001,0.05352449
0.5960001,0.05309533
0.5950001,0.0526355
0.5940001,0.05217568
0.5930001,0.05174651
0.5920001,0.05128669
0.5910001,0.05082687
0.5900001,0.0503977
0.5890001,0.04993788
0.5880001,0.04950871
0.5870001,0.04904889
0.5860001,0.04858907
0.5850001,0.0481599
0.5840001,0.04773073
0.5830001,0.04724025
0.5820001,0.04681109
0.5810001,0.04635127
0.5800001,0.04589145
0.5790001,0.04543162
0.5780001,0.04500245
0.5770001,0.04454263
0.5760001,0.04411346
0.5750001,0.0436843
0.5740001,0.04322447
0.5730001,0.04276465
0.5720001,0.04236614
0.5710001,0.04190632
0.5700001,0.04144649
0.5690001,0.04104798
0.5680001,0.04058816
0.5670001,0.04015899
0.5660001,0.03969917
0.5650001,0.03927
0.5640001,0.03884083
0.5630001,0.03841167
0.5620001,0.03795184
0.5610001,0.03752267
0.5600001,0.03709351
0.5590001,0.03663369
0.5580001,0.03620452
0.5570001,0.03577535
0.5560001,0.03534618
0.5550001,0.03491702
0.5540001,0.03448785
0.5530001,0.03405868
0.5520001,0.03366017
0.5510001,0.033231
0.5500001,0.03277118
0.5490001,0.03237266
0.5480001,0.0319435
0.5470001,0.03151433
0.5460001,0.03108516
0.5450001,0.03068665
0.5440001,0.03025748
0.5430001,0.02982831
0.5420001,0.0294298
0.5410001,0.02900063
0.5400001,0.02857147
0.5390001,0.02817295
0.5380001,0.02774378
0.5370001,0.02734527
0.5360001,0.02694676
0.5350001,0.02651759
0.5340001,0.02611908
0.5330001,0.02568991
0.5320001,0.0252914
0.5310001,0.02489289
0.5300001,0.02449437
0.5290001,0.02409586
0.5280001,0.02369735
0.5270001,0.02329884
0.5260001,0.02286967
0.5250001,0.02247116
0.5240001,0.02207264
0.5230001,0.02167413
0.5220001,0.02127562
0.5210001,0.0208771
0.5200001,0.02050925
0.5190001,0.02011073
0.5180001,0.01974287
0.5170001,0.01934436
0.5160001,0.01897651
0.5150001,0.01857799
0.5140001,0.01821013
0.5130001,0.01784228
0.5120001,0.01747442
0.5110001,0.01707591
0.5100001,0.01670805
0.5090001,0.01634019
0.5080001,0.01597233
0.5070001,0.01560447
0.5060001,0.01526727
0.5050001,0.01489941
0.5040001,0.01453156
0.5030001,0.0141637
0.5020001,0.01382649
0.5010001,0.01345864
0.5000001,0.01312143
0.4990001,0.01227124
0.4980001,0.01193711
0.4970001,0.01160297
0.4960001,0.01127189
0.4950001,0.01094082
0.4940001,0.01061588
0.4930001,0.01029094
0.4920001,0.009969066
0.4910001,0.009656386
0.4900001,0.009340642
0.4890001,0.009031028
0.4880001,0.00872448
0.4870001,0.008417931
0.4860001,0.008123646
0.4850001,0.007829359
0.4840001,0.007535073
0.4830001,0.007249983
0.4820001,0.006964893
0.4810001,0.006682869
0.4800001,0.006410041
0.4790001,0.006137213
0.4780001,0.005870515
0.4770001,0.005606884
0.4760001,0.005349384
0.4750001,0.005098014
0.4740001,0.004846645
0.4730001,0.004604471
0.4720001,0.004365364
0.4710001,0.004129322
0.4700001,0.003902476
0.4690001,0.003678696
0.4680001,0.003457981
0.4670001,0.003246463
0.4660001,0.003034944
0.4650001,0.002832623
0.4640001,0.002636432
0.4630001,0.002443306
0.4620001,0.002256312
0.4610001,0.002072383
0.4600001,0.001894585
0.4590001,0.001729049
0.4580001,0.001563513
0.4570001,0.001401042
0.4560001,0.001250834
0.4550001,0.001065267
0.4540001,0.0009236416
0.4530001,0.0007872276
0.4520001,0.0006505071
0.4510001,0.0005254354
0.4500001,0.0004018965
0.4490001,0.0002823426
0.4480001,0.0001692263
0.4470001,5.886894E-05
0.4460001,-4.742185E-05
0.4450001,-0.0001444444
0.4440001,-0.0002415282
0.4430001,-0.000329293
0.4420001,-0.0004175071
0.4410001,-0.0004981293
0.4400001,-0.0005747664
0.4390001,-0.0006526296
0.4380001,-0.0007209898
0.4370001,-0.0007881239
0.4360001,-0.000855258
0.4350001,-0.000912276
0.4340001,-0.0009723594
0.4330001,-0.001027538
0.4320001,-0.001077199
0.4310001,-0.001131458
0.4300001,-0.001175908
0.4290001,-0.001220664
0.4280001,-0.001267259
0.4270001,-0.001304964
0.4260001,-0.001344816
0.4250001,-0.001382215
0.4240001,-0.001415935
0.4230001,-0.001452108
0.4220001,-0.001484295
0.4210001,-0.00151403
0.4200001,-0.001543766
0.4190001,-0.001569822
0.4180001,-0.001598944
0.4170001,-0.001623468
0.4160001,-0.001648912
0.4150001,-0.001677114
0.4140001,-0.001695813
0.4130001,-0.001719111
0.4120001,-0.001743022
0.4110001,-0.001759882
0.4100001,-0.001788391
0.4090001,-0.001814141
0.4080001,-0.001825483
0.4070001,-0.001846635
0.4060001,-0.001862576
0.4050001,-0.001878516
0.4040001,-0.001899055
0.4030001,-0.001915302
0.4020001,-0.001933082
0.4010001,-0.001950248
0.4000001,-0.001964656
0.3990001,-0.001983969
0.3980001,-0.00199899
0.3970001,-0.002017383
0.3960001,-0.002034856
0.3950001,-0.002047731
0.3940001,-0.00206643
0.3930001,-0.002081144
0.3920001,-0.002096472
0.3910001,-0.002117011
0.3900001,-0.002131725
0.3890001,-0.002147972
0.3880001,-0.002166058
0.3870001,-0.002180466
0.3860001,-0.002198552
0.3850001,-0.002214799
0.3840001,-0.002228288
0.3830001,-0.002248826
0.3820001,-0.002265073
0.3810001,-0.002281321
0.3800001,-0.00230094
0.3790001,-0.002316573
0.3780001,-0.002336193
0.3770001,-0.002355199
0.3760001,-0.002370832
0.3750001,-0.002390758
0.3740001,-0.002408232
0.3730001,-0.002426931
0.3720001,-0.002446857
0.3710001,-0.002465863
0.3700001,-0.002485482
0.3690001,-0.002505714
0.3680001,-0.002522574
0.3670001,-0.002545259
0.3660001,-0.002563651
0.3650001,-0.002584497
0.3640001,-0.002608101
0.3630001,-0.002624655
0.3620001,-0.002647646
0.3610001,-0.002670637
0.3600001,-0.00268903
0.3590001,-0.002715086
0.3580001,-0.002738077
0.3570001,-0.00275739
0.3560001,-0.00278314
0.3550001,-0.002804905
0.3540001,-0.002826057
0.3530001,-0.00285058
0.3520001,-0.002875718
0.3510001,-0.002901774
0.3500001,-0.002923539
0.3490001,-0.00294837
0.3480001,-0.002973813
0.3470001,-0.00299803
0.3460001,-0.002991794
0.3450001,-0.003016318
0.3440001,-0.003037777
0.3430001,-0.003068431
0.3420001,-0.003092955
0.3410001,-0.003120545
0.3400001,-0.003151199
0.3390001,-0.003175723
0.3380001,-0.003206378
0.3370001,-0.003237033
0.3360001,-0.003264622
0.3350001,-0.003298342
0.3340001,-0.003325932
0.3330001,-0.003356587
0.3320001,-0.003390307
0.3310001,-0.003417896
0.3300001,-0.003451617
0.3290001,-0.003485337
0.3280001,-0.003515992
0.3270001,-0.003552777
0.3260001,-0.003586498
0.3250001,-0.003620218
0.3240001,-0.003653938
0.3230001,-0.003687659
0.3220001,-0.00372751
0.3210001,-0.00376123
0.3200001,-0.003798016
0.3190001,-0.003837867
0.3180001,-0.003871588
0.3170001,-0.003911439
0.3160001,-0.003954356
0.3150001,-0.003988076
0.3140001,-0.004030993
0.3130001,-0.004076975
0.3120001,-0.004113761
0.3110001,-0.004156678
0.3100001,-0.004199594
0.3090001,-0.004239446
0.3080001,-0.004288493
0.3070001,-0.004337541
0.3060001,-0.004377393
0.3050001,-0.004423374
0.3040001,-0.004466291
0.3030001,-0.004515339
0.3020001,-0.004561321
0.3010001,-0.004610369
0.3000001,-0.004659417
0.2990001,-0.004705399
0.2980001,-0.004757512
0.2970001,-0.004809625
0.2960001,-0.004858673
0.2950001,-0.004913852
0.2940001,-0.004965965
0.2930001,-0.005021143
0.2920001,-0.005076322
0.2910001,-0.005128435
0.2900001,-0.00518668
0.2890001,-0.005244924
0.2880001,-0.005300103
0.2870001,-0.005364478
0.2860001,-0.005419657
0.2850001,-0.005480966
0.2840001,-0.005548407
0.2830001,-0.00560665
0.2820001,-0.005671026
0.2810001,-0.005735401
0.2800001,-0.005802842
0.2790001,-0.005873348
0.2780001,-0.005937723
0.2770001,-0.006011295
0.2760001,-0.006078735
0.2750001,-0.006152307
0.2740001,-0.006228944
0.2730001,-0.00629945
0.2720001,-0.006373021
0.2710001,-0.006452724
0.2700001,-0.006529361
0.2690001,-0.006605998
0.2680001,-0.006691832
0.2670001,-0.006768468
0.2660001,-0.006851237
0.2650001,-0.00693707
0.2640001,-0.007019838
0.2630001,-0.007108737
0.2620001,-0.007200702
0.2610001,-0.00728347
0.2600001,-0.0073785
0.2590001,-0.007467398
0.2580001,-0.007559363
0.2570001,-0.007654393
0.2560001,-0.007749423
0.2550001,-0.007841388
0.2540001,-0.007939483
0.2530001,-0.008037578
0.2520001,-0.008132609
0.2510001,-0.008227638
0.2500001,-0.008331865
0.2490001,-0.008426895
0.2480001,-0.00852499
0.2470001,-0.008629217
0.2460001,-0.008724246
0.2450001,-0.008825407
0.2440001,-0.008932699
0.2430001,-0.009030795
0.2420001,-0.00912889
0.2410001,-0.009233117
0.2400001,-0.009328146
0.2390001,-0.009435439
0.2380001,-0.009539665
0.2370001,-0.00963776
0.2360001,-0.009741987
0.2350001,-0.009843147
0.2340001,-0.009941244
0.2330001,-0.0100424
0.2320001,-0.01014357
0.2310001,-0.01024779
0.2300001,-0.01034589
0.2290001,-0.01044398
0.2280001,-0.01054821
0.2270001,-0.01064324
0.2260001,-0.0107444
0.2250001,-0.01083943
0.2240001,-0.01093446
0.2230001,-0.01103869
0.2220001,-0.01112758
0.2210001,-0.01121955
0.2200001,-0.01131765
0.2190001,-0.01140348
0.2180001,-0.01149851
0.2170001,-0.01158741
0.2160001,-0.01167324
0.2150001,-0.01175601
0.2140001,-0.01183571
0.2130001,-0.01191541
0.2120001,-0.01199205
0.2110001,-0.01205949
0.2100001,-0.01213
0.2090001,-0.01218824
0.2080001,-0.01224342
0.2070001,-0.01229553
0.2060001,-0.01233539
0.2050001,-0.0123783
0.2040001,-0.01240589
0.2030001,-0.01241202
0.2020001,-0.01241815
0.2010001,-0.01240283
0.2000001,-0.01236911
0.1990001,-0.01232312
0.1980001,-0.01224955
0.1970001,-0.01215146
0.1960001,-0.01202577
0.1950001,-0.01186943
0.1940001,-0.01167631
0.1930001,-0.01145866
0.1920001,-0.01121035
0.1910001,-0.01092526
0.1900001,-0.01063404
0.1890001,-0.0103091
0.1880001,-0.009968832
0.1870001,-0.009622433
0.1860001,-0.009257641
0.1850001,-0.008886717
0.1840001,-0.008515794
0.1830001,-0.00814487
0.1820001,-0.007767816
0.1810001,-0.00741222
0.1800001,-0.007068886
0.1790001,-0.006725552
0.1780001,-0.006422069
0.1770001,-0.006124718
0.1760001,-0.005842693
0.1750001,-0.005588258
0.1740001,-0.005336888
0.1730001,-0.005106977
0.1720001,-0.004889328
0.1710001,-0.004674744
0.1700001,-0.004475488
0.1690001,-0.004288493
0.1680001,-0.004104564
0.1670001,-0.003939028
0.1660001,-0.003782689
0.1650001,-0.003635545
0.1640001,-0.00350373
0.1630001,-0.00338111
0.1620001,-0.003267688
0.1610001,-0.003160396
0.1600001,-0.003065366
0.1590001,-0.002973401
0.1580001,-0.002890633
0.1570001,-0.002813996
0.1560001,-0.002737359
0.1550001,-0.002666853
0.1540001,-0.002602478
0.1530001,-0.002538103
0.1520001,-0.002476793
0.1510001,-0.002421614
0.1500001,-0.002366436
0.1490001,-0.002314323
0.1480001,-0.00226834
0.1470001,-0.002219293
0.1460001,-0.00217331
0.1450001,-0.002130394
0.1440001,-0.002090542
0.1430001,-0.002050691
0.1420001,-0.00201084
0.1410001,-0.001974054
0.1400001,-0.001940334
0.1390001,-0.001906613
0.1380001,-0.001872893
0.1370001,-0.001842238
0.1360001,-0.001808518
0.1350001,-0.001780929
0.1340001,-0.001753339
0.1330001,-0.001722684
0.1320001,-0.001695095
0.1310001,-0.001670571
0.1300001,-0.001646047
0.1290001,-0.001621523
0.1280001,-0.001634504
0.1270001,-0.001611206
0.1260001,-0.001588522
0.1250001,-0.001566757
0.1240001,-0.001545605
0.1230001,-0.001524453
0.1220001,-0.001504834
0.1210001,-0.001484908
0.1200001,-0.001465596
0.1190001,-0.001447203
0.1180001,-0.001429423
0.1170001,-0.001411337
0.1160001,-0.001394477
0.1150001,-0.001377923
0.1140001,-0.001361369
0.1130001,-0.001345429
0.1120001,-0.001329795
0.1110001,-0.001314467
0.1100001,-0.001299753
0.1090001,-0.001285039
0.1080001,-0.001270938
0.1070001,-0.001256836
0.1060001,-0.001243348
0.1050001,-0.001230167
0.1040001,-0.001216985
0.1030001,-0.001204417
0.1020001,-0.001192155
0.1010001,-0.001179586
0.1000001,-0.001167937
0.0990001,-0.001155982
0.09800009,-0.00114464
0.09700009,-0.001133297
0.0960001,-0.001122262
0.0950001,-0.001111532
0.09400009,-0.001100803
0.0930001,-0.001090381
0.0920001,-0.001080264
0.0910001,-0.001070148
0.09000009,-0.001060645
0.0890001,-0.001050836
0.0880001,-0.001041333
0.08700009,-0.001032136
0.08600009,-0.001023247
0.0850001,-0.00101405
0.0840001,-0.001005467
0.08300009,-0.0009965767
0.08200009,-0.0009879934
0.0810001,-0.0009800232
0.0800001,-0.0009714398
0.07900009,-0.0009637761
0.0780001,-0.0009558058
0.0770001,-0.0009478356
0.07600009,-0.0009401719
0.07500009,-0.0009328147
0.0740001,-0.0009254576
0.0730001,-0.0009181004
0.07200009,-0.0009110498
0.07100009,-0.0009039992
0.0700001,-0.0008969486
0.0690001,-0.000889898
0.06800009,-0.0008834605
0.0670001,-0.0008767164
0.0660001,-0.0008699723
0.06500009,-0.0008635348
0.06400009,-0.0008574039
0.0630001,-0.0008512728
0.0620001,-0.0008451419
0.06100009,-0.0008390109
0.0600001,-0.0008331866
0.0590001,-0.0008270555
0.0580001,-0.0008212312
0.0570001,-0.0008157133
0.05600009,-0.0008098889
0.0550001,-0.000804371
0.05400009,-0.0007988531
0.0530001,-0.0007933353
0.05200009,-0.0007881239
0.0510001,-0.0007829126
0.05000009,-0.0007777013
0.0490001,-0.00077249
0.04800009,-0.0007675852
0.0470001,-0.0007626804
0.0460001,-0.0007577756
0.04500009,-0.0007531774
0.0440001,-0.0007482726
0.04300009,-0.0007436744
0.0420001,-0.0007387697
0.04100009,-0.0007341714
0.0400001,-0.0007295733
0.03900009,-0.0007252816
0.0380001,-0.0007206833
0.03700009,-0.0007163917
0.0360001,-0.0007121
0.0350001,-0.0007078083
0.03400009,-0.0007035166
0.0330001,-0.0006995315
0.03200009,-0.0006952398
0.03100009,-0.0006912547
0.0300001,-0.0006872696
0.0290001,-0.0006832844
0.0280001,-0.0006792994
0.0270001,-0.0006756207
0.0260001,-0.0006716356
0.0250001,-0.0006679571
0.0240001,-0.0006642784
0.0230001,-0.0006605998
0.02200009,-0.0006569213
0.02100009,-0.0006532427
0.02000009,-0.0006495641
0.0190001,-0.0006458855
0.0180001,-0.0006425135
0.0170001,-0.0006391415
0.0160001,-0.0006354629
0.0150001,-0.0006323974
0.0140001,-0.0006287188
0.0130001,-0.0006256534
0.0120001,-0.0006222813
0.01100009,-0.0006192158
0.0100001,-0.0006161503
0.009000096,-0.0006127784
0.008000095,-0.0006097128
0.007000095,-0.0006066473
0.006000096,-0.0006035819
0.005000095,-0.0006005164
0.004000095,-0.0005974509
0.003000095,-0.000594692
0.002000095,-0.0005916265
0.001000095,-0.000588561
9.536743E-08,-0.0005808973
0.0009999046,-0.0005723139
0.001999905,-0.0005649568
0.002999905,-0.0005585193
0.003999905,-0.0005520818
0.004999904,-0.0005462574
0.005999905,-0.0005407395
0.006999905,-0.0005352216
0.007999904,-0.0005300103
0.008999905,-0.0005247989
0.009999905,-0.0005198942
0.0109999,-0.0005152959
0.0119999,-0.0005103912
0.0129999,-0.0005060995
0.0139999,-0.0005015013
0.0149999,-0.0004972096
0.0159999,-0.000492918
0.0169999,-0.0004886262
0.0179999,-0.0004843346
0.0189999,-0.000480656
0.0199999,-0.0004763643
0.0209999,-0.0004726858
0.0219999,-0.0004690072
0.02299991,-0.0004653286
0.02399991,-0.00046165
0.02499991,-0.0004579714
0.02599991,-0.0004542929
0.0269999,-0.0004509208
0.0279999,-0.0004472423
0.0289999,-0.0004441768
0.0299999,-0.0004408048
0.0309999,-0.0004374327
0.0319999,-0.0004343672
0.0329999,-0.0004309952
0.0339999,-0.0004279297
0.0349999,-0.0004248642
0.03599991,-0.0004217988
0.0369999,-0.0004190398
0.03799991,-0.0004156678
0.0389999,-0.0004129088
0.03999991,-0.0004098434
0.0409999,-0.0004067779
0.04199991,-0.000404019
0.0429999,-0.00040126
0.0439999,-0.0003985011
0.0449999,-0.0003957421
0.0459999,-0.0003929832
0.04699991,-0.0003902243
0.0479999,-0.0003874653
0.04899991,-0.0003850129
0.0499999,-0.0003825606
0.05099991,-0.0003798016
0.0519999,-0.0003770427
0.05299991,-0.0003745903
0.0539999,-0.0003721379
0.0549999,-0.0003696856
0.0559999,-0.0003672332
0.0569999,-0.0003647808
0.05799991,-0.0003623284
0.0589999,-0.0003601825
0.05999991,-0.0003577302
0.0609999,-0.0003552778
0.06199991,-0.0003531319
0.0629999,-0.0003506796
0.06399991,-0.0003485337
0.06499991,-0.0003460813
0.0659999,-0.0003439355
0.0669999,-0.0003417897
0.06799991,-0.0003393373
0.0689999,-0.0003371914
0.0699999,-0.0003353521
0.07099991,-0.0003328998
0.07199991,-0.0003310605
0.0729999,-0.0003289146
0.0739999,-0.0003267688
0.07499991,-0.0003246229
0.07599991,-0.0003227837
0.0769999,-0.0003206378
0.0779999,-0.000318492
0.07899991,-0.0003166527
0.0799999,-0.0003145068
0.0809999,-0.000312361
0.08199991,-0.0003105217
0.08299991,-0.0003083759
0.0839999,-0.0003065366
0.0849999,-0.0003046973
0.08599991,-0.000302858
0.08699991,-0.0003010187
0.0879999,-0.0002991795
0.0889999,-0.0002970336
0.08999991,-0.0002951943
0.0909999,-0.000293355
0.0919999,-0.0002912092
0.09299991,-0.0002893699
0.09399991,-0.0002878372
0.0949999,-0.0002859978
0.0959999,-0.0002841586
0.09699991,-0.0002823193
0.09799991,-0.0002807866
0.0989999,-0.0002789472
0.0999999,-0.000277108
0.1009999,-0.0002755752
0.1019999,-0.0002734294
0.1029999,-0.0002718967
0.1039999,-0.0002700574
0.1049999,-0.000268218
0.1059999,-0.0002663788
0.1069999,-0.0002648461
0.1079999,-0.0002630067
0.1089999,-0.000261474
0.1099999,-0.0002596347
0.1109999,-0.000258102
0.1119999,-0.0002565692
0.1129999,-0.0002547299
0.1139999,-0.0002528907
0.1149999,-0.0002513579
0.1159999,-0.0002495186
0.1169999,-0.0002479859
0.1179999,-0.0002461466
0.1189999,-0.0002443073
0.1199999,-0.0002427746
0.1209999,-0.0002412418
0.1219999,-0.0002394025
0.1229999,-0.0002378698
0.1239999,-0.0002360305
0.1249999,-0.0002344978
0.1259999,-0.000232965
0.1269999,-0.0002311257
0.1279999,-0.000229593
0.1289999,-0.0002277537
0.1299999,-0.0002259144
0.1309999,-0.0002243817
0.1319999,-0.0002225424
0.1329999,-0.0002210096
0.1339999,-0.0002191703
0.1349999,-0.000217331
0.1359999,-0.0002157983
0.1369999,-0.0002142656
0.1379999,-0.0002124263
0.1389999,-0.0002108935
0.1399999,-0.0002090542
0.1409999,-0.000207215
0.1419999,-0.0002053757
0.1429999,-0.0002035364
0.1439999,-0.0002016971
0.1449999,-0.0001998578
0.1459999,-0.0001983251
0.1469999,-0.0001964858
0.1479999,-0.0001943399
0.1489999,-0.0001928072
0.1499999,-0.0001909679
0.1509999,-0.0001888221
0.1519999,-0.0001869828
0.1529999,-0.0001851435
0.1539999,-0.0001829976
0.1549999,-0.0001811584
0.1559999,-0.0001790125
0.1569999,-0.0001768667
0.1579999,-0.0001750274
0.1589999,-0.0001728816
0.1599999,-0.0001707357
0.1609999,-0.0001688964
0.1619999,-0.000166444
0.1629999,-0.0001642982
0.1639999,-0.0001618458
0.1649999,-0.0001597
0.1659999,-0.0001572476
0.1669999,-0.0001582391
0.1679999,-0.0001560626
0.1689999,-0.0001536408
0.1699999,-0.0001512804
0.1709999,-0.000148828
0.1719999,-0.0001460691
0.1729999,-0.0001433408
0.1739999,-0.0001407965
0.1749999,-0.0001379455
0.1759999,-0.0001353705
0.1769999,-0.0001326729
0.1779999,-0.0001295461
0.1789999,-0.0001266952
0.1799999,-0.0001234458
0.1809999,-0.000120411
0.1819999,-0.0001174681
0.1829999,-0.0001141267
0.1839999,-0.0001108773
0.1849999,-0.0001074747
0.1859999,-0.0001037654
0.1869999,-0.0001003627
0.1879999,-9.646956E-05
0.1889999,-9.294426E-05
0.1899999,-8.920438E-05
0.1909999,-8.515793E-05
0.1919999,-8.108085E-05
0.1929999,-7.688113E-05
0.1939999,-7.243618E-05
0.1949999,-6.826713E-05
0.1959999,-6.348498E-05
0.1969999,-5.894806E-05
0.1979999,-5.428853E-05
0.1989999,-4.916917E-05
0.1999999,-4.429505E-05
0.2009999,-3.908373E-05
0.2019999,-3.365783E-05
0.2029999,-2.83852E-05
0.2039999,-2.237685E-05
0.2049999,-1.63072E-05
0.2059999,-1.042147E-05
0.2069999,-3.98396E-06
0.2079999,2.961373E-06
0.2089999,9.337577E-06
0.2099999,1.640351E-05
0.2109999,2.351342E-05
0.2119999,3.077861E-05
0.2129999,3.828905E-05
0.2139999,4.604472E-05
0.2149999,5.426021E-05
0.2159999,6.24757E-05
0.2169999,7.121233E-05
0.2179999,8.034746E-05
0.2189999,8.939064E-05
0.2199999,9.938411E-05
0.2209999,0.000109163
0.2219999,0.0001192791
0.2229999,0.0001304068
0.2239999,0.0001412279
0.2249999,0.0001526929
0.2259999,0.0001650774
0.2269999,0.0001769408
0.2279999,0.0001903983
0.2289999,0.0002035185
0.2299999,0.0002169147
0.2309999,0.000231721
0.2319999,0.000246374
0.2329999,0.0002616094
0.2339999,0.0002780711
0.2349999,0.0002943488
0.2359999,0.0003157564
0.2369999,0.0003332296
0.2379999,0.0003519291
0.2389999,0.0003718548
0.2399999,0.0003920869
0.2409999,0.0004129322
0.2419999,0.0004353102
0.2429999,0.0004576883
0.2439999,0.0004825187
0.2449999,0.0005064294
0.2459999,0.0005321795
0.2469999,0.0005597688
0.2479999,0.0005870516
0.2489999,0.0006167868
0.2499999,0.0006477482
0.2509999,0.0006787095
0.2519999,0.0007127364
0.2529999,0.0007470698
0.2539999,0.0007823228
0.2549999,0.0008206414
0.2559999,0.0008595731
0.2569999,0.0009006505
0.2579999,0.0009435673
0.2589999,0.0009874037
0.2599999,0.001034612
0.2609999,0.001082434
0.2619999,0.001132708
0.2629999,0.001186047
0.2639999,0.001239693
0.2649999,0.001297324
0.2659999,0.001357101
0.2669999,0.00141841
0.2679999,0.001484625
0.2689999,0.001551452
0.2699999,0.001621346
0.2709999,0.001695837
0.2719999,0.001770328
0.2729999,0.001850644
0.2739999,0.001933412
0.2749999,0.002018326
0.2759999,0.002109677
0.2769999,0.002201028
0.2779999,0.002296672
0.2789999,0.002397526
0.2799999,0.002499606
0.2809999,0.002606898
0.2819999,0.002718482
0.2829999,0.002832824
0.2839999,0.002952685
0.2849999,0.00310545
0.2859999,0.003231135
0.2869999,0.003359886
0.2879999,0.003491701
0.2889999,0.003632714
0.2899999,0.003773726
0.2909999,0.003920869
0.2919999,0.004074143
0.2929999,0.004224352
0.2939999,0.004383757
0.2949999,0.004546227
0.2959999,0.004708698
0.2969999,0.004880365
0.2979999,0.005052032
0.2989999,0.005220633
0.2999999,0.005401497
0.3009999,0.005585426
0.3019999,0.005763224
0.3029999,0.005950219
0.3039999,0.006137213
0.3049999,0.006327272
0.3059999,0.006520398
0.3069999,0.006716589
0.3079999,0.00691278
0.3089999,0.007112036
0.3099999,0.007308227
0.3109999,0.007507483
0.3119999,0.00770674
0.3129999,0.007909061
0.3139999,0.008105253
0.3149999,0.008307574
0.3159999,0.008512962
0.3169999,0.008712218
0.3179999,0.008914541
0.3189999,0.009113796
0.3199999,0.009316118
0.3209999,0.009521506
0.3219999,0.00971463
0.3229999,0.009913887
0.3239999,0.01011927
0.3249999,0.01030933
0.3259999,0.01050859
0.3269999,0.01070785
0.3279999,0.01089178
0.3289999,0.01109103
0.3299999,0.01128109
0.3309999,0.01145889
0.3319999,0.01164895
0.3329999,0.01182981
0.3339999,0.01200148
0.3349999,0.01217928
0.3359999,0.01235094
0.3369999,0.01251342
0.3379999,0.01267589
0.3389999,0.01283529
0.3399999,0.01298243
0.3409999,0.01312651
0.3419999,0.01327059
0.3429999,0.01339321
0.3439999,0.01351276
0.3449999,0.01362925
0.3459999,0.01373041
0.3469999,0.01382238
0.3479999,0.01391128
0.3489999,0.01398178
0.3499999,0.01404309
0.3509999,0.01410134
0.3519999,0.01413812
0.3529999,0.01416571
0.3539999,0.01418717
0.3549999,0.01419024
0.3559999,0.01418717
0.3569999,0.01416878
0.3579999,0.01414732
0.3589999,0.01410747
0.3599999,0.01404922
0.3609999,0.01399098
0.3619999,0.01390821
0.3629999,0.01382544
0.3639999,0.01372735
0.3649999,0.01361699
0.3659999,0.01350663
0.3669999,0.01337482
0.3679999,0.013243
0.3689999,0.01310505
0.3699999,0.01294871
0.3709999,0.01280157
0.3719999,0.01265136
0.3729999,0.01248583
0.3739999,0.01233255
0.3749999,0.01217621
0.3759999,0.01200761
0.3769999,0.01185127
0.3779999,0.01169187
0.3789999,0.01152633
0.3799999,0.01137306
0.3809999,0.01121365
0.3819999,0.01105425
0.3829999,0.01090097
0.3839999,0.01074463
0.3849999,0.01059442
0.3859999,0.01044422
0.3869999,0.01029401
0.3879999,0.01014993
0.3889999,0.01000279
0.3899999,0.009861774
0.3909999,0.009723827
0.3919999,0.00957975
0.3929999,0.009454065
0.3939999,0.009316118
0.3949999,0.009181237
0.3959999,0.009061683
0.3969999,0.008929867
0.3979999,0.008807248
0.3989999,0.00869076
0.3999999,0.008565075
0.4009999,0.008448587
0.4019999,0.008335164
0.4029999,0.00821561
0.4039999,0.008108318
0.4049999,0.008001027
0.4059999,0.007890669
0.4069999,0.007786443
0.4079999,0.007685281
0.4089999,0.007587186
0.4099999,0.007495221
0.4109999,0.007397126
0.4119999,0.007305162
0.4129999,0.007207066
0.4139999,0.007118167
0.4149999,0.007032333
0.4159999,0.006937304
0.4169999,0.006857601
0.4179999,0.006774833
0.4189999,0.006688999
0.4199999,0.006612363
0.4209999,0.006538791
0.4219999,0.006459088
0.4229999,0.006391648
0.4239999,0.006315011
0.4249999,0.006244505
0.4259999,0.006177064
0.4269999,0.006106558
0.4279999,0.006042183
0.4289999,0.005980873
0.4299999,0.005919564
0.4309999,0.005858254
0.4319999,0.00580001
0.4329999,0.005744831
0.4339999,0.005686587
0.4349999,0.005634474
0.4359999,0.005582361
0.4369999,0.005530247
0.4379999,0.00548733
0.4389999,0.005438283
0.4399999,0.00538617
0.4409999,0.005349384
0.4419999,0.005309533
0.4429999,0.005266616
0.4439999,0.005232896
0.4449999,0.005193044
0.4459999,0.005159324
0.4469999,0.005131735
0.4479999,0.005104146
0.4489999,0.005076556
0.4499999,0.005055097
0.4509999,0.005030573
0.4519999,0.005015246
0.4529999,0.004996853
0.4539999,0.004987657
0.4549999,0.00497846
0.4559999,0.004972329
0.4569999,0.004972329
0.4579999,0.004975395
0.4589999,0.004981526
0.4599999,0.004993788
0.4609999,0.005009115
0.4619999,0.005033639
0.4629999,0.005058163
0.4639999,0.005082687
0.4649999,0.005128669
0.4659999,0.00516852
0.4669999,0.005217568
0.4679999,0.005281943
0.4689999,0.005340187
0.4699999,0.005413759
0.4709999,0.005496527
0.4719999,0.005579295
0.4729999,0.00567739
0.4739999,0.005784682
0.4749999,0.00589504
0.4759999,0.006020725
0.4769999,0.00615254
0.4779999,0.006293552
0.4789999,0.006446826
0.4799999,0.006603166
0.4809999,0.006777898
0.4819999,0.006955697
0.4829999,0.007145756
0.4839999,0.007345013
0.4849999,0.007547335
0.4859999,0.00776805
0.4869999,0.00799183
0.4879999,0.008224807
0.4889999,0.008476176
0.4899999,0.00872448
0.4909999,0.00898198
0.4919999,0.009257874
0.4929999,0.009524571
0.4939999,0.009806595
0.4949999,0.01010088
0.4959999,0.01038904
0.4969999,0.01069252
0.4979999,0.01100213
0.4989999,0.01131175
0.4999999,0.01163975
0.5009999,0.01196469
0.5019999,0.01228964
0.5029999,0.0126299
0.5039999,0.01296711
0.5049999,0.01330738
0.5059999,0.01366297
0.5069999,0.01401244
0.5079999,0.01436803
0.5089999,0.01472976
0.5099999,0.01510068
0.5109999,0.01546547
0.5119999,0.01584253
0.5129999,0.01621958
0.5139999,0.01659357
0.5149999,0.01697369
0.5159999,0.01736301
0.5169999,0.01774006
0.5179999,0.01813245
0.5189999,0.01852789
0.5199999,0.01891414
0.5209999,0.01931266
0.5219999,0.01971117
0.5229999,0.02010968
0.5239999,0.02051126
0.5249999,0.0209159
0.5259999,0.02132055
0.5269999,0.02172826
0.5279999,0.02213597
0.5289999,0.02254674
0.5299999,0.02295751
0.5309999,0.02337442
0.5319999,0.02378826
0.5329999,0.0242021
0.5339999,0.02462207
0.5349999,0.02504511
0.5359999,0.02545588
0.5369999,0.02588505
0.5379999,0.02629889
0.5389999,0.02672193
0.5399999,0.02715723
0.5409999,0.02757413
0.5419999,0.0280033
0.5429999,0.02844779
0.5439999,0.0288647
0.5449999,0.0293
0.5459999,0.02974143
0.5469999,0.03015834
0.5479999,0.03136105
0.5489999,0.03179022
0.5499999,0.03221939
0.5509999,0.03264856
0.5519999,0.03310838
0.5529999,0.03353755
0.5539999,0.03396672
0.5549999,0.03442654
0.5559999,0.0348557
0.5569999,0.03531553
0.5579999,0.03577535
0.5589999,0.03620452
0.5599999,0.03666434
0.5609999,0.03712416
0.5619999,0.03755333
0.5629999,0.03801315
0.5639999,0.03847298
0.5649999,0.0389328
0.5659999,0.03936196
0.5669999,0.03985244
0.5679999,0.04028161
0.5689999,0.04074143
0.5699999,0.04120126
0.5709999,0.04163042
0.5719999,0.04209024
0.5729999,0.04255007
0.5739999,0.04300989
0.5749999,0.04346971
0.5759999,0.04392953
0.5769999,0.04438936
0.5779999,0.04484918
0.5789999,0.045309
0.5799999,0.04576882
0.5809999,0.04622864
0.5819999,0.04668847
0.5829999,0.04717895
0.5839999,0.04760811
0.5849999,0.04806793
0.5859999,0.04855841
0.5869999,0.04901823
0.5879999,0.04947806
0.5889999,0.04990723
0.5899999,0.05036705
0.5909999,0.05082687
0.5919999,0.05128669
0.5929999,0.05174651
0.5939999,0.05220634
0.5949999,0.05269681
0.5959999,0.05315664
0.5969999,0.05361646
0.5979999,0.05407628
0.5989999,0.05456676
0.5999999,0.05499592
0.6009999,0.05548641
0.6019999,0.05594623
0.6029999,0.05640605
0.6039999,0.05689653
0.6049999,0.05735635
0.6059999,0.05781617
0.6069999,0.05830665
0.6079999,0.05876647
0.6089999,0.05922629
0.6099999,0.05971677
0.6109999,0.06017659
0.6119999,0.06063641
0.6129999,0.06112689
0.6139999,0.06158672
0.6149999,0.06204654
0.6159999,0.06253701
0.6169999,0.06299683
0.6179999,0.06345665
0.6189999,0.06394713
0.6199999,0.06443761
0.6209999,0.06486678
0.6219999,0.06538791
0.6229999,0.06584774
0.6239999,0.0662769
0.6249999,0.06679803
0.6259999,0.06722721
0.6269999,0.06771768
0.6279999,0.06820816
0.6289999,0.06866798
0.6299999,0.0691278
0.6309999,0.06964894
0.6319999,0.07010876
0.6329999,0.07056858
0.6339999,0.07105906
0.6349999,0.07154953
0.6359999,0.07200935
0.6369999,0.07246917
0.6379999,0.07295965
0.6389999,0.07341947
0.6399999,0.07390995
0.6409999,0.07440043
0.6419999,0.07486025
0.6429999,0.07535073
0.6439999,0.07584121
0.6449999,0.07630103
0.6459999,0.07676085
0.6469999,0.07728198
0.6479999,0.07774181
0.6489999,0.07823228
0.6499999,0.07872277
0.6509999,0.07918259
0.6519999,0.07967306
0.6529999,0.08016354
0.6539999,0.08062336
0.6549999,0.08111384
0.6559999,0.08157366
0.6569999,0.08203348
0.6579999,0.08252396
0.6589999,0.08298378
0.6599999,0.08347426
0.6609999,0.08396474
0.6619999,0.08445521
0.6629999,0.08491503
0.6639999,0.08543617
0.6649999,0.08589599
0.6659999,0.08638646
0.6669999,0.08687695
0.6679999,0.08733677
0.6689999,0.08782724
0.6699999,0.08834838
0.6709999,0.08877754
0.6719999,0.08929868
0.6729999,0.08978915
0.6739999,0.09021832
0.6749999,0.09073945
0.6759999,0.09122993
0.6769999,0.09168976
0.6779999,0.09221088
0.6789999,0.09270137
0.6799999,0.09313053
0.6809999,0.09365166
0.6819999,0.09414214
0.6829999,0.09460196
0.6839999,0.0951231
0.6849999,0.09558292
0.6859999,0.09604274
0.6869999,0.09656387
0.6879999,0.09702369
0.6889999,0.09751417
0.6899999,0.09800465
0.6909999,0.09849513
0.6919999,0.09895495
0.6929999,0.09944542
0.6939999,0.0999359
0.6949999,0.1004264
0.6959999,0.1008862
0.6969999,0.1014073
0.6979999,0.1018672
0.6989999,0.1023576
0.6999999,0.1025109
0.6990002,0.1020204
0.6980002,0.1015606
0.6970002,0.1011008
0.6960002,0.1005796
0.6950002,0.1001198
0.6940002,0.09966001
0.6930002,0.09913888
0.6920002,0.09867906
0.6910002,0.09824988
0.6900002,0.09775941
0.6890002,0.09726893
0.6880002,0.09680911
0.6870002,0.09631863
0.6860002,0.0958588
0.6850002,0.09539898
0.6840002,0.09490851
0.6830002,0.09441803
0.6820002,0.09395821
0.6810002,0.09352904
0.6800002,0.09300791
0.6790002,0.09254809
0.6780002,0.09208827
0.6770002,0.09159779
0.6760002,0.09110731
0.6750002,0.09064749
0.6740002,0.09015701
0.6730002,0.08969719
0.6720002,0.08920672
0.6710002,0.08874689
0.6700002,0.08828707
0.6690002,0.08779659
0.6680002,0.08733677
0.6670002,0.08687695
0.6660002,0.08638646
0.6650002,0.08592664
0.6640002,0.08546682
0.6630002,0.08494569
0.6620002,0.08451653
0.6610002,0.08402605
0.6600002,0.08350492
0.6590002,0.0831064
0.6580002,0.08261593
0.6570002,0.08212545
0.6560002,0.08169628
0.6550002,0.08120581
0.6540002,0.08071532
0.6530002,0.08028616
0.6520002,0.07979568
0.6510002,0.0793052
0.6500002,0.07887604
0.6490002,0.07838555
0.6480002,0.07789508
0.6470002,0.07746591
0.6460002,0.07697544
0.6450002,0.07651561
0.6440002,0.07608645
0.6430002,0.07556532
0.6420002,0.07510549
0.6410002,0.07467633
0.6400002,0.07418585
0.6390002,0.07369537
0.6380002,0.0732662
0.6370002,0.07277572
0.6360002,0.07228525
0.6350002,0.07185608
0.6340002,0.07139625
0.6330002,0.07090578
0.6320002,0.07044595
0.6310002,0.06998613
0.6300002,0.06952631
0.6290002,0.06906649
0.6280002,0.06857602
0.6270002,0.06811619
0.6260002,0.06765637
0.6250002,0.06719655
0.6240002,0.06673672
0.6230002,0.06624625
0.6220002,0.06581708
0.6210002,0.06535726
0.6200002,0.06489744
0.6190002,0.06443761
0.6180002,0.06394713
0.6170002,0.06348731
0.6160002,0.06305815
0.6150002,0.06256767
0.6140002,0.06210784
0.6130002,0.06164802
0.6120002,0.0611882
0.6110002,0.06072838
0.6100002,0.06026856
0.6090002,0.05980873
0.6080002,0.05934891
0.6070002,0.05888909
0.6060002,0.05842927
0.6050002,0.05796945
0.6040002,0.05750962
0.6030002,0.0570498
0.6020002,0.05658998
0.6010002,0.05613015
0.6000002,0.05570099
0.5990002,0.05524116
0.5980002,0.05478134
0.5970002,0.05432152
0.5960002,0.0538617
0.5950002,0.05340188
0.5940002,0.0529727
0.5930002,0.05248223
0.5920002,0.05205306
0.5910002,0.05159324
0.5900002,0.05113342
0.5890002,0.05070425
0.5880002,0.05024443
0.5870002,0.04981526
0.5860002,0.04935544
0.5850002,0.04889562
0.5840002,0.04846645
0.5830002,0.04800662
0.5820002,0.0475468
0.5810002,0.04711764
0.5800002,0.04665781
0.5790002,0.04619799
0.5780002,0.04573817
0.5770002,0.045309
0.5760002,0.04484918
0.5750002,0.04442001
0.5740002,0.04399084
0.5730002,0.04353102
0.5720002,0.0430712
0.5710002,0.04264203
0.5700002,0.04218221
0.5690002,0.04175304
0.5680002,0.04132387
0.5670002,0.04089471
0.5660002,0.04043488
0.5650002,0.04000572
0.5640002,0.03954589
0.5630002,0.03911673
0.5620002,0.03868756
0.5610002,0.03822774
0.5600002,0.03779857
0.5590002,0.0373694
0.5580002,0.03694023
0.5570002,0.03651107
0.5560002,0.03605124
0.5550002,0.03562208
0.5540002,0.03519291
0.5530002,0.03476374
0.5520002,0.03433457
0.5510002,0.03390541
0.5500002,0.03350689
0.5490002,0.03304707
0.5480002,0.03264856
0.5470002,0.03221939
0.5460002,0.03179022
0.5450002,0.03136105
0.5440002,0.03096254
0.5430002,0.03053337
0.5420002,0.03010421
0.5410002,0.02967504
0.5400002,0.02924587
0.5390002,0.02884736
0.5380002,0.02841819
0.5370002,0.02801968
0.5360002,0.02759051
0.5350002,0.027192
0.5340002,0.02676283
0.5330002,0.02636432
0.5320002,0.02593515
0.5310002,0.02553664
0.5300002,0.02513812
0.5290002,0.02470896
0.5280002,0.02431045
0.5270002,0.02391193
0.5260002,0.02351342
0.5250002,0.02311491
0.5240002,0.02268574
0.5230002,0.02228723
0.5220002,0.02188871
0.5210002,0.0214902
0.5200002,0.02112234
0.5190002,0.02072383
0.5180002,0.02032532
0.5170002,0.01995746
0.5160002,0.01952829
0.5150002,0.01916043
0.5140002,0.01879258
0.5130002,0.01842472
0.5120002,0.01802621
0.5110002,0.01765835
0.5100002,0.01725983
0.5090002,0.01689198
0.5080002,0.01652412
0.5070002,0.01615626
0.5060002,0.0157884
0.5050002,0.01542055
0.5040002,0.01505269
0.5030002,0.01468483
0.5020002,0.01431697
0.5010002,0.01397977
0.5000002,0.01361191
0.4990002,0.01327471
0.4980002,0.01241839
0.4970002,0.01208118
0.4960002,0.01174705
0.4950002,0.01140371
0.4940002,0.01107571
0.4930002,0.01074463
0.4920002,0.01041356
0.4910002,0.01009168
0.4900002,0.009769809
0.4890002,0.009450999
0.4880002,0.00913832
0.4870002,0.008825641
0.4860002,0.008522158
0.4850002,0.00821561
0.4840002,0.007918258
0.4830002,0.007620906
0.4820002,0.00732662
0.4810002,0.007038464
0.4800002,0.006753375
0.4790002,0.006471351
0.4780002,0.006198522
0.4770002,0.005925694
0.4760002,0.005655932
0.4750002,0.005395366
0.4740002,0.0051348
0.4730002,0.00488343
0.4720002,0.004635126
0.4710002,0.004386822
0.4700002,0.00415078
0.4690002,0.003917804
0.4680002,0.003684827
0.4670002,0.003461046
0.4660002,0.003243397
0.4650002,0.003028814
0.4640002,0.002823426
0.4630002,0.002614973
0.4620002,0.002421848
0.4610002,0.002225657
0.4600002,0.002035597
0.4590002,0.001860865
0.4580002,0.001683067
0.4570002,0.001514465
0.4560002,0.001351995
0.4550002,0.001189524
0.4540002,0.00100457
0.4530002,0.0008580403
0.4520002,0.0007133495
0.4510002,0.0005784683
0.4500002,0.000443587
0.4490002,0.000316676
0.4480002,0.0001952829
0.4470002,7.388981E-05
0.4460002,-4.021796E-05
0.4450002,-0.0001460384
0.4440002,-0.0002509699
0.4430002,-0.0003458466
0.4420002,-0.0004420309
0.4410002,-0.0005309299
0.4400002,-0.000613698
0.4390002,-0.0006967725
0.4380002,-0.0007737162
0.4370002,-0.0008475943
0.4360002,-0.0009184069
0.4350002,-0.0009824756
0.4340002,-0.00104869
0.4330002,-0.001108467
0.4320002,-0.001164259
0.4310002,-0.001222196
0.4300002,-0.001271551
0.4290002,-0.001322438
0.4280002,-0.001371485
0.4270002,-0.00141195
0.4260002,-0.001457012
0.4250002,-0.001497783
0.4240002,-0.001533036
0.4230002,-0.001572888
0.4220002,-0.001607528
0.4210002,-0.001638489
0.4200002,-0.001673129
0.4190002,-0.001701331
0.4180002,-0.001731066
0.4170002,-0.001758962
0.4160002,-0.001785019
0.4150002,-0.001812608
0.4140002,-0.0018356
0.4130002,-0.00185951
0.4120002,-0.001883727
0.4110002,-0.00190396
0.4100002,-0.001931856
0.4090002,-0.001957912
0.4080002,-0.001972626
0.4070002,-0.001993472
0.4060002,-0.002009719
0.4050002,-0.002027805
0.4040002,-0.002047731
0.4030002,-0.002063978
0.4020002,-0.002082677
0.4010002,-0.00210015
0.4000002,-0.002114252
0.3990002,-0.002135097
0.3980002,-0.002149505
0.3970002,-0.002167591
0.3960002,-0.002186903
0.3950002,-0.002198859
0.3940002,-0.002217252
0.3930002,-0.002233499
0.3920002,-0.002247907
0.3910002,-0.0022663
0.3900002,-0.002281321
0.3890002,-0.002298181
0.3880002,-0.002315961
0.3870002,-0.002329142
0.3860002,-0.002348148
0.3850002,-0.002363476
0.3840002,-0.00237727
0.3830002,-0.002398116
0.3820002,-0.002411603
0.3810002,-0.002429077
0.3800002,-0.002448389
0.3790002,-0.00246249
0.3780002,-0.00248211
0.3770002,-0.00249989
0.3760002,-0.00251491
0.3750002,-0.002535756
0.3740002,-0.002552002
0.3730002,-0.002569782
0.3720002,-0.002590321
0.3710002,-0.002607794
0.3700002,-0.002627107
0.3690002,-0.002646726
0.3680002,-0.002662973
0.3670002,-0.002684738
0.3660002,-0.002704051
0.3650002,-0.002723057
0.3640002,-0.002745741
0.3630002,-0.002763215
0.3620002,-0.002784366
0.3610002,-0.002805825
0.3600002,-0.002824218
0.3590002,-0.002849048
0.3580002,-0.002871733
0.3570002,-0.002892271
0.3560002,-0.002916489
0.3550002,-0.002934881
0.3540002,-0.002959099
0.3530002,-0.002982703
0.3520002,-0.003005694
0.3510002,-0.002997925
0.3500002,-0.003016318
0.3490002,-0.003040842
0.3480002,-0.003065366
0.3470002,-0.003086824
0.3460002,-0.003114413
0.3450002,-0.003142003
0.3440002,-0.003163461
0.3430002,-0.003194116
0.3420002,-0.00321864
0.3410002,-0.003246229
0.3400002,-0.003276884
0.3390002,-0.003301408
0.3380002,-0.003332063
0.3370002,-0.003359652
0.3360002,-0.003387242
0.3350002,-0.003420962
0.3340002,-0.003448551
0.3330002,-0.003479206
0.3320002,-0.003509861
0.3310002,-0.00353745
0.3300002,-0.00357117
0.3290002,-0.003601825
0.3280002,-0.003635545
0.3270002,-0.003669266
0.3260002,-0.003702986
0.3250002,-0.003736707
0.3240002,-0.003773492
0.3230002,-0.003804147
0.3220002,-0.003843998
0.3210002,-0.003877719
0.3200002,-0.003914505
0.3190002,-0.003954356
0.3180002,-0.003991141
0.3170002,-0.004024862
0.3160002,-0.004067779
0.3150002,-0.00410763
0.3140002,-0.004144416
0.3130002,-0.004190398
0.3120002,-0.004227184
0.3110002,-0.004270101
0.3100002,-0.004309952
0.3090002,-0.004352869
0.3080002,-0.004395785
0.3070002,-0.004441767
0.3060002,-0.00448775
0.3050002,-0.004530666
0.3040002,-0.004576649
0.3030002,-0.004622631
0.3020002,-0.004665548
0.3010002,-0.004714595
0.3000002,-0.004763643
0.2990002,-0.004809625
0.2980002,-0.004861739
0.2970002,-0.004910786
0.2960002,-0.004959834
0.2950002,-0.005015012
0.2940002,-0.00506406
0.2930002,-0.005119239
0.2920002,-0.005174418
0.2910002,-0.005223466
0.2900002,-0.00528171
0.2890002,-0.005336888
0.2880002,-0.005395133
0.2870002,-0.005456442
0.2860002,-0.005511621
0.2850002,-0.005569865
0.2840002,-0.005637306
0.2830002,-0.00569555
0.2820002,-0.00575686
0.2810002,-0.0058243
0.2800002,-0.005882544
0.2790002,-0.00595305
0.2780002,-0.006017426
0.2770002,-0.0060818
0.2760002,-0.006152307
0.2750002,-0.006225878
0.2740002,-0.006296384
0.2730002,-0.00636689
0.2720002,-0.006440463
0.2710002,-0.006517099
0.2700002,-0.006587605
0.2690002,-0.006670373
0.2680002,-0.00674701
0.2670002,-0.006820582
0.2660002,-0.006906416
0.2650002,-0.006983052
0.2640002,-0.007062755
0.2630002,-0.007157785
0.2620002,-0.007237487
0.2610002,-0.007320256
0.2600002,-0.007415285
0.2590002,-0.007498054
0.2580002,-0.007586952
0.2570002,-0.007681982
0.2560002,-0.007770882
0.2550002,-0.007862846
0.2540002,-0.007954811
0.2530002,-0.008046775
0.2520002,-0.008141804
0.2510002,-0.008236835
0.2500002,-0.008331865
0.2490002,-0.008426895
0.2480002,-0.008521925
0.2470002,-0.00862002
0.2460002,-0.008711984
0.2450002,-0.00881008
0.2440002,-0.008908176
0.2430002,-0.00900014
0.2420002,-0.009101301
0.2410002,-0.009196331
0.2400002,-0.009288295
0.2390002,-0.00938639
0.2380002,-0.009481421
0.2370002,-0.009579516
0.2360002,-0.009677611
0.2350002,-0.009769576
0.2340002,-0.009864606
0.2330002,-0.00995657
0.2320002,-0.0100516
0.2310002,-0.01014663
0.2300002,-0.01023553
0.2290002,-0.01032749
0.2280002,-0.01041946
0.2270002,-0.01050836
0.2260002,-0.01059726
0.2250002,-0.01068616
0.2240002,-0.01077199
0.2230002,-0.01085782
0.2220002,-0.01093753
0.2210002,-0.01102336
0.2200002,-0.01110613
0.2190002,-0.01117663
0.2180002,-0.01126247
0.2170002,-0.01133604
0.2160002,-0.01139735
0.2150002,-0.01147092
0.2140002,-0.01153223
0.2130002,-0.01159047
0.2120002,-0.01165178
0.2110002,-0.01169777
0.2100002,-0.01173762
0.2090002,-0.01177747
0.2080002,-0.01180199
0.2070002,-0.01181732
0.2060002,-0.01182958
0.2050002,-0.01182038
0.2040002,-0.01180199
0.2030002,-0.0117744
0.2020002,-0.01171003
0.2010002,-0.01163032
0.2000002,-0.0115353
0.1990002,-0.01140041
0.1980002,-0.01124101
0.1970002,-0.01106934
0.1960002,-0.01085476
0.1950002,-0.01061871
0.1940002,-0.01037041
0.1930002,-0.01008532
0.1920002,-0.009791034
0.1910002,-0.009496748
0.1900002,-0.009171807
0.1890002,-0.008846866
0.1880002,-0.008528056
0.1870002,-0.008190853
0.1860002,-0.007872042
0.1850002,-0.00756856
0.1840002,-0.007255881
0.1830002,-0.006961594
0.1820002,-0.006691832
0.1810002,-0.006415938
0.1800002,-0.006167634
0.1790002,-0.005937723
0.1780002,-0.005710877
0.1770002,-0.005502424
0.1760002,-0.005309299
0.1750002,-0.005119239
0.1740002,-0.004947572
0.1730002,-0.004782036
0.1720002,-0.004622631
0.1710002,-0.004475488
0.1700002,-0.004334475
0.1690002,-0.004199594
0.1680002,-0.004070844
0.1670002,-0.003948225
0.1660002,-0.003828671
0.1650002,-0.003712183
0.1640002,-0.003607956
0.1630002,-0.003497599
0.1620002,-0.003399503
0.1610002,-0.003304473
0.1600002,-0.003206378
0.1590002,-0.003117479
0.1580002,-0.003031645
0.1570002,-0.002945812
0.1560002,-0.00286611
0.1550002,-0.002786407
0.1540002,-0.002712835
0.1530002,-0.002639264
0.1520002,-0.002568757
0.1510002,-0.002504382
0.1500002,-0.002440007
0.1490002,-0.002381763
0.1480002,-0.002323519
0.1470002,-0.002271406
0.1460002,-0.002222358
0.1450002,-0.00217331
0.1440002,-0.002130394
0.1430002,-0.002087477
0.1420002,-0.00204456
0.1410002,-0.002007774
0.1400002,-0.001967923
0.1390002,-0.001931137
0.1380002,-0.001897417
0.1370002,-0.001866762
0.1360002,-0.001833042
0.1350002,-0.001802387
0.1340002,-0.001771732
0.1330002,-0.001744143
0.1320002,-0.001716554
0.1310002,-0.001688964
0.1300002,-0.001661375
0.1290002,-0.001636851
0.1280002,-0.001612327
0.1270002,-0.001624388
0.1260002,-0.001601703
0.1250002,-0.001579325
0.1240002,-0.001557254
0.1230002,-0.001536408
0.1220002,-0.001516176
0.1210002,-0.001495944
0.1200002,-0.001476631
0.1190002,-0.001457625
0.1180002,-0.001439232
0.1170002,-0.001421146
0.1160002,-0.001403979
0.1150002,-0.001386506
0.1140002,-0.001370259
0.1130002,-0.001354319
0.1120002,-0.001338072
0.1110002,-0.001322744
0.1100002,-0.001307723
0.1090002,-0.001292703
0.1080002,-0.001278908
0.1070002,-0.0012645
0.1060002,-0.001250705
0.1050002,-0.001237524
0.1040002,-0.001224342
0.1030002,-0.001211467
0.1020002,-0.001199205
0.1010002,-0.00118633
0.1000002,-0.001174375
0.09900019,-0.001162726
0.09800019,-0.001151077
0.09700019,-0.001139735
0.09600019,-0.001128699
0.09500019,-0.001117663
0.09400019,-0.001106934
0.09300019,-0.001096511
0.09200019,-0.001086395
0.09100019,-0.001076279
0.09000019,-0.00106647
0.08900019,-0.001056967
0.08800019,-0.001047157
0.08700019,-0.001037961
0.08600019,-0.001028458
0.08500019,-0.001019568
0.08400019,-0.001010985
0.08300019,-0.001001788
0.08200019,-0.0009935113
0.08100019,-0.0009852345
0.08000019,-0.0009766511
0.07900019,-0.0009686808
0.07800019,-0.0009607106
0.07700019,-0.0009527404
0.07600019,-0.0009453832
0.07500019,-0.0009377195
0.07400019,-0.0009300558
0.07300019,-0.0009230052
0.07200019,-0.000915648
0.07100019,-0.000908904
0.07000019,-0.0009018534
0.06900019,-0.0008951093
0.06800019,-0.0008883653
0.06700019,-0.0008816211
0.06600019,-0.0008751836
0.06500019,-0.0008684396
0.06400019,-0.0008620021
0.06300019,-0.0008558711
0.06200019,-0.0008497401
0.06100019,-0.0008436092
0.06000019,-0.0008377847
0.05900019,-0.0008316538
0.05800019,-0.0008261359
0.05700019,-0.0008203115
0.05600019,-0.0008147936
0.05500019,-0.0008092758
0.05400019,-0.0008037579
0.05300019,-0.0007982401
0.05200019,-0.0007930287
0.05100019,-0.0007878174
0.05000019,-0.0007822995
0.04900019,-0.0007773947
0.04800019,-0.00077249
0.04700019,-0.0007672787
0.04600019,-0.0007626804
0.04500019,-0.0007577756
0.04400019,-0.0007531774
0.04300019,-0.0007485792
0.04200019,-0.0007436744
0.04100019,-0.0007390762
0.04000019,-0.0007347845
0.03900019,-0.0007301863
0.03800019,-0.0007258946
0.03700019,-0.0007216029
0.03600019,-0.0007170048
0.03500019,-0.0007127131
0.03400019,-0.0007087279
0.03300019,-0.0007044363
0.03200019,-0.0007004511
0.03100019,-0.000696466
0.03000019,-0.0006924809
0.02900019,-0.0006884958
0.02800019,-0.0006845106
0.02700019,-0.0006808321
0.02600019,-0.0006768469
0.02500019,-0.0006731683
0.02400019,-0.0006694898
0.02300019,-0.0006658112
0.02200019,-0.0006621326
0.02100019,-0.000658454
0.02000019,-0.0006550819
0.01900019,-0.00065171
0.01800019,-0.0006483379
0.01700019,-0.0006446594
0.01600019,-0.0006412873
0.01500019,-0.0006379153
0.01400019,-0.0006345432
0.01300019,-0.0006311712
0.01200019,-0.0006281057
0.01100019,-0.0006247337
0.01000019,-0.0006216682
0.009000191,-0.0006186027
0.00800019,-0.0006155373
0.007000191,-0.0006124718
0.006000191,-0.0006094063
0.005000191,-0.0006063408
0.004000191,-0.0006032753
0.003000191,-0.0006002099
0.002000191,-0.0005974509
0.001000191,-0.000594692
1.907349E-07,-0.0005870283
0.0009998092,-0.0005781384
0.001999809,-0.0005707812
0.002999809,-0.0005643437
0.003999809,-0.0005579062
0.004999809,-0.0005520818
0.005999809,-0.0005462574
0.006999809,-0.0005407395
0.007999809,-0.0005355282
0.00899981,-0.0005303168
0.009999809,-0.000525412
0.01099981,-0.0005205073
0.01199981,-0.0005159091
0.01299981,-0.0005113108
0.01399981,-0.0005067126
0.01499981,-0.0005024209
0.01599981,-0.0004981293
0.01699981,-0.0004941442
0.01799981,-0.0004898525
0.01899981,-0.0004858673
0.01999981,-0.0004818822
0.02099981,-0.0004778971
0.02199981,-0.0004742185
0.02299981,-0.0004702334
0.02399981,-0.0004665548
0.02499981,-0.0004628762
0.02599981,-0.0004591976
0.02699981,-0.0004558256
0.02799981,-0.0004524536
0.02899981,-0.0004490816
0.02999981,-0.0004457095
0.03099981,-0.0004423375
0.03199981,-0.000439272
0.03299981,-0.0004359
0.03399981,-0.0004328345
0.03499981,-0.000429769
0.03599981,-0.000426397
0.03699981,-0.0004233315
0.03799981,-0.000420266
0.03899981,-0.0004172005
0.03999981,-0.0004144416
0.04099981,-0.0004113761
0.04199981,-0.0004086172
0.04299981,-0.0004058582
0.04399981,-0.0004027928
0.04499981,-0.0004000338
0.04599981,-0.0003972749
0.04699981,-0.000394516
0.04799981,-0.0003920636
0.04899981,-0.0003893046
0.04999981,-0.0003865457
0.05099981,-0.0003840933
0.05199981,-0.0003813344
0.05299981,-0.0003785754
0.05399981,-0.0003761231
0.05499981,-0.0003736707
0.05599981,-0.0003712183
0.05699981,-0.0003687659
0.05799981,-0.0003663135
0.05899981,-0.0003638611
0.05999981,-0.0003614087
0.06099981,-0.0003589563
0.06199981,-0.0003568105
0.06299981,-0.0003543581
0.06399981,-0.0003519058
0.06499981,-0.0003497599
0.06599981,-0.0003476141
0.06699981,-0.0003451617
0.06799981,-0.0003427093
0.06899981,-0.0003405634
0.06999981,-0.0003384176
0.07099981,-0.0003362718
0.07199981,-0.0003341259
0.07299981,-0.0003319801
0.07399981,-0.0003298343
0.07499981,-0.0003276884
0.07599981,-0.0003255426
0.07699981,-0.0003233968
0.07799981,-0.0003215575
0.07899981,-0.0003194116
0.07999981,-0.0003172658
0.08099981,-0.0003151199
0.08199981,-0.0003132806
0.08299981,-0.0003111348
0.08399981,-0.0003092955
0.08499981,-0.0003071497
0.08599981,-0.0003053104
0.08699981,-0.0003034711
0.08799981,-0.0003013253
0.08899981,-0.000299486
0.08999981,-0.0002976467
0.09099981,-0.0002958074
0.09199981,-0.0002936616
0.09299981,-0.0002918223
0.09399981,-0.000289983
0.09499981,-0.0002881437
0.09599981,-0.0002863044
0.09699981,-0.0002844651
0.09799981,-0.0002826258
0.09899981,-0.0002810931
0.09999981,-0.0002789472
0.1009998,-0.000277108
0.1019998,-0.0002752687
0.1029998,-0.0002734294
0.1039998,-0.0002718967
0.1049998,-0.0002700574
0.1059998,-0.000268218
0.1069998,-0.0002663788
0.1079998,-0.0002645395
0.1089998,-0.0002630067
0.1099998,-0.000261474
0.1109998,-0.0002596347
0.1119998,-0.0002577954
0.1129998,-0.0002559561
0.1139998,-0.0002544234
0.1149998,-0.0002525841
0.1159998,-0.0002507448
0.1169998,-0.0002492121
0.1179998,-0.0002473728
0.1189998,-0.0002455335
0.1199998,-0.0002440007
0.1209998,-0.0002421615
0.1219998,-0.0002406287
0.1229998,-0.0002387894
0.1239998,-0.0002369501
0.1249998,-0.0002351108
0.1259998,-0.0002335781
0.1269998,-0.0002317388
0.1279998,-0.0002302061
0.1289998,-0.0002283668
0.1299998,-0.0002265275
0.1309998,-0.0002249948
0.1319998,-0.0002231555
0.1329998,-0.0002213162
0.1339998,-0.0002197834
0.1349998,-0.0002179441
0.1359998,-0.0002161049
0.1369998,-0.0002142656
0.1379998,-0.0002124263
0.1389998,-0.0002108935
0.1399998,-0.0002090542
0.1409998,-0.000207215
0.1419998,-0.0002053757
0.1429998,-0.0002032298
0.1439998,-0.0002013905
0.1449998,-0.0001998578
0.1459998,-0.000197712
0.1469998,-0.0001958727
0.1479998,-0.0001937268
0.1489998,-0.0001918875
0.1499998,-0.0001900483
0.1509998,-0.000188209
0.1519998,-0.0001860631
0.1529998,-0.0001839173
0.1539998,-0.0001817715
0.1549998,-0.0001799322
0.1559998,-0.0001777863
0.1569998,-0.0001756405
0.1579998,-0.0001734946
0.1589998,-0.0001713488
0.1599998,-0.000169203
0.1609998,-0.0001667506
0.1619998,-0.0001646047
0.1629998,-0.0001624589
0.1639998,-0.0001597
0.1649998,-0.0001575541
0.1659998,-0.000158331
0.1669998,-0.0001559093
0.1679998,-0.0001535489
0.1689998,-0.0001510352
0.1699998,-0.0001481536
0.1709998,-0.0001457012
0.1719998,-0.0001428197
0.1729998,-0.0001401833
0.1739998,-0.0001375777
0.1749998,-0.0001345122
0.1759998,-0.0001315694
0.1769998,-0.0001285958
0.1779998,-0.000125469
0.1789998,-0.0001224955
0.1799998,-0.0001192461
0.1809998,-0.0001160887
0.1819998,-0.0001127779
0.1829998,-0.0001090687
0.1839998,-0.0001056967
0.1849998,-0.0001021101
0.1859998,-9.840082E-05
0.1869998,-9.478355E-05
0.1879998,-9.070646E-05
0.1889998,-8.684395E-05
0.1899998,-8.288948E-05
0.1909998,-7.841388E-05
0.1919998,-7.41222E-05
0.1929998,-6.976922E-05
0.1939998,-6.510968E-05
0.1949998,-6.063408E-05
0.1959998,-5.560668E-05
0.1969998,-5.073257E-05
0.1979998,-4.591976E-05
0.1989998,-4.037124E-05
0.1999998,-3.50373E-05
0.2009998,-2.951943E-05
0.2019998,-2.351108E-05
0.2029998,-1.780929E-05
0.2039998,-1.146374E-05
0.2049998,-5.056879E-06
0.2059998,1.634019E-06
0.2069998,8.329033E-06
0.2079998,1.502405E-05
0.2089998,2.214823E-05
0.2099998,2.9767E-05
0.2109998,3.712416E-05
0.2119998,4.533965E-05
0.2129998,5.32486E-05
0.2139998,6.158671E-05
0.2149998,7.06912E-05
0.2159998,7.933586E-05
0.2169998,8.877754E-05
0.2179998,9.864839E-05
0.2189998,0.0001082127
0.2199998,0.0001190645
0.2209998,0.0001295791
0.2219998,0.0001404616
0.2229998,0.0001524476
0.2239998,0.0001642804
0.2249998,0.0001767569
0.2259998,0.0001899385
0.2269998,0.0002028442
0.2279998,0.0002170067
0.2289998,0.0002310772
0.2299998,0.0002459142
0.2309998,0.0002617627
0.2319998,0.0002774273
0.2329998,0.0002943181
0.2339998,0.0003154498
0.2349998,0.0003326166
0.2359998,0.0003519291
0.2369998,0.0003712417
0.2379998,0.0003914738
0.2389998,0.0004129322
0.2399998,0.0004343906
0.2409998,0.0004576883
0.2419998,0.000481599
0.2429998,0.0005061228
0.2439998,0.0005324861
0.2449998,0.0005591557
0.2459998,0.000586745
0.2469998,0.0006164802
0.2479998,0.000646522
0.2489998,0.000678403
0.2499998,0.0007118168
0.2509998,0.0007458436
0.2519998,0.0007820163
0.2529998,0.0008191086
0.2539998,0.0008580403
0.2549998,0.0008988112
0.2559998,0.0009414214
0.2569998,0.000985871
0.2579998,0.001031547
0.2589998,0.001079368
0.2599998,0.001130255
0.2609998,0.001181449
0.2619998,0.001236321
0.2629998,0.001293339
0.2639998,0.001351276
0.2649998,0.001414119
0.2659998,0.001478187
0.2669998,0.001543176
0.2679998,0.001614601
0.2689998,0.001687253
0.2699998,0.001761438
0.2709998,0.001840834
0.2719998,0.001921456
0.2729998,0.002006063
0.2739998,0.002094656
0.2749998,0.002185701
0.2759998,0.002281344
0.2769998,0.002378826
0.2779998,0.0024806
0.2789998,0.002586666
0.2799998,0.002695491
0.2809998,0.002809527
0.2819998,0.002924789
0.2829998,0.003046182
0.2839998,0.00320048
0.2849998,0.003326165
0.2859998,0.003457981
0.2869998,0.003595928
0.2879998,0.003733875
0.2889998,0.003881018
0.2899998,0.004028161
0.2909998,0.004178369
0.2919998,0.004337775
0.2929998,0.004494114
0.2939998,0.004656585
0.2949998,0.004825186
0.2959998,0.004993788
0.2969998,0.005162389
0.2979998,0.005340187
0.2989998,0.005517985
0.2999998,0.005698849
0.3009998,0.005885844
0.3019998,0.006072837
0.3029998,0.006259832
0.3039998,0.006449892
0.3049998,0.006646083
0.3059998,0.006836143
0.3069998,0.007038464
0.3079998,0.007237721
0.3089998,0.007433912
0.3099998,0.007633169
0.3109998,0.007838556
0.3119998,0.008031681
0.3129998,0.008237069
0.3139998,0.00843939
0.3149998,0.008638646
0.3159998,0.008840969
0.3169998,0.009040225
0.3179998,0.009239481
0.3189998,0.009441803
0.3199998,0.00964106
0.3209998,0.009840316
0.3219998,0.01003651
0.3229998,0.01023576
0.3239998,0.01042889
0.3249998,0.01062201
0.3259998,0.01081514
0.3269998,0.01100826
0.3279998,0.01119219
0.3289998,0.01137919
0.3299998,0.01156312
0.3309998,0.01174398
0.3319998,0.01192484
0.3329998,0.01209344
0.3339998,0.01226511
0.3349998,0.01243371
0.3359998,0.01259312
0.3369998,0.01275252
0.3379998,0.01290273
0.3389998,0.01304681
0.3399998,0.01318782
0.3409998,0.0133227
0.3419998,0.01344532
0.3429998,0.01355875
0.3439998,0.01366604
0.3449998,0.01376107
0.3459998,0.01384997
0.3469998,0.01392967
0.3479998,0.01399711
0.3489998,0.01405535
0.3499998,0.01409827
0.3509998,0.01413812
0.3519998,0.01415958
0.3529998,0.01417797
0.3539998,0.01417797
0.3549998,0.01415958
0.3559998,0.01415038
0.3569998,0.01411053
0.3579998,0.01406455
0.3589998,0.01401857
0.3599998,0.01394193
0.3609998,0.01386836
0.3619998,0.01379172
0.3629998,0.01369056
0.3639998,0.01358327
0.3649998,0.01346985
0.3659998,0.01334416
0.3669998,0.01320621
0.3679998,0.01306827
0.3689998,0.01293032
0.3699998,0.01277092
0.3709998,0.01261764
0.3719998,0.01246743
0.3729998,0.01229577
0.3739998,0.0121333
0.3749998,0.01197389
0.3759998,0.01179916
0.3769998,0.01163669
0.3779998,0.01146809
0.3789998,0.01129948
0.3799998,0.01114008
0.3809998,0.01097148
0.3819998,0.01080901
0.3829998,0.01064654
0.3839998,0.01048407
0.3849998,0.01032773
0.3859998,0.01017139
0.3869998,0.01001811
0.3879998,0.009867905
0.3889998,0.009720762
0.3899998,0.009576684
0.3909998,0.009435672
0.3919998,0.009291595
0.3929998,0.009156713
0.3939998,0.009018766
0.3949998,0.008883885
0.3959998,0.0087582
0.3969998,0.00862945
0.3979998,0.008503765
0.3989998,0.008387277
0.3999998,0.008261592
0.4009998,0.008148169
0.4019998,0.008034746
0.4029998,0.007921323
0.4039998,0.007814032
0.4049998,0.007700609
0.4059998,0.007596382
0.4069998,0.007495221
0.4079998,0.00739406
0.4089998,0.007299031
0.4099998,0.007210132
0.4109998,0.007115101
0.4119998,0.007023137
0.4129998,0.006928107
0.4139998,0.006842274
0.4149998,0.00675644
0.4159998,0.006670607
0.4169998,0.00659397
0.4179998,0.006511202
0.4189998,0.006428434
0.4199998,0.006357928
0.4209998,0.006281291
0.4219998,0.006207719
0.4229998,0.006140279
0.4239998,0.006069772
0.4249998,0.005999266
0.4259998,0.005941022
0.4269998,0.005873581
0.4279998,0.005812271
0.4289998,0.005754027
0.4299998,0.005692718
0.4309998,0.005634474
0.4319998,0.005582361
0.4329998,0.005527182
0.4339998,0.005475068
0.4349998,0.005426021
0.4359998,0.005376973
0.4369998,0.005327926
0.4379998,0.005285008
0.4389998,0.005242092
0.4399998,0.00519611
0.4409998,0.005162389
0.4419998,0.005119473
0.4429998,0.005085752
0.4439998,0.005055097
0.4449998,0.005015246
0.4459998,0.004990723
0.4469998,0.004966198
0.4479998,0.004938609
0.4489998,0.004920216
0.4499998,0.004895692
0.4509998,0.0048773
0.4519998,0.004868103
0.4529998,0.004852775
0.4539998,0.004843579
0.4549998,0.004843579
0.4559998,0.004840514
0.4569998,0.004840514
0.4579998,0.004852775
0.4589998,0.004861972
0.4599998,0.0048773
0.4609998,0.004901823
0.4619998,0.004926347
0.4629998,0.004953937
0.4639998,0.004990723
0.4649998,0.005033639
0.4659998,0.005082687
0.4669998,0.005137865
0.4679998,0.005199175
0.4689998,0.005269681
0.4699998,0.005346318
0.4709998,0.005432152
0.4719998,0.005521051
0.4729998,0.005628342
0.4739998,0.0057387
0.4749998,0.005852123
0.4759998,0.005990069
0.4769998,0.006121885
0.4779998,0.006269028
0.4789998,0.006428434
0.4799998,0.006587839
0.4809998,0.006765637
0.4819998,0.006949566
0.4829998,0.007139625
0.4839998,0.007348078
0.4849998,0.007553466
0.4859998,0.007774181
0.4869998,0.008007158
0.4879998,0.008243199
0.4889998,0.008485372
0.4899998,0.008745939
0.4909998,0.009006504
0.4919998,0.009276267
0.4929998,0.009558291
0.4939998,0.009843381
0.4949998,0.01013767
0.4959998,0.01043195
0.4969998,0.01073544
0.4979998,0.01104505
0.4989998,0.01136386
0.4999998,0.01168574
0.5009998,0.01201068
0.5019998,0.01234788
0.5029998,0.01268202
0.5039998,0.01301922
0.5049998,0.01337175
0.5059998,0.01372122
0.5069998,0.01406762
0.5079998,0.01443854
0.5089998,0.01479107
0.5099998,0.01515586
0.5109998,0.01553598
0.5119998,0.0159069
0.5129998,0.01628396
0.5139998,0.01667021
0.5149998,0.01704726
0.5159998,0.01743351
0.5169998,0.01782283
0.5179998,0.01820908
0.5189998,0.01860146
0.5199998,0.01899691
0.5209998,0.01939849
0.5219998,0.01978474
0.5229998,0.02019552
0.5239998,0.02059403
0.5249998,0.02099254
0.5259998,0.02140945
0.5269998,0.02180796
0.5279998,0.02221873
0.5289998,0.02263871
0.5299998,0.02304335
0.5309998,0.02346332
0.5319998,0.02388636
0.5329998,0.02428794
0.5339998,0.02471404
0.5349998,0.02514014
0.5359998,0.02554478
0.5369998,0.02597395
0.5379998,0.02640005
0.5389998,0.02682002
0.5399998,0.02725532
0.5409998,0.02768449
0.5419998,0.0281014
0.5429998,0.02853976
0.5439998,0.0289628
0.5449998,0.02939503
0.5459998,0.02983339
0.5469998,0.03102385
0.5479998,0.03145302
0.5489998,0.03188219
0.5499998,0.03231135
0.5509998,0.03274052
0.5519998,0.03320035
0.5529998,0.03366017
0.5539998,0.03408933
0.5549998,0.0345185
0.5559998,0.03497833
0.5569998,0.03540749
0.5579998,0.03586731
0.5589998,0.03632713
0.5599998,0.0367563
0.5609998,0.03721613
0.5619998,0.03767595
0.5629998,0.03810512
0.5639998,0.03856494
0.5649998,0.03902476
0.5659998,0.03948459
0.5669998,0.03994441
0.5679998,0.04037357
0.5689998,0.04083339
0.5699998,0.04129322
0.5709998,0.04175304
0.5719998,0.04218221
0.5729998,0.04264203
0.5739998,0.04310185
0.5749998,0.04356168
0.5759998,0.0440215
0.5769998,0.04448132
0.5779998,0.04494114
0.5789998,0.04540097
0.5799998,0.04589145
0.5809998,0.04632061
0.5819998,0.04678043
0.5829998,0.04727091
0.5839998,0.04770008
0.5849998,0.04819056
0.5859998,0.04865038
0.5869998,0.0491102
0.5879998,0.04957002
0.5889998,0.05002984
0.5899998,0.05048966
0.5909998,0.05094949
0.5919998,0.05140931
0.5929998,0.05186913
0.5939998,0.05235961
0.5949998,0.05281943
0.5959998,0.0532486
0.5969998,0.05373908
0.5979998,0.05422956
0.5989998,0.05465872
0.5999998,0.0551492
0.6009998,0.05560903
0.6019998,0.05606885
0.6029998,0.05655932
0.6039998,0.05701914
0.6049998,0.05747896
0.6059998,0.05796945
0.6069998,0.05842927
0.6079998,0.05888909
0.6089998,0.05937957
0.6099998,0.05983939
0.6109998,0.06029921
0.6119998,0.06078969
0.6129998,0.06124951
0.6139998,0.06173999
0.6149998,0.06219981
0.6159998,0.06269029
0.6169998,0.06315011
0.6179998,0.06364059
0.6189998,0.06410041
0.6199998,0.06459089
0.6209998,0.06505071
0.6219998,0.06554119
0.6229998,0.06600101
0.6239998,0.06646083
0.6249998,0.0669513
0.6259998,0.06741113
0.6269998,0.06787095
0.6279998,0.06836143
0.6289998,0.06882125
0.6299998,0.06931173
0.6309998,0.06980221
0.6319998,0.07029268
0.6329998,0.07075251
0.6339998,0.07121233
0.6349998,0.07170281
0.6359998,0.07216263
0.6369998,0.07265311
0.6379998,0.07314359
0.6389998,0.07363406
0.6399998,0.07409389
0.6409998,0.07455371
0.6419998,0.07504418
0.6429998,0.075504
0.6439998,0.07599448
0.6449998,0.07648496
0.6459998,0.07694478
0.6469998,0.07743526
0.6479998,0.07792573
0.6489998,0.07838555
0.6499998,0.07887604
0.6509998,0.07936651
0.6519998,0.07982634
0.6529998,0.08031681
0.6539998,0.08080729
0.6549998,0.08126711
0.6559998,0.08172693
0.6569998,0.08221742
0.6579998,0.08267724
0.6589998,0.08319836
0.6599998,0.08365819
0.6609998,0.08411801
0.6619998,0.08463915
0.6629998,0.08509897
0.6639998,0.08555879
0.6649998,0.08604927
0.6659998,0.08653974
0.6669998,0.08703022
0.6679998,0.0875207
0.6689998,0.08798052
0.6699998,0.088471
0.6709998,0.08899213
0.6719998,0.08942129
0.6729998,0.08994243
0.6739998,0.09040225
0.6749998,0.09086207
0.6759998,0.09135254
0.6769998,0.09184303
0.6779998,0.0923335
0.6789998,0.09282398
0.6799998,0.09331446
0.6809998,0.09377428
0.6819998,0.09426476
0.6829998,0.09475523
0.6839998,0.09521506
0.6849998,0.09570553
0.6859998,0.09619602
0.6869998,0.09665584
0.6879998,0.09714631
0.6889998,0.09766745
0.6899998,0.09812727
0.6909998,0.09861775
0.6919998,0.09910822
0.6929998,0.09956805
0.6939998,0.1000585
0.6949998,0.1005796
0.6959998,0.1010395
0.6969998,0.1015606
0.6979998,0.1020204
0.6989998,0.1025109
0.6999998,0.1026335
0.6990003,0.1021737
0.6980003,0.1016832
0.6970003,0.1012234
0.6960003,0.1007329
0.6950003,0.1002425
0.6940003,0.09978263
0.6930003,0.0993228
0.6920003,0.09883233
0.6910003,0.09834184
0.6900003,0.09791268
0.6890003,0.0974222
0.6880003,0.09693173
0.6870003,0.09647191
0.6860003,0.09601208
0.6850003,0.09552161
0.6840003,0.09506179
0.6830003,0.09460196
0.6820003,0.09408083
0.6810003,0.09365166
0.6800003,0.09319184
0.6790003,0.09270137
0.6780003,0.09221088
0.6770003,0.09175106
0.6760003,0.09129124
0.6750003,0.09080076
0.6740003,0.09034094
0.6730003,0.08985046
0.6720003,0.08935999
0.6710003,0.08890016
0.6700003,0.08844034
0.6690003,0.08794986
0.6680003,0.08749004
0.6670003,0.08699957
0.6660003,0.08653974
0.6650003,0.08607992
0.6640003,0.08558945
0.6630003,0.08512962
0.6620003,0.08463915
0.6610003,0.08417932
0.6600003,0.0837195
0.6590003,0.08325968
0.6580003,0.0827692
0.6570003,0.08230938
0.6560003,0.08184955
0.6550003,0.08135908
0.6540003,0.08089925
0.6530003,0.08047009
0.6520003,0.07994895
0.6510003,0.07948913
0.6500003,0.07905997
0.6490003,0.07856949
0.6480003,0.07807901
0.6470003,0.07764985
0.6460003,0.07715937
0.6450003,0.07666889
0.6440003,0.07623972
0.6430003,0.07574924
0.6420003,0.07528942
0.6410003,0.0748296
0.6400003,0.07433912
0.6390003,0.07387929
0.6380003,0.07345013
0.6370003,0.07295965
0.6360003,0.07246917
0.6350003,0.07204001
0.6340003,0.07154953
0.6330003,0.07108971
0.6320003,0.07066055
0.6310003,0.07017007
0.6300003,0.06967959
0.6290003,0.06925042
0.6280003,0.06875994
0.6270003,0.06830012
0.6260003,0.0678403
0.6250003,0.06738048
0.6240003,0.06688999
0.6230003,0.06643017
0.6220003,0.06600101
0.6210003,0.06551053
0.6200003,0.06505071
0.6190003,0.06462154
0.6180003,0.06413107
0.6170003,0.06367125
0.6160003,0.06321142
0.6150003,0.0627516
0.6140003,0.06229177
0.6130003,0.06183195
0.6120003,0.06137213
0.6110003,0.06091231
0.6100003,0.06045249
0.6090003,0.05999266
0.6080003,0.05953284
0.6070003,0.05907302
0.6060003,0.05861319
0.6050003,0.05815337
0.6040003,0.05769355
0.6030003,0.05723373
0.6020003,0.05677391
0.6010003,0.05631408
0.6000003,0.05585426
0.5990003,0.0554251
0.5980003,0.05496527
0.5970003,0.05450545
0.5960003,0.05404563
0.5950003,0.0535858
0.5940003,0.05312598
0.5930003,0.05269681
0.5920003,0.05223699
0.5910003,0.05177717
0.5900003,0.051348
0.5890003,0.05088818
0.5880003,0.05042836
0.5870003,0.04999919
0.5860003,0.04953937
0.5850003,0.04907954
0.5840003,0.04865038
0.5830003,0.04819056
0.5820003,0.04773073
0.5810003,0.04730156
0.5800003,0.04684174
0.5790003,0.04641258
0.5780003,0.04595275
0.5770003,0.04552358
0.5760003,0.04506376
0.5750003,0.04460394
0.5740003,0.04417477
0.5730003,0.04371495
0.5720003,0.04328578
0.5710003,0.04285662
0.5700003,0.0423968
0.5690003,0.04196763
0.5680003,0.04153846
0.5670003,0.04107863
0.5660003,0.04064947
0.5650003,0.04018965
0.5640003,0.03976048
0.5630003,0.03933131
0.5620003,0.03887149
0.5610003,0.03844232
0.5600003,0.03801315
0.5590003,0.03755333
0.5580003,0.03712416
0.5570003,0.036695
0.5560003,0.03626583
0.5550003,0.03583666
0.5540003,0.03540749
0.5530003,0.03497833
0.5520003,0.03454916
0.5510003,0.03411999
0.5500003,0.03369082
0.5490003,0.03326165
0.5480003,0.03283248
0.5470003,0.03240332
0.5460003,0.03200481
0.5450003,0.03157564
0.5440003,0.03114647
0.5430003,0.0307173
0.5420003,0.03028814
0.5410003,0.02985897
0.5400003,0.0294298
0.5390003,0.02903129
0.5380003,0.02860212
0.5370003,0.02820361
0.5360003,0.02777444
0.5350003,0.02737593
0.5340003,0.02694676
0.5330003,0.02654825
0.5320003,0.02611908
0.5310003,0.02572057
0.5300003,0.02532205
0.5290003,0.02489289
0.5280003,0.02449437
0.5270003,0.02409586
0.5260003,0.02369735
0.5250003,0.02329884
0.5240003,0.02290032
0.5230003,0.02250181
0.5220003,0.02207264
0.5210003,0.02170478
0.5200003,0.02130627
0.5190003,0.02090776
0.5180003,0.02050925
0.5170003,0.02011073
0.5160003,0.01974287
0.5150003,0.01934436
0.5140003,0.01894585
0.5130003,0.01857799
0.5120003,0.01821013
0.5110003,0.01781162
0.5100003,0.01744376
0.5090003,0.01707591
0.5080003,0.01670805
0.5070003,0.01634019
0.5060003,0.01597233
0.5050003,0.01560447
0.5040003,0.01523662
0.5030003,0.01486876
0.5020003,0.0145009
0.5010003,0.01413304
0.5000003,0.01379584
0.4990003,0.01342798
0.4980003,0.01309078
0.4970003,0.01225285
0.4960003,0.01191258
0.4950003,0.01157538
0.4940003,0.01124124
0.4930003,0.0109071
0.4920003,0.0105791
0.4910003,0.01025415
0.4900003,0.009929215
0.4890003,0.00961347
0.4880003,0.009297726
0.4870003,0.00898198
0.4860003,0.008678498
0.4850003,0.008368884
0.4840003,0.008068467
0.4830003,0.007774181
0.4820003,0.007473763
0.4810003,0.007185608
0.4800003,0.006900518
0.4790003,0.006612363
0.4780003,0.006339534
0.4770003,0.006063641
0.4760003,0.005790813
0.4750003,0.005527182
0.4740003,0.005266616
0.4730003,0.00500605
0.4720003,0.004757746
0.4710003,0.004509442
0.4700003,0.004267268
0.4690003,0.004031226
0.4680003,0.003795184
0.4670003,0.003568338
0.4660003,0.003347624
0.4650003,0.00313304
0.4640003,0.002918456
0.4630003,0.002710003
0.4620003,0.002510747
0.4610003,0.00231149
0.4600003,0.002118365
0.4590003,0.001940567
0.4580003,0.001756638
0.4570003,0.001581906
0.4560003,0.001419435
0.4550003,0.001250834
0.4540003,0.001063428
0.4530003,0.0009126058
0.4520003,0.0007614776
0.4510003,0.0006235309
0.4500003,0.0004855841
0.4490003,0.0003525422
0.4480003,0.0002265508
0.4470003,0.0001027054
0.4460003,-1.163716E-05
0.4450003,-0.0001276762
0.4440003,-0.0002355199
0.4430003,-0.0003345043
0.4420003,-0.0004349803
0.4410003,-0.0005272513
0.4400003,-0.0006149242
0.4390003,-0.0007035166
0.4380003,-0.0007822995
0.4370003,-0.0008598563
0.4360003,-0.0009355737
0.4350003,-0.001001482
0.4340003,-0.001071068
0.4330003,-0.00113483
0.4320003,-0.001192768
0.4310003,-0.001254384
0.4300003,-0.001306497
0.4290003,-0.001359223
0.4280003,-0.001411643
0.4270003,-0.001455173
0.4260003,-0.001501768
0.4250003,-0.001544992
0.4240003,-0.00158331
0.4230003,-0.001625921
0.4220003,-0.001663013
0.4210003,-0.001695813
0.4200003,-0.001731066
0.4190003,-0.001761108
0.4180003,-0.001792683
0.4170003,-0.001822111
0.4160003,-0.001848781
0.4150003,-0.001878823
0.4140003,-0.001902427
0.4130003,-0.00192787
0.4120003,-0.00195454
0.4110003,-0.001974159
0.4100003,-0.002005121
0.4090003,-0.002031484
0.4080003,-0.002046505
0.4070003,-0.002069802
0.4060003,-0.002085129
0.4050003,-0.002102603
0.4040003,-0.002124674
0.4030003,-0.002141841
0.4020003,-0.002161154
0.4010003,-0.002178014
0.4000003,-0.002193648
0.3990003,-0.002214493
0.3980003,-0.002228594
0.3970003,-0.002246681
0.3960003,-0.00226538
0.3950003,-0.002278562
0.3940003,-0.002297261
0.3930003,-0.002312895
0.3920003,-0.002327303
0.3910003,-0.002346309
0.3900003,-0.002362249
0.3890003,-0.00237819
0.3880003,-0.00239597
0.3870003,-0.002408538
0.3860003,-0.002427237
0.3850003,-0.002444404
0.3840003,-0.002457279
0.3830003,-0.002477512
0.3820003,-0.002490693
0.3810003,-0.002507553
0.3800003,-0.002527785
0.3790003,-0.002541273
0.3780003,-0.002558747
0.3770003,-0.002578366
0.3760003,-0.002594
0.3750003,-0.002613006
0.3740003,-0.002629559
0.3730003,-0.002647033
0.3720003,-0.002667265
0.3710003,-0.002685045
0.3700003,-0.002704357
0.3690003,-0.002721217
0.3680003,-0.002738997
0.3670003,-0.002761375
0.3660003,-0.002776396
0.3650003,-0.002797548
0.3640003,-0.002821765
0.3630003,-0.00283648
0.3620003,-0.002858244
0.3610003,-0.002881235
0.3600003,-0.002898402
0.3590003,-0.002922313
0.3580003,-0.002944384
0.3570003,-0.00296431
0.3560003,-0.002987914
0.3550003,-0.003007227
0.3540003,-0.002997925
0.3530003,-0.003016318
0.3520003,-0.003037777
0.3510003,-0.0030623
0.3500003,-0.003083759
0.3490003,-0.003108283
0.3480003,-0.003135872
0.3470003,-0.003154265
0.3460003,-0.003184919
0.3450003,-0.003209443
0.3440003,-0.003233967
0.3430003,-0.003264622
0.3420003,-0.003286081
0.3410003,-0.00331367
0.3400003,-0.003344325
0.3390003,-0.003368848
0.3380003,-0.003399503
0.3370003,-0.003427093
0.3360003,-0.003451617
0.3350003,-0.003485337
0.3340003,-0.003515992
0.3330003,-0.003543581
0.3320003,-0.003577302
0.3310003,-0.003604891
0.3300003,-0.003635545
0.3290003,-0.003669266
0.3280003,-0.003699921
0.3270003,-0.003736707
0.3260003,-0.003770427
0.3250003,-0.003804147
0.3240003,-0.003837867
0.3230003,-0.003871588
0.3220003,-0.003908373
0.3210003,-0.003942094
0.3200003,-0.00397888
0.3190003,-0.004021796
0.3180003,-0.004055517
0.3170003,-0.004095368
0.3160003,-0.004135219
0.3150003,-0.004168939
0.3140003,-0.004211857
0.3130003,-0.004254773
0.3120003,-0.004291559
0.3110003,-0.004334475
0.3100003,-0.004374327
0.3090003,-0.004414178
0.3080003,-0.00446016
0.3070003,-0.004509208
0.3060003,-0.004552125
0.3050003,-0.004598107
0.3040003,-0.004637958
0.3030003,-0.004687006
0.3020003,-0.004732988
0.3010003,-0.00477897
0.3000003,-0.004831084
0.2990003,-0.004874
0.2980003,-0.004926114
0.2970003,-0.004975162
0.2960003,-0.005024209
0.2950003,-0.005079388
0.2940003,-0.005131501
0.2930003,-0.005183614
0.2920003,-0.005235727
0.2910003,-0.005284776
0.2900003,-0.005343019
0.2890003,-0.005401264
0.2880003,-0.005456442
0.2870003,-0.005514686
0.2860003,-0.005575996
0.2850003,-0.005631175
0.2840003,-0.005692484
0.2830003,-0.005753794
0.2820003,-0.005815104
0.2810003,-0.005879479
0.2800003,-0.005940788
0.2790003,-0.006005164
0.2780003,-0.006072604
0.2770003,-0.006140045
0.2760003,-0.006207486
0.2750003,-0.006274926
0.2740003,-0.006345432
0.2730003,-0.006415938
0.2720003,-0.006486444
0.2710003,-0.006566147
0.2700003,-0.006633587
0.2690003,-0.006710225
0.2680003,-0.006792993
0.2670003,-0.006863499
0.2660003,-0.006946267
0.2650003,-0.00702597
0.2640003,-0.007102606
0.2630003,-0.00718844
0.2620003,-0.007274273
0.2610003,-0.007357041
0.2600003,-0.007442875
0.2590003,-0.007528708
0.2580003,-0.007617608
0.2570003,-0.007703441
0.2560003,-0.007795405
0.2550003,-0.00788737
0.2540003,-0.007976269
0.2530003,-0.008068234
0.2520003,-0.008163263
0.2510003,-0.008249097
0.2500003,-0.008344127
0.2490003,-0.008439157
0.2480003,-0.008531122
0.2470003,-0.008626151
0.2460003,-0.008718115
0.2450003,-0.00881008
0.2440003,-0.00890511
0.2430003,-0.00900014
0.2420003,-0.009092105
0.2410003,-0.009184069
0.2400003,-0.009276033
0.2390003,-0.009371064
0.2380003,-0.009463028
0.2370003,-0.009551927
0.2360003,-0.009646957
0.2350003,-0.009735856
0.2340003,-0.009824755
0.2330003,-0.009913653
0.2320003,-0.01000562
0.2310003,-0.01009145
0.2300003,-0.01017422
0.2290003,-0.01026312
0.2280003,-0.01034895
0.2270003,-0.01042865
0.2260003,-0.01051449
0.2250003,-0.01059419
0.2240003,-0.01066776
0.2230003,-0.01075053
0.2220003,-0.01082717
0.2210003,-0.01089767
0.2200003,-0.01096818
0.2190003,-0.01103869
0.2180003,-0.01110306
0.2170003,-0.0111705
0.2160003,-0.01122875
0.2150003,-0.01128393
0.2140003,-0.01132991
0.2130003,-0.01137589
0.2120003,-0.01141574
0.2110003,-0.01144333
0.2100003,-0.01147092
0.2090003,-0.01148625
0.2080003,-0.01148625
0.2070003,-0.01148318
0.2060003,-0.01145866
0.2050003,-0.01142187
0.2040003,-0.01137282
0.2030003,-0.01129619
0.2020003,-0.01119196
0.2010003,-0.01107241
0.2000003,-0.0109222
0.1990003,-0.01075053
0.1980003,-0.01055434
0.1970003,-0.01033669
0.1960003,-0.01008839
0.1950003,-0.009830886
0.1940003,-0.009561123
0.1930003,-0.009263772
0.1920003,-0.00896642
0.1910003,-0.008675199
0.1900003,-0.00836252
0.1890003,-0.008055971
0.1880003,-0.007761685
0.1870003,-0.007467398
0.1860003,-0.007176178
0.1850003,-0.006906416
0.1840003,-0.006648915
0.1830003,-0.006400611
0.1820003,-0.006167634
0.1810003,-0.00595305
0.1800003,-0.005741532
0.1790003,-0.005536145
0.1780003,-0.005361412
0.1770003,-0.005180549
0.1760003,-0.005008881
0.1750003,-0.004861739
0.1740003,-0.00471153
0.1730003,-0.004567452
0.1720003,-0.004441767
0.1710003,-0.004309952
0.1700003,-0.004187332
0.1690003,-0.004076975
0.1680003,-0.003963552
0.1670003,-0.00385626
0.1660003,-0.003758165
0.1650003,-0.003657004
0.1640003,-0.003565039
0.1630003,-0.003479206
0.1620003,-0.003387242
0.1610003,-0.003307539
0.1600003,-0.003227836
0.1590003,-0.003148134
0.1580003,-0.003077628
0.1570003,-0.003004056
0.1560003,-0.002936616
0.1550003,-0.002869175
0.1540003,-0.0028048
0.1530003,-0.002740425
0.1520003,-0.00268218
0.1510003,-0.002623936
0.1500003,-0.002565692
0.1490003,-0.002510513
0.1480003,-0.0024584
0.1470003,-0.002403222
0.1460003,-0.002351108
0.1450003,-0.002298995
0.1440003,-0.002246882
0.1430003,-0.002197834
0.1420003,-0.002151852
0.1410003,-0.002102804
0.1400003,-0.002056822
0.1390003,-0.00201084
0.1380003,-0.001967923
0.1370003,-0.001928072
0.1360003,-0.001891286
0.1350003,-0.0018545
0.1340003,-0.00182078
0.1330003,-0.001790125
0.1320003,-0.00175947
0.1310003,-0.001728815
0.1300003,-0.001701226
0.1290003,-0.001673637
0.1280003,-0.001646047
0.1270003,-0.001621523
0.1260003,-0.001593934
0.1250003,-0.001607528
0.1240003,-0.001585149
0.1230003,-0.001562465
0.1220003,-0.001541006
0.1210003,-0.001520468
0.1200003,-0.001499622
0.1190003,-0.001480003
0.1180003,-0.001460997
0.1170003,-0.001442298
0.1160003,-0.001423905
0.1150003,-0.001406738
0.1140003,-0.001389265
0.1130003,-0.001373018
0.1120003,-0.001356464
0.1110003,-0.001340524
0.1100003,-0.001325197
0.1090003,-0.001310482
0.1080003,-0.001295461
0.1070003,-0.001280747
0.1060003,-0.001266952
0.1050003,-0.001253464
0.1040003,-0.00123967
0.1030003,-0.001226795
0.1020003,-0.001214226
0.1010003,-0.001201351
0.1000003,-0.001189396
0.09900028,-0.001177134
0.09800029,-0.001165178
0.09700029,-0.00115353
0.09600028,-0.001142494
0.09500029,-0.001131458
0.09400029,-0.001120422
0.09300029,-0.00111
0.09200028,-0.001099577
0.09100029,-0.001089154
0.09000029,-0.001079345
0.08900028,-0.001069535
0.08800028,-0.001060032
0.08700029,-0.001050836
0.08600029,-0.001041333
0.08500028,-0.001032136
0.08400029,-0.001023247
0.08300029,-0.001014357
0.08200029,-0.001005773
0.08100028,-0.0009974964
0.08000029,-0.0009892196
0.07900029,-0.0009809429
0.07800028,-0.0009732791
0.07700028,-0.0009653088
0.07600029,-0.0009573385
0.07500029,-0.0009496749
0.07400028,-0.0009423177
0.07300029,-0.0009349606
0.07200029,-0.0009276034
0.07100029,-0.0009205528
0.07000028,-0.0009135022
0.06900029,-0.0009067581
0.06800029,-0.0009000141
0.06700028,-0.00089327
0.06600028,-0.0008865259
0.06500029,-0.000880395
0.06400029,-0.0008736509
0.06300028,-0.0008675199
0.06200029,-0.000861389
0.06100029,-0.0008549515
0.06000029,-0.000849127
0.05900029,-0.0008433026
0.05800029,-0.0008371716
0.05700029,-0.0008316538
0.05600028,-0.0008258293
0.05500029,-0.0008203115
0.05400028,-0.0008147936
0.05300029,-0.0008095824
0.05200029,-0.0008040644
0.05100029,-0.0007991597
0.05000029,-0.0007936418
0.04900029,-0.0007884305
0.04800029,-0.0007835258
0.04700029,-0.0007786209
0.04600029,-0.0007734096
0.04500028,-0.0007688114
0.04400029,-0.0007639066
0.04300028,-0.0007590018
0.04200029,-0.0007544036
0.04100028,-0.000750112
0.04000029,-0.0007455137
0.03900029,-0.0007409155
0.03800029,-0.0007366238
0.03700029,-0.0007323321
0.03600029,-0.0007280405
0.03500029,-0.0007237488
0.03400028,-0.0007194571
0.03300029,-0.000715472
0.03200028,-0.0007111803
0.03100029,-0.0007071952
0.03000029,-0.0007032101
0.02900029,-0.0006992249
0.02800029,-0.0006955464
0.02700029,-0.0006915613
0.02600029,-0.0006878827
0.02500029,-0.0006838975
0.02400029,-0.000680219
0.02300029,-0.0006765404
0.02200029,-0.0006728618
0.02100029,-0.0006694898
0.02000029,-0.0006658112
0.01900029,-0.0006624392
0.01800029,-0.0006587606
0.01700029,-0.0006553886
0.01600029,-0.0006520165
0.01500029,-0.0006486445
0.01400029,-0.0006452725
0.01300029,-0.0006422069
0.01200029,-0.0006388349
0.01100029,-0.0006354629
0.01000029,-0.0006323974
0.009000286,-0.0006293319
0.008000286,-0.0006259599
0.007000286,-0.0006228944
0.006000286,-0.0006198289
0.005000286,-0.0006167634
0.004000286,-0.0006140045
0.003000286,-0.0006109391
0.002000286,-0.0006078735
0.001000286,-0.0006051146
2.861023E-07,-0.0005971444
0.0009997139,-0.0005882545
0.001999714,-0.0005808973
0.002999714,-0.0005744598
0.003999714,-0.0005680223
0.004999714,-0.0005621978
0.005999714,-0.0005563734
0.006999714,-0.0005508556
0.007999714,-0.0005453377
0.008999714,-0.0005401264
0.009999714,-0.0005349151
0.01099971,-0.0005303168
0.01199971,-0.0005251055
0.01299971,-0.0005205073
0.01399971,-0.0005162156
0.01499971,-0.0005116174
0.01599971,-0.0005073257
0.01699971,-0.000503034
0.01799971,-0.0004987424
0.01899971,-0.0004947572
0.01999971,-0.0004907721
0.02099971,-0.0004864805
0.02199971,-0.0004824953
0.02299971,-0.0004788167
0.02399971,-0.0004748316
0.02499971,-0.000471153
0.02599971,-0.000467781
0.02699971,-0.0004637959
0.02799971,-0.0004604238
0.02899971,-0.0004570518
0.02999971,-0.0004533732
0.03099971,-0.0004500012
0.03199971,-0.0004466292
0.03299971,-0.0004432572
0.03399972,-0.0004401917
0.03499971,-0.0004368196
0.03599972,-0.0004337541
0.03699971,-0.0004303821
0.03799972,-0.0004273166
0.03899971,-0.0004242511
0.03999971,-0.0004214922
0.04099971,-0.0004184267
0.04199971,-0.0004153613
0.04299971,-0.0004126023
0.04399971,-0.0004095368
0.04499971,-0.0004064713
0.04599971,-0.0004037124
0.04699972,-0.0004006469
0.04799971,-0.000397888
0.04899972,-0.0003951291
0.04999971,-0.0003926767
0.05099971,-0.0003896112
0.05199971,-0.0003868522
0.05299971,-0.0003843998
0.05399971,-0.0003819475
0.05499971,-0.0003791885
0.05599971,-0.0003767362
0.05699971,-0.0003742838
0.05799972,-0.0003715248
0.05899971,-0.0003690725
0.05999972,-0.0003666201
0.06099971,-0.0003641677
0.06199971,-0.0003617153
0.06299971,-0.0003589563
0.06399971,-0.0003568105
0.06499971,-0.0003543581
0.06599972,-0.0003519058
0.06699971,-0.0003497599
0.06799971,-0.0003473075
0.06899972,-0.0003448552
0.06999972,-0.0003427093
0.07099971,-0.0003405634
0.07199971,-0.0003384176
0.07299972,-0.0003362718
0.07399971,-0.0003338194
0.07499971,-0.0003316735
0.07599971,-0.0003295277
0.07699972,-0.0003273819
0.07799971,-0.000325236
0.07899971,-0.0003230902
0.07999972,-0.0003209444
0.08099972,-0.0003187985
0.08199971,-0.0003166527
0.08299971,-0.0003145068
0.08399972,-0.000312361
0.08499971,-0.0003102152
0.08599971,-0.0003083759
0.08699971,-0.00030623
0.08799972,-0.0003043908
0.08899971,-0.0003022449
0.08999971,-0.0003000991
0.09099972,-0.0002985664
0.09199972,-0.0002964205
0.09299971,-0.0002945812
0.09399971,-0.0002924354
0.09499972,-0.0002905961
0.09599971,-0.0002884502
0.09699971,-0.000286611
0.09799971,-0.0002847717
0.09899972,-0.0002829324
0.09999971,-0.0002810931
0.1009997,-0.0002792538
0.1019997,-0.0002774145
0.1029997,-0.0002755752
0.1039997,-0.0002737359
0.1049997,-0.0002718967
0.1059997,-0.0002697508
0.1069997,-0.000268218
0.1079997,-0.0002660722
0.1089997,-0.0002645395
0.1099997,-0.0002627002
0.1109997,-0.0002608609
0.1119997,-0.0002593282
0.1129997,-0.0002574889
0.1139997,-0.0002556496
0.1149997,-0.0002538103
0.1159997,-0.000251971
0.1169997,-0.0002501317
0.1179997,-0.0002482924
0.1189997,-0.0002464531
0.1199997,-0.0002446139
0.1209997,-0.0002427746
0.1219997,-0.0002412418
0.1229997,-0.0002394025
0.1239997,-0.0002375632
0.1249997,-0.0002360305
0.1259997,-0.0002341912
0.1269997,-0.0002323519
0.1279997,-0.0002305126
0.1289997,-0.0002286733
0.1299997,-0.0002268341
0.1309997,-0.0002249948
0.1319997,-0.0002231555
0.1329997,-0.0002216227
0.1339997,-0.0002197834
0.1349997,-0.0002176376
0.1359997,-0.0002161049
0.1369997,-0.0002142656
0.1379997,-0.0002124263
0.1389997,-0.000210587
0.1399997,-0.0002087477
0.1409997,-0.0002066019
0.1419997,-0.0002050691
0.1429997,-0.0002029233
0.1439997,-0.000201084
0.1449997,-0.0001992447
0.1459997,-0.0001970989
0.1469997,-0.0001952596
0.1479997,-0.0001931137
0.1489997,-0.0001912744
0.1499997,-0.0001891286
0.1509997,-0.0001872893
0.1519997,-0.0001851435
0.1529997,-0.0001829976
0.1539997,-0.0001808518
0.1549997,-0.000178706
0.1559997,-0.0001765601
0.1569997,-0.0001744143
0.1579997,-0.0001722685
0.1589997,-0.0001701226
0.1599997,-0.0001676702
0.1609997,-0.0001655244
0.1619997,-0.000163072
0.1629997,-0.0001606196
0.1639997,-0.0001581672
0.1649997,-0.0001588215
0.1659997,-0.0001565224
0.1669997,-0.0001538861
0.1679997,-0.0001513417
0.1689997,-0.000148828
0.1699997,-0.0001460997
0.1709997,-0.0001434941
0.1719997,-0.0001406738
0.1729997,-0.0001377616
0.1739997,-0.0001350027
0.1749997,-0.0001319372
0.1759997,-0.0001289024
0.1769997,-0.000125653
0.1779997,-0.0001224955
0.1789997,-0.0001194607
0.1799997,-0.0001159354
0.1809997,-0.000112686
0.1819997,-0.0001092833
0.1829997,-0.0001056047
0.1839997,-0.0001022327
0.1849997,-9.837017E-05
0.1859997,-9.4477E-05
0.1869997,-9.067581E-05
0.1879997,-8.641478E-05
0.1889997,-8.233769E-05
0.1899997,-7.822995E-05
0.1909997,-7.375435E-05
0.1919997,-6.927874E-05
0.1929997,-6.477248E-05
0.1939997,-5.999033E-05
0.1949997,-5.533079E-05
0.1959997,-5.021143E-05
0.1969997,-4.52147E-05
0.1979997,-3.994207E-05
0.1989997,-3.433224E-05
0.1999997,-2.890633E-05
0.2009997,-2.308192E-05
0.2019997,-1.69203E-05
0.2029997,-1.109588E-05
0.2039997,-4.321163E-06
0.2049997,2.78664E-06
0.2059997,9.175106E-06
0.2069997,1.639432E-05
0.2079997,2.335296E-05
0.2089997,3.083992E-05
0.2099997,3.838101E-05
0.2109997,4.604472E-05
0.2119997,5.462807E-05
0.2129997,6.284356E-05
0.2139997,7.151887E-05
0.2149997,8.074597E-05
0.2159997,8.997308E-05
0.2169997,9.975197E-05
0.2179997,0.0001099294
0.2189997,0.0001199228
0.2199997,0.0001312651
0.2209997,0.0001421169
0.2219997,0.0001535205
0.2229997,0.0001658438
0.2239997,0.000178167
0.2249997,0.000191134
0.2259997,0.0002048367
0.2269997,0.0002181409
0.2279997,0.0002331924
0.2289997,0.000247968
0.2299997,0.0002630502
0.2309997,0.0002795119
0.2319997,0.0002959429
0.2329997,0.0003169826
0.2339997,0.0003347624
0.2349997,0.0003531553
0.2359997,0.0003727744
0.2369997,0.0003933131
0.2379997,0.0004141584
0.2389997,0.0004362299
0.2399997,0.0004589144
0.2409997,0.0004831318
0.2419997,0.0005073491
0.2429997,0.0005337122
0.2439997,0.000560995
0.2449997,0.0005882778
0.2459997,0.0006173999
0.2469997,0.0006483613
0.2479997,0.0006787095
0.2489997,0.0007124299
0.2499997,0.0007467633
0.2509997,0.0007817098
0.2519997,0.0008200283
0.2529997,0.0008577338
0.2539997,0.0008981981
0.2549997,0.0009411149
0.2559997,0.0009846448
0.2569997,0.00103032
0.2579997,0.001078448
0.2589997,0.001127803
0.2599997,0.001180222
0.2609997,0.001233255
0.2619997,0.001289354
0.2629997,0.001348517
0.2639997,0.001408907
0.2649997,0.00147267
0.2659997,0.001538271
0.2669997,0.001606631
0.2679997,0.001679283
0.2689997,0.001753161
0.2699997,0.001831025
0.2709997,0.001911953
0.2719997,0.001993802
0.2729997,0.002081781
0.2739997,0.002171906
0.2749997,0.002264177
0.2759997,0.002363499
0.2769997,0.002462821
0.2779997,0.002565208
0.2789997,0.002675872
0.2799997,0.002785003
0.2809997,0.002899959
0.2819997,0.003020432
0.2829997,0.003169826
0.2839997,0.00329551
0.2849997,0.003427326
0.2859997,0.003559142
0.2869997,0.003697089
0.2879997,0.003838101
0.2889997,0.003985244
0.2899997,0.004135453
0.2909997,0.004288727
0.2919997,0.004445066
0.2929997,0.004604471
0.2939997,0.004770007
0.2949997,0.004938609
0.2959997,0.005104146
0.2969997,0.005278877
0.2979997,0.005456676
0.2989997,0.005631408
0.2999997,0.005818403
0.3009997,0.005999266
0.3019997,0.00618626
0.3029997,0.006379386
0.3039997,0.00656638
0.3049997,0.00675644
0.3059997,0.006955697
0.3069997,0.007154953
0.3079997,0.007351144
0.3089997,0.0075504
0.3099997,0.007749657
0.3109997,0.007948913
0.3119997,0.008148169
0.3129997,0.008350492
0.3139997,0.008546682
0.3149997,0.008749004
0.3159997,0.00894826
0.3169997,0.009144451
0.3179997,0.009346773
0.3189997,0.009546029
0.3199997,0.009742221
0.3209997,0.009944541
0.3219997,0.0101346
0.3229997,0.01032773
0.3239997,0.01052698
0.3249997,0.01071091
0.3259997,0.01090097
0.3269997,0.0110941
0.3279997,0.01127189
0.3289997,0.01145582
0.3299997,0.01164588
0.3309997,0.01181449
0.3319997,0.01199228
0.3329997,0.01216702
0.3339997,0.01232336
0.3349997,0.01248889
0.3359997,0.01265136
0.3369997,0.01279851
0.3379997,0.01294565
0.3389997,0.01308666
0.3399997,0.01322154
0.3409997,0.01334416
0.3419997,0.01346372
0.3429997,0.01357101
0.3439997,0.0136691
0.3449997,0.01376413
0.3459997,0.01384077
0.3469997,0.01391128
0.3479997,0.01398178
0.3489997,0.01402163
0.3499997,0.01406455
0.3509997,0.01409827
0.3519997,0.01410747
0.3529997,0.01412279
0.3539997,0.0141136
0.3549997,0.01408907
0.3559997,0.01407375
0.3569997,0.01403389
0.3579997,0.01398178
0.3589997,0.01393273
0.3599997,0.01386529
0.3609997,0.01378253
0.3619997,0.01369976
0.3629997,0.01360166
0.3639997,0.01348824
0.3649997,0.01338095
0.3659997,0.0132522
0.3669997,0.01311732
0.3679997,0.01298243
0.3689997,0.01283836
0.3699997,0.01268508
0.3709997,0.01254101
0.3719997,0.01237854
0.3729997,0.01221606
0.3739997,0.01205972
0.3749997,0.01188806
0.3759997,0.01171639
0.3769997,0.01155698
0.3779997,0.01137919
0.3789997,0.01121365
0.3799997,0.01105425
0.3809997,0.01087951
0.3819997,0.01071704
0.3829997,0.01055764
0.3839997,0.01038597
0.3849997,0.0102327
0.3859997,0.01007636
0.3869997,0.009910822
0.3879997,0.009763679
0.3889997,0.009616536
0.3899997,0.009466327
0.3909997,0.009322249
0.3919997,0.009181237
0.3929997,0.00904329
0.3939997,0.008905343
0.3949997,0.008773527
0.3959997,0.008641711
0.3969997,0.008516028
0.3979997,0.008390343
0.3989997,0.008261592
0.3999997,0.008145104
0.4009997,0.008034746
0.4019997,0.007915192
0.4029997,0.007807901
0.4039997,0.007700609
0.4049997,0.007584121
0.4059997,0.007486025
0.4069997,0.00738793
0.4079997,0.007277572
0.4089997,0.007191739
0.4099997,0.007105905
0.4109997,0.007004744
0.4119997,0.00691891
0.4129997,0.006826947
0.4139997,0.006734982
0.4149997,0.006655279
0.4159997,0.006569446
0.4169997,0.006489743
0.4179997,0.006413106
0.4189997,0.006336469
0.4199997,0.006259832
0.4209997,0.006183195
0.4219997,0.00611882
0.4229997,0.006048314
0.4239997,0.005974742
0.4249997,0.005916498
0.4259997,0.005849057
0.4269997,0.005784682
0.4279997,0.005729503
0.4289997,0.005668194
0.4299997,0.00560995
0.4309997,0.005557837
0.4319997,0.005502658
0.4329997,0.005450545
0.4339997,0.005398431
0.4349997,0.005349384
0.4359997,0.005303402
0.4369997,0.005257419
0.4379997,0.005214503
0.4389997,0.005171585
0.4399997,0.005131735
0.4409997,0.005094949
0.4419997,0.005058163
0.4429997,0.005024442
0.4439997,0.004993788
0.4449997,0.004963133
0.4459997,0.004935544
0.4469997,0.004911019
0.4479997,0.004886496
0.4489997,0.004868103
0.4499997,0.00484971
0.4509997,0.004831317
0.4519997,0.004822121
0.4529997,0.004809859
0.4539997,0.004803728
0.4549997,0.004803728
0.4559997,0.004803728
0.4569997,0.004806793
0.4579997,0.00481599
0.4589997,0.004828252
0.4599997,0.004846645
0.4609997,0.004871169
0.4619997,0.004898758
0.4629997,0.004929413
0.4639997,0.004963133
0.4649997,0.005015246
0.4659997,0.005058163
0.4669997,0.005116407
0.4679997,0.005186913
0.4689997,0.005248223
0.4699997,0.005330991
0.4709997,0.00541989
0.4719997,0.005508789
0.4729997,0.00561608
0.4739997,0.005729503
0.4749997,0.005842926
0.4759997,0.005974742
0.4769997,0.006112689
0.4779997,0.006256767
0.4789997,0.006416172
0.4799997,0.006581707
0.4809997,0.00675644
0.4819997,0.006937304
0.4829997,0.007133495
0.4839997,0.007335817
0.4849997,0.007544269
0.4859997,0.00776805
0.4869997,0.007994896
0.4879997,0.008230938
0.4889997,0.008482307
0.4899997,0.008733677
0.4909997,0.008994242
0.4919997,0.00926707
0.4929997,0.009542963
0.4939997,0.009824988
0.4949997,0.01011927
0.4959997,0.01041356
0.4969997,0.01071704
0.4979997,0.01102972
0.4989997,0.0113424
0.4999997,0.01166734
0.5009997,0.01199228
0.5019997,0.01231722
0.5029997,0.01266362
0.5039997,0.01300083
0.5049997,0.01334723
0.5059997,0.01369976
0.5069997,0.01405229
0.5079997,0.01440788
0.5089997,0.01476961
0.5099997,0.0151344
0.5109997,0.01550226
0.5119997,0.01588545
0.5129997,0.01625637
0.5139997,0.01663036
0.5149997,0.01701661
0.5159997,0.0173998
0.5169997,0.01777991
0.5179997,0.01817536
0.5189997,0.01856774
0.5199997,0.01895706
0.5209997,0.01935557
0.5219997,0.01975715
0.5229997,0.02014953
0.5239997,0.02055724
0.5249997,0.02096495
0.5259997,0.02136347
0.5269997,0.02177731
0.5279997,0.02218501
0.5289997,0.02259272
0.5299997,0.02300963
0.5309997,0.0234204
0.5319997,0.02383731
0.5329997,0.02425728
0.5339997,0.02467112
0.5349997,0.02509416
0.5359997,0.02551106
0.5369997,0.0259341
0.5379997,0.0263602
0.5389997,0.02678324
0.5399997,0.02720934
0.5409997,0.02763851
0.5419997,0.02806768
0.5429997,0.02849071
0.5439997,0.02892601
0.5449997,0.02935824
0.5459997,0.02978128
0.5469997,0.03021964
0.5479997,0.03142237
0.5489997,0.03182088
0.5499997,0.0322807
0.5509997,0.03270987
0.5519997,0.03313904
0.5529997,0.03359886
0.5539997,0.03402802
0.5549997,0.03445719
0.5559997,0.03491702
0.5569997,0.03537684
0.5579997,0.035806
0.5589997,0.03626583
0.5599997,0.036695
0.5609997,0.03715482
0.5619997,0.03761464
0.5629997,0.03807446
0.5639997,0.03853428
0.5649997,0.03896345
0.5659997,0.03942328
0.5669997,0.0398831
0.5679997,0.04034292
0.5689997,0.04080274
0.5699997,0.04123191
0.5709997,0.04169173
0.5719997,0.04215155
0.5729997,0.04261138
0.5739997,0.0430712
0.5749997,0.04350037
0.5759997,0.04399084
0.5769997,0.04448132
0.5779997,0.04491049
0.5789997,0.04537031
0.5799997,0.04583013
0.5809997,0.04628995
0.5819997,0.04674978
0.5829997,0.04724025
0.5839997,0.04766942
0.5849997,0.04812925
0.5859997,0.04858907
0.5869997,0.04904889
0.5879997,0.04950871
0.5889997,0.04996854
0.5899997,0.05042836
0.5909997,0.05088818
0.5919997,0.051348
0.5929997,0.05183848
0.5939997,0.0522983
0.5949997,0.05275812
0.5959997,0.0532486
0.5969997,0.05370842
0.5979997,0.05413759
0.5989997,0.05462807
0.5999997,0.05511854
0.6009997,0.05554771
0.6019997,0.05603819
0.6029997,0.05652867
0.6039997,0.05695784
0.6049997,0.05744831
0.6059997,0.05793879
0.6069997,0.05839861
0.6079997,0.05885844
0.6089997,0.05934891
0.6099997,0.05977808
0.6109997,0.06026856
0.6119997,0.06075903
0.6129997,0.06121886
0.6139997,0.06167868
0.6149997,0.06216915
0.6159997,0.06262898
0.6169997,0.06311946
0.6179997,0.06357928
0.6189997,0.0640391
0.6199997,0.06452958
0.6209997,0.06502005
0.6219997,0.06547987
0.6229997,0.0659397
0.6239997,0.06639952
0.6249997,0.06688999
0.6259997,0.06734982
0.6269997,0.06780964
0.6279997,0.06830012
0.6289997,0.0687906
0.6299997,0.06925042
0.6309997,0.0697409
0.6319997,0.07023137
0.6329997,0.0706912
0.6339997,0.07118168
0.6349997,0.0716415
0.6359997,0.07210132
0.6369997,0.0725918
0.6379997,0.07308228
0.6389997,0.0735421
0.6399997,0.07403257
0.6409997,0.07452305
0.6419997,0.07498287
0.6429997,0.07547335
0.6439997,0.07593317
0.6449997,0.076393
0.6459997,0.07688347
0.6469997,0.07737394
0.6479997,0.07786443
0.6489997,0.07832425
0.6499997,0.07881473
0.6509997,0.07927455
0.6519997,0.07976502
0.6529997,0.0802555
0.6539997,0.08071532
0.6549997,0.08120581
0.6559997,0.08166563
0.6569997,0.08215611
0.6579997,0.08261593
0.6589997,0.0831064
0.6599997,0.08359688
0.6609997,0.08408736
0.6619997,0.08454718
0.6629997,0.08503766
0.6639997,0.08552813
0.6649997,0.08601861
0.6659997,0.08647843
0.6669997,0.08693825
0.6679997,0.08745939
0.6689997,0.08791921
0.6699997,0.08837903
0.6709997,0.08890016
0.6719997,0.08935999
0.6729997,0.08985046
0.6739997,0.09034094
0.6749997,0.09083142
0.6759997,0.09132189
0.6769997,0.09178172
0.6779997,0.09227219
0.6789997,0.09276267
0.6799997,0.09322249
0.6809997,0.09371297
0.6819997,0.0942341
0.6829997,0.09469392
0.6839997,0.09518441
0.6849997,0.09567488
0.6859997,0.09613471
0.6869997,0.09662518
0.6879997,0.09711566
0.6889997,0.09760614
0.6899997,0.09806596
0.6909997,0.09858709
0.6919997,0.09904691
0.6929997,0.09950673
0.6939997,0.1000279
0.6949997,0.1004877
0.6959997,0.1009782
0.6969997,0.1014993
0.6979997,0.1019591
0.6989997,0.1024189
0.6999997,0.1026029
0.6990004,0.1021124
0.6980004,0.1016219
0.6970004,0.1011927
0.6960004,0.1006716
0.6950004,0.1002118
0.6940004,0.09975197
0.6930004,0.09923084
0.6920004,0.09877102
0.6910004,0.09831119
0.6900004,0.09782072
0.6890004,0.09739155
0.6880004,0.09693173
0.6870004,0.09641059
0.6860004,0.09595077
0.6850004,0.09552161
0.6840004,0.09503113
0.6830004,0.09454065
0.6820004,0.09408083
0.6810004,0.09359035
0.6800004,0.09313053
0.6790004,0.09267071
0.6780004,0.09214958
0.6770004,0.09168976
0.6760004,0.09122993
0.6750004,0.09073945
0.6740004,0.09027963
0.6730004,0.08981981
0.6720004,0.08935999
0.6710004,0.0888695
0.6700004,0.08840968
0.6690004,0.08794986
0.6680004,0.08745939
0.6670004,0.08699957
0.6660004,0.08650909
0.6650004,0.08601861
0.6640004,0.08558945
0.6630004,0.08509897
0.6620004,0.08460849
0.6610004,0.08414867
0.6600004,0.08368885
0.6590004,0.08322902
0.6580004,0.0827692
0.6570004,0.08230938
0.6560004,0.0818189
0.6550004,0.08135908
0.6540004,0.08089925
0.6530004,0.08040877
0.6520004,0.07994895
0.6510004,0.07948913
0.6500004,0.07899866
0.6490004,0.07853883
0.6480004,0.07807901
0.6470004,0.07758854
0.6460004,0.07712871
0.6450004,0.07666889
0.6440004,0.07620906
0.6430004,0.07574924
0.6420004,0.07525877
0.6410004,0.0748296
0.6400004,0.07433912
0.6390004,0.07384864
0.6380004,0.07341947
0.6370004,0.072929
0.6360004,0.07246917
0.6350004,0.07200935
0.6340004,0.07154953
0.6330004,0.07108971
0.6320004,0.07059924
0.6310004,0.07017007
0.6300004,0.06967959
0.6290004,0.06921976
0.6280004,0.06875994
0.6270004,0.06830012
0.6260004,0.06780964
0.6250004,0.06738048
0.6240004,0.06692065
0.6230004,0.06643017
0.6220004,0.06600101
0.6210004,0.06554119
0.6200004,0.06505071
0.6190004,0.06462154
0.6180004,0.06416172
0.6170004,0.06367125
0.6160004,0.06324207
0.6150004,0.0627516
0.6140004,0.06229177
0.6130004,0.06186261
0.6120004,0.06137213
0.6110004,0.06091231
0.6100004,0.06045249
0.6090004,0.05999266
0.6080004,0.05953284
0.6070004,0.05910368
0.6060004,0.05864385
0.6050004,0.05815337
0.6040004,0.05772421
0.6030004,0.05726438
0.6020004,0.05677391
0.6010004,0.05634474
0.6000004,0.05588492
0.5990004,0.0554251
0.5980004,0.05496527
0.5970004,0.0545361
0.5960004,0.05407628
0.5950004,0.05361646
0.5940004,0.05315664
0.5930004,0.05269681
0.5920004,0.05226765
0.5910004,0.05180782
0.5900004,0.051348
0.5890004,0.05091884
0.5880004,0.05045901
0.5870004,0.04999919
0.5860004,0.04957002
0.5850004,0.0491102
0.5840004,0.04865038
0.5830004,0.04822121
0.5820004,0.04776139
0.5810004,0.04733222
0.5800004,0.0468724
0.5790004,0.04644323
0.5780004,0.04598341
0.5770004,0.04552358
0.5760004,0.04509442
0.5750004,0.0446346
0.5740004,0.04420543
0.5730004,0.0437456
0.5720004,0.04328578
0.5710004,0.04288727
0.5700004,0.04242745
0.5690004,0.04196763
0.5680004,0.04153846
0.5670004,0.04110929
0.5660004,0.04068012
0.5650004,0.04025095
0.5640004,0.03979113
0.5630004,0.03933131
0.5620004,0.03890214
0.5610004,0.03844232
0.5600004,0.03801315
0.5590004,0.03761464
0.5580004,0.03715482
0.5570004,0.03672565
0.5560004,0.03629648
0.5550004,0.03589797
0.5540004,0.03543815
0.5530004,0.03503963
0.5520004,0.03457981
0.5510004,0.03415065
0.5500004,0.03372148
0.5490004,0.03329231
0.5480004,0.03286314
0.5470004,0.03246463
0.5460004,0.03203546
0.5450004,0.03160629
0.5440004,0.03117712
0.5430004,0.03074796
0.5420004,0.03031879
0.5410004,0.02992028
0.5400004,0.02949111
0.5390004,0.02906194
0.5380004,0.02866343
0.5370004,0.02826492
0.5360004,0.02783575
0.5350004,0.02740658
0.5340004,0.02700807
0.5330004,0.0265789
0.5320004,0.02618039
0.5310004,0.02578188
0.5300004,0.02535271
0.5290004,0.0249542
0.5280004,0.02455568
0.5270004,0.02415717
0.5260004,0.02375866
0.5250004,0.02336015
0.5240004,0.02293098
0.5230004,0.02256312
0.5220004,0.02213395
0.5210004,0.02173544
0.5200004,0.02136758
0.5190004,0.02096907
0.5180004,0.02057056
0.5170004,0.02017204
0.5160004,0.01980419
0.5150004,0.01940567
0.5140004,0.01900716
0.5130004,0.0186393
0.5120004,0.01827144
0.5110004,0.01787293
0.5100004,0.01750507
0.5090004,0.01713721
0.5080004,0.01676936
0.5070004,0.0164015
0.5060004,0.01603364
0.5050004,0.01566578
0.5040004,0.01529793
0.5030004,0.01493007
0.5020004,0.01456221
0.5010004,0.01419435
0.5000004,0.01385715
0.4990004,0.01348929
0.4980004,0.01315209
0.4970004,0.01231416
0.4960004,0.01198002
0.4950004,0.01163669
0.4940004,0.01130868
0.4930004,0.01097454
0.4920004,0.01064041
0.4910004,0.0103216
0.4900004,0.009996655
0.4890004,0.009674779
0.4880004,0.0093621
0.4870004,0.009046356
0.4860004,0.008736742
0.4850004,0.008433259
0.4840004,0.008129776
0.4830004,0.007829359
0.4820004,0.007538138
0.4810004,0.007246917
0.4800004,0.006958762
0.4790004,0.006673672
0.4780004,0.006397779
0.4770004,0.00611882
0.4760004,0.005849057
0.4750004,0.005585426
0.4740004,0.005318729
0.4730004,0.005061228
0.4720004,0.004812925
0.4710004,0.004561555
0.4700004,0.004322447
0.4690004,0.00408334
0.4680004,0.003844232
0.4670004,0.003620452
0.4660004,0.003393606
0.4650004,0.003175956
0.4640004,0.002964438
0.4630004,0.002755986
0.4620004,0.002553664
0.4610004,0.002354407
0.4600004,0.002158216
0.4590004,0.001977353
0.4580004,0.001793424
0.4570004,0.001618691
0.4560004,0.00145009
0.4550004,0.001281488
0.4540004,0.001092243
0.4530004,0.000938356
0.4520004,0.0007881473
0.4510004,0.000646522
0.4500004,0.0005052032
0.4490004,0.0003715482
0.4480004,0.0002437175
0.4470004,0.0001165
0.4460004,3.182216E-07
0.4450004,-0.0001167324
0.4440004,-0.0002275189
0.4430004,-0.0003287105
0.4420004,-0.0004313017
0.4410004,-0.0005263317
0.4400004,-0.0006149242
0.4390004,-0.0007050494
0.4380004,-0.0007868978
0.4370004,-0.0008669068
0.4360004,-0.0009432373
0.4350004,-0.001013131
0.4340004,-0.001084556
0.4330004,-0.001149238
0.4320004,-0.001209934
0.4310004,-0.001273083
0.4300004,-0.001327342
0.4290004,-0.001382521
0.4280004,-0.001435554
0.4270004,-0.001480003
0.4260004,-0.001528438
0.4250004,-0.00157442
0.4240004,-0.001612739
0.4230004,-0.001655962
0.4220004,-0.001695507
0.4210004,-0.001730453
0.4200004,-0.00176632
0.4190004,-0.001797281
0.4180004,-0.001831001
0.4170004,-0.001860736
0.4160004,-0.001888939
0.4150004,-0.001920207
0.4140004,-0.001944424
0.4130004,-0.001970174
0.4120004,-0.001997764
0.4110004,-0.002018302
0.4100004,-0.002048957
0.4090004,-0.002077773
0.4080004,-0.0020931
0.4070004,-0.002115784
0.4060004,-0.002134177
0.4050004,-0.002151344
0.4040004,-0.002172496
0.4030004,-0.002190582
0.4020004,-0.002209282
0.4010004,-0.002227981
0.4000004,-0.002243615
0.3990004,-0.002263541
0.3980004,-0.002278255
0.3970004,-0.002296954
0.3960004,-0.002316267
0.3950004,-0.002329448
0.3940004,-0.002348455
0.3930004,-0.002363476
0.3920004,-0.002377883
0.3910004,-0.002398728
0.3900004,-0.00241283
0.3890004,-0.00242877
0.3880004,-0.002447776
0.3870004,-0.002460038
0.3860004,-0.002478738
0.3850004,-0.002494678
0.3840004,-0.002506327
0.3830004,-0.002528092
0.3820004,-0.002543726
0.3810004,-0.002558747
0.3800004,-0.002578366
0.3790004,-0.002593387
0.3780004,-0.00261178
0.3770004,-0.002629559
0.3760004,-0.002644887
0.3750004,-0.002663586
0.3740004,-0.00268014
0.3730004,-0.002698533
0.3720004,-0.002716313
0.3710004,-0.002734705
0.3700004,-0.002754938
0.3690004,-0.002771798
0.3680004,-0.002788658
0.3670004,-0.002810729
0.3660004,-0.00282575
0.3650004,-0.002846289
0.3640004,-0.0028702
0.3630004,-0.002884301
0.3620004,-0.002906679
0.3610004,-0.002927218
0.3600004,-0.002945304
0.3590004,-0.002970441
0.3580004,-0.002992206
0.3570004,-0.003010599
0.3560004,-0.003000991
0.3550004,-0.003019383
0.3540004,-0.003040842
0.3530004,-0.0030623
0.3520004,-0.003086824
0.3510004,-0.003111348
0.3500004,-0.003129741
0.3490004,-0.00315733
0.3480004,-0.003178789
0.3470004,-0.003203312
0.3460004,-0.003230902
0.3450004,-0.003255426
0.3440004,-0.00327995
0.3430004,-0.003310604
0.3420004,-0.003332063
0.3410004,-0.003359652
0.3400004,-0.003390307
0.3390004,-0.003414831
0.3380004,-0.003445486
0.3370004,-0.003473075
0.3360004,-0.003500664
0.3350004,-0.003531319
0.3340004,-0.003561974
0.3330004,-0.003586498
0.3320004,-0.003623284
0.3310004,-0.003650873
0.3300004,-0.003681528
0.3290004,-0.003715248
0.3280004,-0.003748968
0.3270004,-0.003782689
0.3260004,-0.003816409
0.3250004,-0.003850129
0.3240004,-0.00388385
0.3230004,-0.00391757
0.3220004,-0.003957421
0.3210004,-0.003991141
0.3200004,-0.004027927
0.3190004,-0.004067779
0.3180004,-0.004101499
0.3170004,-0.00414135
0.3160004,-0.004181202
0.3150004,-0.004217987
0.3140004,-0.004257839
0.3130004,-0.004300755
0.3120004,-0.004337541
0.3110004,-0.004383523
0.3100004,-0.004423374
0.3090004,-0.004463226
0.3080004,-0.004509208
0.3070004,-0.004558256
0.3060004,-0.004601172
0.3050004,-0.004644089
0.3040004,-0.004690072
0.3030004,-0.004736054
0.3020004,-0.00477897
0.3010004,-0.004831084
0.3000004,-0.004877066
0.2990004,-0.004923048
0.2980004,-0.004975162
0.2970004,-0.005024209
0.2960004,-0.005073257
0.2950004,-0.00512537
0.2940004,-0.005177483
0.2930004,-0.005229597
0.2920004,-0.005284776
0.2910004,-0.005333823
0.2900004,-0.005392067
0.2890004,-0.005450311
0.2880004,-0.005502424
0.2870004,-0.005563734
0.2860004,-0.005621978
0.2850004,-0.005677157
0.2840004,-0.005741532
0.2830004,-0.005799776
0.2820004,-0.005858021
0.2810004,-0.005922395
0.2800004,-0.005983705
0.2790004,-0.00604808
0.2780004,-0.006112455
0.2770004,-0.006179896
0.2760004,-0.006247337
0.2750004,-0.006314777
0.2740004,-0.006385284
0.2730004,-0.00645579
0.2720004,-0.006526296
0.2710004,-0.006599867
0.2700004,-0.006670373
0.2690004,-0.00674701
0.2680004,-0.006826713
0.2670004,-0.006900284
0.2660004,-0.006979987
0.2650004,-0.00705969
0.2640004,-0.007136327
0.2630004,-0.00722216
0.2620004,-0.007304928
0.2610004,-0.007384631
0.2600004,-0.007470464
0.2590004,-0.007556298
0.2580004,-0.007642131
0.2570004,-0.00773103
0.2560004,-0.007819929
0.2550004,-0.007905763
0.2540004,-0.008000793
0.2530004,-0.008086626
0.2520004,-0.008175525
0.2510004,-0.008267489
0.2500004,-0.008359454
0.2490004,-0.008448353
0.2480004,-0.008540317
0.2470004,-0.008635348
0.2460004,-0.008721181
0.2450004,-0.008816211
0.2440004,-0.008908176
0.2430004,-0.008994009
0.2420004,-0.009089039
0.2410004,-0.009177938
0.2400004,-0.009263772
0.2390004,-0.009358802
0.2380004,-0.009444634
0.2370004,-0.009533534
0.2360004,-0.009625498
0.2350004,-0.009705201
0.2340004,-0.009794099
0.2330004,-0.009879934
0.2320004,-0.009959636
0.2310004,-0.01004547
0.2300004,-0.01012517
0.2290004,-0.01020487
0.2280004,-0.01028151
0.2270004,-0.01036428
0.2260004,-0.01044398
0.2250004,-0.01051142
0.2240004,-0.01059113
0.2230004,-0.01066163
0.2220004,-0.01072294
0.2210004,-0.01079345
0.2200004,-0.01085782
0.2190004,-0.010913
0.2180004,-0.01097738
0.2170004,-0.01102949
0.2160004,-0.01107547
0.2150004,-0.01112758
0.2140004,-0.01116131
0.2130004,-0.01119196
0.2120004,-0.01122261
0.2110004,-0.01123488
0.2100004,-0.01124101
0.2090004,-0.01124101
0.2080004,-0.01121955
0.2070004,-0.01119196
0.2060004,-0.01114291
0.2050004,-0.0110816
0.2040004,-0.01099577
0.2030004,-0.01088541
0.2020004,-0.0107536
0.2010004,-0.01059726
0.2000004,-0.01042252
0.1990004,-0.0102202
0.1980004,-0.009993357
0.1970004,-0.009757314
0.1960004,-0.009496748
0.1950004,-0.00922392
0.1940004,-0.008951092
0.1930004,-0.008656806
0.1920004,-0.008365585
0.1910004,-0.008080496
0.1900004,-0.007786209
0.1890004,-0.007501119
0.1880004,-0.007231356
0.1870004,-0.006964659
0.1860004,-0.006707159
0.1850004,-0.006471117
0.1840004,-0.006241206
0.1830004,-0.006020491
0.1820004,-0.005821235
0.1810004,-0.005628109
0.1800004,-0.005441115
0.1790004,-0.005269447
0.1780004,-0.005110043
0.1770004,-0.004950637
0.1760004,-0.004803495
0.1750004,-0.004668613
0.1740004,-0.004530666
0.1730004,-0.004408047
0.1720004,-0.004294624
0.1710004,-0.004168939
0.1700004,-0.004067779
0.1690004,-0.003957421
0.1680004,-0.00385626
0.1670004,-0.00376123
0.1660004,-0.003669266
0.1650004,-0.003580367
0.1640004,-0.003497599
0.1630004,-0.003411765
0.1620004,-0.003335128
0.1610004,-0.003258491
0.1600004,-0.003181854
0.1590004,-0.003111348
0.1580004,-0.003043907
0.1570004,-0.002976467
0.1560004,-0.002915157
0.1550004,-0.002853847
0.1540004,-0.002789472
0.1530004,-0.002734293
0.1520004,-0.002679115
0.1510004,-0.002620871
0.1500004,-0.002571823
0.1490004,-0.002516645
0.1480004,-0.002464531
0.1470004,-0.002415484
0.1460004,-0.002366436
0.1450004,-0.002317388
0.1440004,-0.002271406
0.1430004,-0.002225423
0.1420004,-0.002176376
0.1410004,-0.002130394
0.1400004,-0.002081346
0.1390004,-0.002035364
0.1380004,-0.001992447
0.1370004,-0.00194953
0.1360004,-0.001909679
0.1350004,-0.001872893
0.1340004,-0.001839173
0.1330004,-0.001802387
0.1320004,-0.001771732
0.1310004,-0.001741077
0.1300004,-0.001710422
0.1290004,-0.001682833
0.1280004,-0.001655244
0.1270004,-0.00163072
0.1260004,-0.001606196
0.1250004,-0.001616417
0.1240004,-0.00159312
0.1230004,-0.001570435
0.1220004,-0.001548977
0.1210004,-0.001527825
0.1200004,-0.001507286
0.1190004,-0.001487667
0.1180004,-0.001468048
0.1170004,-0.001449349
0.1160004,-0.001431569
0.1150004,-0.001413482
0.1140004,-0.001396316
0.1130004,-0.001379762
0.1120004,-0.001363515
0.1110004,-0.001347575
0.1100004,-0.001332247
0.1090004,-0.001317226
0.1080004,-0.001302512
0.1070004,-0.001288104
0.1060004,-0.001274003
0.1050004,-0.001260208
0.1040004,-0.00124672
0.1030004,-0.001233845
0.1020004,-0.001221277
0.1010004,-0.001208708
0.1000004,-0.001196446
0.09900038,-0.001184491
0.09800038,-0.001172842
0.09700038,-0.001161193
0.09600038,-0.001150158
0.09500038,-0.001139122
0.09400038,-0.001128086
0.09300038,-0.001117663
0.09200038,-0.001107547
0.09100038,-0.001096818
0.09000038,-0.001087315
0.08900038,-0.001077506
0.08800038,-0.001068003
0.08700038,-0.001058806
0.08600038,-0.00104961
0.08500038,-0.001040107
0.08400038,-0.001031523
0.08300038,-0.00102294
0.08200038,-0.001014357
0.08100038,-0.001005773
0.08000038,-0.0009974964
0.07900038,-0.0009895262
0.07800038,-0.0009815559
0.07700038,-0.0009735856
0.07600038,-0.0009659219
0.07500038,-0.0009582583
0.07400038,-0.0009509011
0.07300038,-0.0009435439
0.07200038,-0.0009361868
0.07100038,-0.0009294427
0.07000038,-0.0009223921
0.06900038,-0.0009153415
0.06800038,-0.000908904
0.06700038,-0.0009018534
0.06600038,-0.0008954158
0.06500039,-0.0008889784
0.06400038,-0.0008828474
0.06300038,-0.0008764099
0.06200038,-0.0008702789
0.06100038,-0.0008641479
0.06000038,-0.0008583235
0.05900038,-0.000852499
0.05800038,-0.0008466747
0.05700038,-0.0008408502
0.05600038,-0.0008353324
0.05500038,-0.0008298145
0.05400038,-0.0008242966
0.05300038,-0.0008190853
0.05200038,-0.0008135674
0.05100038,-0.0008083562
0.05000038,-0.0008031448
0.04900038,-0.0007982401
0.04800038,-0.0007930287
0.04700038,-0.0007881239
0.04600038,-0.0007832192
0.04500038,-0.0007783144
0.04400038,-0.0007737162
0.04300038,-0.0007691179
0.04200038,-0.0007645197
0.04100038,-0.0007599215
0.04000038,-0.0007553233
0.03900038,-0.0007510316
0.03800038,-0.0007467399
0.03700038,-0.0007421417
0.03600038,-0.00073785
0.03500038,-0.0007338649
0.03400038,-0.0007295733
0.03300038,-0.0007252816
0.03200038,-0.0007212964
0.03100038,-0.0007173113
0.03000038,-0.0007130196
0.02900038,-0.0007090345
0.02800038,-0.0007053559
0.02700038,-0.0007013708
0.02600038,-0.0006976922
0.02500038,-0.0006940136
0.02400038,-0.0006900285
0.02300038,-0.0006863499
0.02200038,-0.0006829779
0.02100038,-0.0006789928
0.02000038,-0.0006756207
0.01900038,-0.0006722487
0.01800038,-0.0006685701
0.01700038,-0.0006651981
0.01600038,-0.0006615195
0.01500038,-0.000658454
0.01400038,-0.0006550819
0.01300038,-0.00065171
0.01200038,-0.0006486445
0.01100038,-0.000645579
0.01000038,-0.0006422069
0.009000381,-0.0006391415
0.008000381,-0.0006357695
0.007000382,-0.000632704
0.006000381,-0.0006296384
0.005000381,-0.000626573
0.004000382,-0.0006238141
0.003000381,-0.0006207486
0.002000381,-0.0006176831
0.001000381,-0.0006149242
3.814697E-07,-0.0006069539
0.0009996186,-0.0005977575
0.001999618,-0.0005904003
0.002999618,-0.0005833497
0.003999618,-0.0005772187
0.004999619,-0.0005710878
0.005999619,-0.0005649568
0.006999618,-0.0005591324
0.007999619,-0.0005539211
0.008999619,-0.0005484032
0.009999619,-0.0005431919
0.01099962,-0.000538287
0.01199962,-0.0005333824
0.01299962,-0.0005284776
0.01399962,-0.0005238793
0.01499962,-0.0005189746
0.01599962,-0.0005146828
0.01699962,-0.0005103912
0.01799962,-0.0005060995
0.01899962,-0.0005015013
0.01999962,-0.0004972096
0.02099962,-0.0004932245
0.02199962,-0.0004892393
0.02299962,-0.0004849477
0.02399962,-0.0004812691
0.02499962,-0.000477284
0.02599962,-0.0004732989
0.02699962,-0.0004696203
0.02799962,-0.0004659417
0.02899962,-0.0004622631
0.02999962,-0.0004585845
0.03099962,-0.0004552125
0.03199962,-0.0004515339
0.03299962,-0.0004481619
0.03399962,-0.0004444833
0.03499962,-0.0004414178
0.03599962,-0.0004380458
0.03699962,-0.0004346738
0.03799962,-0.0004316083
0.03899962,-0.0004279297
0.03999962,-0.0004248642
0.04099962,-0.0004217988
0.04199962,-0.0004187333
0.04299962,-0.0004156678
0.04399962,-0.0004122957
0.04499962,-0.0004095368
0.04599962,-0.0004064713
0.04699962,-0.0004034059
0.04799962,-0.0004003404
0.04899962,-0.0003975815
0.04999962,-0.000394516
0.05099962,-0.000391757
0.05199962,-0.0003889981
0.05299962,-0.0003859326
0.05399962,-0.0003831737
0.05499962,-0.0003804147
0.05599962,-0.0003779623
0.05699962,-0.0003748969
0.05799962,-0.0003724445
0.05899962,-0.0003696856
0.05999962,-0.0003672332
0.06099962,-0.0003644742
0.06199962,-0.0003620218
0.06299962,-0.0003592629
0.06399962,-0.0003568105
0.06499962,-0.0003543581
0.06599962,-0.0003519058
0.06699962,-0.0003494534
0.06799962,-0.000347001
0.06899962,-0.0003445486
0.06999962,-0.0003424028
0.07099961,-0.0003399504
0.07199962,-0.000337498
0.07299962,-0.0003353521
0.07399962,-0.0003328998
0.07499962,-0.0003307539
0.07599962,-0.0003283015
0.07699962,-0.0003261557
0.07799962,-0.0003240099
0.07899962,-0.000321864
0.07999962,-0.0003194116
0.08099962,-0.0003172658
0.08199961,-0.0003151199
0.08299962,-0.0003129741
0.08399962,-0.0003108283
0.08499962,-0.0003086824
0.08599962,-0.0003068431
0.08699962,-0.0003046973
0.08799962,-0.0003025515
0.08899962,-0.0003007122
0.08999962,-0.0002985664
0.09099962,-0.0002967271
0.09199962,-0.0002945812
0.09299962,-0.0002924354
0.09399962,-0.0002905961
0.09499962,-0.0002884502
0.09599962,-0.000286611
0.09699962,-0.0002847717
0.09799962,-0.0002826258
0.09899962,-0.0002807866
0.09999962,-0.0002789472
0.1009996,-0.000277108
0.1019996,-0.0002752687
0.1029996,-0.0002731228
0.1039996,-0.0002712836
0.1049996,-0.0002697508
0.1059996,-0.0002679115
0.1069996,-0.0002660722
0.1079996,-0.0002642329
0.1089996,-0.0002623936
0.1099996,-0.0002605543
0.1109996,-0.0002587151
0.1119996,-0.0002568758
0.1129996,-0.0002550365
0.1139996,-0.0002531972
0.1149996,-0.0002516645
0.1159996,-0.0002495186
0.1169996,-0.0002476793
0.1179996,-0.0002461466
0.1189996,-0.0002440007
0.1199996,-0.000242468
0.1209996,-0.0002406287
0.1219996,-0.0002387894
0.1229996,-0.0002369501
0.1239996,-0.0002351108
0.1249996,-0.0002332716
0.1259996,-0.0002317388
0.1269996,-0.0002298995
0.1279996,-0.0002280602
0.1289996,-0.0002262209
0.1299996,-0.0002246882
0.1309996,-0.0002228489
0.1319996,-0.0002210096
0.1329996,-0.0002191703
0.1339996,-0.000217331
0.1349996,-0.0002154918
0.1359996,-0.0002136525
0.1369996,-0.0002118132
0.1379996,-0.0002099739
0.1389996,-0.0002081346
0.1399996,-0.0002059888
0.1409996,-0.0002041495
0.1419996,-0.0002023102
0.1429996,-0.0002004709
0.1439996,-0.0001986316
0.1449996,-0.0001967923
0.1459996,-0.0001946465
0.1469996,-0.0001928072
0.1479996,-0.0001906613
0.1489996,-0.0001885155
0.1499996,-0.0001866762
0.1509996,-0.0001845304
0.1519996,-0.0001826911
0.1529996,-0.0001805453
0.1539996,-0.0001780929
0.1549996,-0.0001762536
0.1559996,-0.0001738012
0.1569996,-0.0001716554
0.1579996,-0.0001695095
0.1589996,-0.0001670571
0.1599996,-0.0001646047
0.1609996,-0.0001624589
0.1619996,-0.0001600065
0.1629996,-0.0001578607
0.1639996,-0.0001584536
0.1649996,-0.0001561545
0.1659996,-0.0001536408
0.1669996,-0.0001509432
0.1679996,-0.0001483375
0.1689996,-0.0001455786
0.1699996,-0.0001427583
0.1709996,-0.000140214
0.1719996,-0.0001372712
0.1729996,-0.0001344202
0.1739996,-0.0001316
0.1749996,-0.0001284732
0.1759996,-0.0001255304
0.1769996,-0.0001224342
0.1779996,-0.0001190928
0.1789996,-0.0001159967
0.1799996,-0.0001122875
0.1809996,-0.0001089154
0.1819996,-0.0001055741
0.1829996,-0.0001018035
0.1839996,-9.821689E-05
0.1849996,-9.444635E-05
0.1859996,-9.039991E-05
0.1869996,-8.669068E-05
0.1879996,-8.252162E-05
0.1889996,-7.829125E-05
0.1899996,-7.415286E-05
0.1909996,-6.961594E-05
0.1919996,-6.501772E-05
0.1929996,-6.032753E-05
0.1939996,-5.536145E-05
0.1949996,-5.05793E-05
0.1959996,-4.530666E-05
0.1969996,-4.021796E-05
0.1979996,-3.491468E-05
0.1989996,-2.912092E-05
0.1999996,-2.369501E-05
0.2009996,-1.777863E-05
0.2019996,-1.149439E-05
0.2029996,-5.455391E-06
0.2039996,1.842472E-06
0.2049996,8.586533E-06
0.2059996,1.515893E-05
0.2069996,2.248543E-05
0.2079996,2.958307E-05
0.2089996,3.687892E-05
0.2099996,4.491049E-05
0.2109996,5.285009E-05
0.2119996,6.143344E-05
0.2129996,6.995548E-05
0.2139996,7.884538E-05
0.2149996,8.837903E-05
0.2159996,9.782072E-05
0.2169996,0.0001077835
0.2179996,0.0001180529
0.2189996,0.0001285062
0.2199996,0.0001399711
0.2209996,0.0001509455
0.2219996,0.000162625
0.2229996,0.0001753774
0.2239996,0.0001880379
0.2249996,0.0002012501
0.2259996,0.0002151061
0.2269996,0.0002286249
0.2279996,0.000243891
0.2289996,0.0002588812
0.2299996,0.0002743925
0.2309996,0.000291222
0.2319996,0.0003120778
0.2329996,0.0003292445
0.2339996,0.000347944
0.2349996,0.0003666434
0.2359996,0.0003868756
0.2369996,0.0004077209
0.2379996,0.0004288727
0.2389996,0.0004515573
0.2399996,0.0004748549
0.2409996,0.0004990723
0.2419996,0.0005245158
0.2429996,0.0005508789
0.2439996,0.0005790814
0.2449996,0.0006069773
0.2459996,0.0006364059
0.2469996,0.0006676738
0.2479996,0.0006992483
0.2489996,0.0007332751
0.2499996,0.0007685282
0.2509996,0.0008040878
0.2519996,0.0008427129
0.2529996,0.000881338
0.2539996,0.0009224154
0.2549996,0.0009656387
0.2559996,0.001010088
0.2569996,0.00105699
0.2579996,0.001105731
0.2589996,0.001155392
0.2599996,0.001209038
0.2609996,0.001262991
0.2619996,0.001320008
0.2629996,0.001380092
0.2639996,0.001441095
0.2649996,0.001505777
0.2659996,0.001572298
0.2669996,0.001641271
0.2679996,0.001714536
0.2689996,0.00178964
0.2699996,0.00186781
0.2709996,0.001949965
0.2719996,0.002032733
0.2729996,0.002121019
0.2739996,0.002211757
0.2749996,0.002305255
0.2759996,0.002405189
0.2769996,0.002504511
0.2779996,0.002609044
0.2789996,0.002719708
0.2799996,0.002828839
0.2809996,0.002944408
0.2819996,0.003065494
0.2829996,0.003212743
0.2839996,0.003341493
0.2849996,0.003470243
0.2859996,0.003602059
0.2869996,0.003743071
0.2879996,0.003887149
0.2889996,0.004031226
0.2899996,0.004181435
0.2909996,0.004334709
0.2919996,0.004491049
0.2929996,0.004650454
0.2939996,0.00481599
0.2949996,0.004981526
0.2959996,0.005150127
0.2969996,0.00532486
0.2979996,0.005499593
0.2989996,0.00567739
0.2999996,0.005861319
0.3009996,0.006042183
0.3019996,0.006229177
0.3029996,0.006416172
0.3039996,0.006603166
0.3049996,0.006799357
0.3059996,0.006992483
0.3069996,0.007188674
0.3079996,0.007390995
0.3089996,0.007581055
0.3099996,0.007780312
0.3109996,0.007982633
0.3119996,0.008178824
0.3129996,0.00837808
0.3139996,0.008577337
0.3149996,0.008776593
0.3159996,0.008975849
0.3169996,0.009172041
0.3179996,0.009371297
0.3189996,0.009567488
0.3199996,0.009760614
0.3209996,0.00995987
0.3219996,0.01015299
0.3229996,0.01034305
0.3239996,0.01053925
0.3249996,0.01072011
0.3259996,0.01091323
0.3269996,0.01110023
0.3279996,0.01127803
0.3289996,0.01146196
0.3299996,0.01164282
0.3309996,0.01181449
0.3319996,0.01198615
0.3329996,0.01215475
0.3339996,0.01231722
0.3349996,0.01247663
0.3359996,0.01263297
0.3369996,0.01278011
0.3379996,0.01292113
0.3389996,0.01306214
0.3399996,0.01319395
0.3409996,0.01331351
0.3419996,0.01343
0.3429996,0.01353729
0.3439996,0.01362619
0.3449996,0.01371815
0.3459996,0.01379479
0.3469996,0.01386223
0.3479996,0.0139266
0.3489996,0.01396646
0.3499996,0.01400017
0.3509996,0.01403696
0.3519996,0.01404003
0.3529996,0.01404616
0.3539996,0.01404922
0.3549996,0.0140247
0.3559996,0.01400017
0.3569996,0.01396646
0.3579996,0.01391434
0.3589996,0.0138561
0.3599996,0.01379172
0.3609996,0.01370895
0.3619996,0.01362312
0.3629996,0.01353116
0.3639996,0.01342386
0.3649996,0.01331044
0.3659996,0.01319395
0.3669996,0.01305907
0.3679996,0.01292419
0.3689996,0.01278624
0.3699996,0.01263297
0.3709996,0.01248276
0.3719996,0.01232949
0.3729996,0.01216702
0.3739996,0.01200148
0.3749996,0.01184208
0.3759996,0.01167347
0.3769996,0.011511
0.3779996,0.0113424
0.3789996,0.0111738
0.3799996,0.01100826
0.3809996,0.01083966
0.3819996,0.01067106
0.3829996,0.01050859
0.3839996,0.01034305
0.3849996,0.01018365
0.3859996,0.01002424
0.3869996,0.009870971
0.3879996,0.00971463
0.3889996,0.009564422
0.3899996,0.009420345
0.3909996,0.009273201
0.3919996,0.009126058
0.3929996,0.008991177
0.3939996,0.008853231
0.3949996,0.008709153
0.3959996,0.008589599
0.3969996,0.008457784
0.3979996,0.008329033
0.3989996,0.00821561
0.3999996,0.008089925
0.4009996,0.007973436
0.4019996,0.007866145
0.4029996,0.007749657
0.4039996,0.007642365
0.4049996,0.007535073
0.4059996,0.007430846
0.4069996,0.007329686
0.4079996,0.007228524
0.4089996,0.00713656
0.4099996,0.007050727
0.4109996,0.006955697
0.4119996,0.006863732
0.4129996,0.006777898
0.4139996,0.006692065
0.4149996,0.006603166
0.4159996,0.006526529
0.4169996,0.006446826
0.4179996,0.006364059
0.4189996,0.006293552
0.4199996,0.006219981
0.4209996,0.006140279
0.4219996,0.006078968
0.4229996,0.006008463
0.4239996,0.005937956
0.4249996,0.005876646
0.4259996,0.005815337
0.4269996,0.005747896
0.4279996,0.005695784
0.4289996,0.005637539
0.4299996,0.00557623
0.4309996,0.005527182
0.4319996,0.005472003
0.4329996,0.00541989
0.4339996,0.005373908
0.4349996,0.005321795
0.4359996,0.005278877
0.4369996,0.005232896
0.4379996,0.005189979
0.4389996,0.005150127
0.4399996,0.005110276
0.4409996,0.005079621
0.4419996,0.00503977
0.4429996,0.00500605
0.4439996,0.004981526
0.4449996,0.00494474
0.4459996,0.004923282
0.4469996,0.004895692
0.4479996,0.004871169
0.4489996,0.004858906
0.4499996,0.004837448
0.4509996,0.004819056
0.4519996,0.004812925
0.4529996,0.004800662
0.4539996,0.004797597
0.4549996,0.004797597
0.4559996,0.004791466
0.4569996,0.004800662
0.4579996,0.004812925
0.4589996,0.004819056
0.4599996,0.004843579
0.4609996,0.004868103
0.4619996,0.004892627
0.4629996,0.004929413
0.4639996,0.004966198
0.4649996,0.005009115
0.4659996,0.005058163
0.4669996,0.005119473
0.4679996,0.005180782
0.4689996,0.005248223
0.4699996,0.005330991
0.4709996,0.005413759
0.4719996,0.005508789
0.4729996,0.005613015
0.4739996,0.005723373
0.4749996,0.005839861
0.4759996,0.005974742
0.4769996,0.006103492
0.4779996,0.006250636
0.4789996,0.006410041
0.4799996,0.00656638
0.4809996,0.006744178
0.4819996,0.006928107
0.4829996,0.007115101
0.4839996,0.007320489
0.4849996,0.007528942
0.4859996,0.007743525
0.4869996,0.007973436
0.4879996,0.008206413
0.4889996,0.008448587
0.4899996,0.008699956
0.4909996,0.008960522
0.4919996,0.009227219
0.4929996,0.009503113
0.4939996,0.009788202
0.4949996,0.01007329
0.4959996,0.01036758
0.4969996,0.01067413
0.4979996,0.01097761
0.4989996,0.01129029
0.4999996,0.01161523
0.5009996,0.01193404
0.5019996,0.01226205
0.5029996,0.01260538
0.5039996,0.01293645
0.5049996,0.01327979
0.5059996,0.01363538
0.5069996,0.01397565
0.5079996,0.01434044
0.5089996,0.0146991
0.5099996,0.01505777
0.5109996,0.01543176
0.5119996,0.01580574
0.5129996,0.0161736
0.5139996,0.01656292
0.5149996,0.01693997
0.5159996,0.01732009
0.5169996,0.01770634
0.5179996,0.01809873
0.5189996,0.01848191
0.5199996,0.01888042
0.5209996,0.01927587
0.5219996,0.01966519
0.5229996,0.02006676
0.5239996,0.02047754
0.5249996,0.02086992
0.5259996,0.02127763
0.5269996,0.02168841
0.5279996,0.02208998
0.5289996,0.02250689
0.5299996,0.02292073
0.5309996,0.02332844
0.5319996,0.02374841
0.5329996,0.02416225
0.5339996,0.02457609
0.5349996,0.02499913
0.5359996,0.02541603
0.5369996,0.02584213
0.5379996,0.02626517
0.5389996,0.02668514
0.5399996,0.02711431
0.5409996,0.02753735
0.5419996,0.02796652
0.5429996,0.02838955
0.5439996,0.02882485
0.5449996,0.02925708
0.5459996,0.02967399
0.5469996,0.03011542
0.5479996,0.03129975
0.5489996,0.03172891
0.5499996,0.03215808
0.5509996,0.0326179
0.5519996,0.03304707
0.5529996,0.03347624
0.5539996,0.03393606
0.5549996,0.03436523
0.5559996,0.03482505
0.5569996,0.03528487
0.5579996,0.03571404
0.5589996,0.03614321
0.5599996,0.03660303
0.5609996,0.03706285
0.5619996,0.03749202
0.5629996,0.03795184
0.5639996,0.03841167
0.5649996,0.03887149
0.5659996,0.03933131
0.5669996,0.03979113
0.5679996,0.0402203
0.5689996,0.04068012
0.5699996,0.04113995
0.5709996,0.04159977
0.5719996,0.04205959
0.5729996,0.04248876
0.5739996,0.04294858
0.5749996,0.0434084
0.5759996,0.04386823
0.5769996,0.04432805
0.5779996,0.04478787
0.5789996,0.04524769
0.5799996,0.04570751
0.5809996,0.04616734
0.5819996,0.04662716
0.5829996,0.04711764
0.5839996,0.0475468
0.5849996,0.04800662
0.5859996,0.04846645
0.5869996,0.04895693
0.5879996,0.04941675
0.5889996,0.04984592
0.5899996,0.05033639
0.5909996,0.05079622
0.5919996,0.05125604
0.5929996,0.05171586
0.5939996,0.05217568
0.5949996,0.0526355
0.5959996,0.05312598
0.5969996,0.0535858
0.5979996,0.05404563
0.5989996,0.0545361
0.5999996,0.05499592
0.6009996,0.05545575
0.6019996,0.05591557
0.6029996,0.05637539
0.6039996,0.05686587
0.6049996,0.05732569
0.6059996,0.05778552
0.6069996,0.05824534
0.6079996,0.05873581
0.6089996,0.05919564
0.6099996,0.05965546
0.6109996,0.06014594
0.6119996,0.06060576
0.6129996,0.06109623
0.6139996,0.06158672
0.6149996,0.06204654
0.6159996,0.06250636
0.6169996,0.06299683
0.6179996,0.06345665
0.6189996,0.06391648
0.6199996,0.06440695
0.6209996,0.06486678
0.6219996,0.0653266
0.6229996,0.06581708
0.6239996,0.0662769
0.6249996,0.06673672
0.6259996,0.06722721
0.6269996,0.06768703
0.6279996,0.06817751
0.6289996,0.06863733
0.6299996,0.0691278
0.6309996,0.06961828
0.6319996,0.0700781
0.6329996,0.07053792
0.6339996,0.0710284
0.6349996,0.07151888
0.6359996,0.0719787
0.6369996,0.07246917
0.6379996,0.072929
0.6389996,0.07341947
0.6399996,0.07387929
0.6409996,0.07436978
0.6419996,0.07486025
0.6429996,0.07528942
0.6439996,0.07581055
0.6449996,0.07627037
0.6459996,0.0767302
0.6469996,0.07725133
0.6479996,0.07771116
0.6489996,0.07820163
0.6499996,0.07869211
0.6509996,0.07912128
0.6519996,0.07961175
0.6529996,0.08010223
0.6539996,0.08059271
0.6549996,0.08108319
0.6559996,0.08154301
0.6569996,0.08200283
0.6579996,0.08249331
0.6589996,0.08295313
0.6599996,0.0834436
0.6609996,0.08393408
0.6619996,0.0843939
0.6629996,0.08488438
0.6639996,0.08537485
0.6649996,0.08583468
0.6659996,0.08632516
0.6669996,0.08681564
0.6679996,0.08727546
0.6689996,0.08776593
0.6699996,0.08828707
0.6709996,0.08874689
0.6719996,0.08920672
0.6729996,0.08969719
0.6739996,0.09015701
0.6749996,0.09064749
0.6759996,0.09113797
0.6769996,0.09156714
0.6779996,0.09208827
0.6789996,0.0926094
0.6799996,0.09306922
0.6809996,0.0935597
0.6819996,0.09405018
0.6829996,0.09451
0.6839996,0.09503113
0.6849996,0.09552161
0.6859996,0.09598143
0.6869996,0.09647191
0.6879996,0.09696238
0.6889996,0.0974222
0.6899996,0.09791268
0.6909996,0.09840316
0.6919996,0.09886298
0.6929996,0.09935346
0.6939996,0.09987459
0.6949996,0.1003344
0.6959996,0.1008249
0.6969996,0.1013154
0.6979996,0.1018058
0.6989996,0.1022963
0.6999996,0.1024496
0.6990005,0.1019591
0.6980005,0.1014993
0.6970005,0.1010088
0.6960005,0.1005183
0.6950005,0.1000585
0.6940005,0.09956805
0.6930005,0.09910822
0.6920004,0.0986484
0.6910005,0.09815792
0.6900005,0.0976981
0.6890005,0.09723828
0.6880005,0.0967478
0.6870005,0.09628798
0.6860005,0.09582815
0.6850005,0.09533768
0.6840005,0.09487786
0.6830005,0.09441803
0.6820005,0.09392755
0.6810005,0.09346773
0.6800005,0.09300791
0.6790005,0.09251743
0.6780005,0.09205761
0.6770005,0.09159779
0.6760005,0.09107666
0.6750005,0.09064749
0.6740005,0.09018766
0.6730005,0.08969719
0.6720005,0.08923737
0.6710005,0.08874689
0.6700005,0.08828707
0.6690005,0.08782724
0.6680005,0.08736742
0.6670005,0.08687695
0.6660005,0.08641712
0.6650005,0.08592664
0.6640005,0.08546682
0.6630005,0.08497635
0.6620005,0.08451653
0.6610005,0.08402605
0.6600005,0.08356623
0.6590005,0.0831064
0.6580005,0.08264658
0.6570005,0.08215611
0.6560005,0.08172693
0.6550004,0.08123646
0.6540005,0.08077663
0.6530005,0.08031681
0.6520005,0.07985699
0.6510005,0.07936651
0.6500005,0.07890669
0.6490005,0.07844687
0.6480005,0.07795639
0.6470005,0.07749657
0.6460005,0.07703675
0.6450005,0.07654627
0.6440005,0.07608645
0.6430005,0.07562663
0.6420005,0.07516681
0.6410004,0.07470698
0.6400005,0.07424716
0.6390005,0.07375668
0.6380005,0.07329686
0.6370005,0.07286769
0.6360005,0.07237721
0.6350005,0.07191739
0.6340005,0.07145756
0.6330005,0.07099774
0.6320005,0.07053792
0.6310005,0.0700781
0.6300005,0.06961828
0.6290005,0.0691278
0.6280005,0.06869864
0.6270005,0.06820816
0.6260005,0.06774833
0.6250005,0.06728851
0.6240005,0.06682869
0.6230005,0.06633821
0.6220005,0.06590905
0.6210005,0.06544922
0.6200005,0.0649894
0.6190005,0.06452958
0.6180004,0.06406976
0.6170005,0.06360994
0.6160005,0.06315011
0.6150005,0.06269029
0.6140005,0.06223046
0.6130005,0.06177064
0.6120005,0.06128017
0.6110005,0.06082034
0.6100005,0.06039118
0.6090005,0.05993135
0.6080005,0.05947153
0.6070005,0.05901171
0.6060005,0.05855189
0.6050005,0.05809207
0.6040004,0.05766289
0.6030005,0.05717242
0.6020005,0.0567126
0.6010005,0.05628343
0.6000005,0.05582361
0.5990005,0.05536379
0.5980005,0.05490396
0.5970005,0.0544748
0.5960005,0.05398431
0.5950005,0.05352449
0.5940005,0.05309533
0.5930005,0.05260485
0.5920005,0.05217568
0.5910005,0.05174651
0.5900005,0.05125604
0.5890005,0.05082687
0.5880005,0.0503977
0.5870005,0.04993788
0.5860005,0.04950871
0.5850005,0.04904889
0.5840005,0.04861972
0.5830005,0.04819056
0.5820005,0.04773073
0.5810004,0.04727091
0.5800005,0.04684174
0.5790005,0.04638192
0.5780005,0.04595275
0.5770005,0.04549293
0.5760005,0.04503311
0.5750005,0.04460394
0.5740005,0.04414412
0.5730005,0.04371495
0.5720005,0.04325513
0.5710005,0.04282596
0.5700005,0.04236614
0.5690005,0.04193697
0.5680005,0.0415078
0.5670004,0.04104798
0.5660005,0.04061881
0.5650005,0.04018965
0.5640005,0.03976048
0.5630005,0.03930065
0.5620005,0.03887149
0.5610005,0.03844232
0.5600005,0.03801315
0.5590005,0.03758398
0.5580005,0.03712416
0.5570005,0.036695
0.5560005,0.03626583
0.5550005,0.03583666
0.5540005,0.03540749
0.5530005,0.03497833
0.5520005,0.03454916
0.5510005,0.03411999
0.5500005,0.03372148
0.5490005,0.03329231
0.5480005,0.03286314
0.5470005,0.03243398
0.5460005,0.03200481
0.5450005,0.03157564
0.5440005,0.03117712
0.5430005,0.03074796
0.5420005,0.03031879
0.5410005,0.02988962
0.5400005,0.02946045
0.5390005,0.02906194
0.5380005,0.02863277
0.5370005,0.02823426
0.5360005,0.0278051
0.5350005,0.02740658
0.5340005,0.02697741
0.5330005,0.0265789
0.5320005,0.02618039
0.5310005,0.02575122
0.5300004,0.02535271
0.5290005,0.0249542
0.5280005,0.02455568
0.5270005,0.02415717
0.5260005,0.023728
0.5250005,0.02332949
0.5240005,0.02293098
0.5230005,0.02253246
0.5220005,0.02213395
0.5210005,0.02173544
0.5200005,0.02133693
0.5190005,0.02093842
0.5180005,0.02057056
0.5170005,0.02017204
0.5160004,0.01977353
0.5150005,0.01940567
0.5140005,0.01903781
0.5130005,0.0186393
0.5120005,0.01827144
0.5110005,0.01790359
0.5100005,0.01750507
0.5090005,0.01713721
0.5080005,0.01676936
0.5070005,0.0164015
0.5060005,0.01603364
0.5050005,0.01566578
0.5040005,0.01529793
0.5030005,0.01493007
0.5020005,0.01456221
0.5010005,0.01419435
0.5000005,0.01385715
0.4990005,0.01351995
0.4980005,0.01315209
0.4970005,0.01232336
0.4960005,0.01199228
0.4950005,0.01164895
0.4940005,0.01132094
0.4930005,0.01098987
0.4920005,0.01065573
0.4910005,0.01033692
0.4900005,0.01001198
0.4890005,0.009690107
0.4880005,0.009380493
0.4870005,0.009064749
0.4860005,0.008755134
0.4850005,0.008451653
0.4840005,0.008148169
0.4830005,0.007850817
0.4820005,0.007556531
0.4810005,0.00726531
0.4800005,0.006977155
0.4790005,0.00669513
0.4780005,0.006416172
0.4770005,0.006140279
0.4760005,0.005870515
0.4750005,0.005606884
0.4740005,0.005340187
0.4730005,0.005082687
0.4720005,0.004834383
0.4710005,0.004583013
0.4700005,0.00434084
0.4690005,0.004101732
0.4680005,0.003868756
0.4670005,0.003638844
0.4660005,0.003415064
0.4650005,0.003197415
0.4640005,0.002985897
0.4630005,0.002771313
0.4620005,0.002572057
0.4610005,0.0023728
0.4600005,0.002176609
0.4590005,0.00199268
0.4580005,0.001808751
0.4570005,0.001634019
0.4560005,0.001465417
0.4550005,0.001296816
0.4540005,0.001137411
0.4530005,0.0009506179
0.4520005,0.0007994896
0.4510005,0.0006569446
0.4500005,0.0005153193
0.4490005,0.0003810512
0.4480005,0.0002504616
0.4470005,0.0001229375
0.4460005,6.449187E-06
0.4450005,-0.0001122875
0.4440005,-0.0002245454
0.4430005,-0.0003269938
0.4420005,-0.0004300755
0.4410005,-0.0005257186
0.4400005,-0.0006158438
0.4390005,-0.0007081148
0.4380005,-0.0007899632
0.4370005,-0.000870892
0.4360005,-0.0009515142
0.4350005,-0.001021407
0.4340005,-0.001092833
0.4330005,-0.00116058
0.4320005,-0.001221277
0.4310005,-0.001284426
0.4300005,-0.001341444
0.4290005,-0.001396622
0.4280005,-0.001450575
0.4270005,-0.00149809
0.4260005,-0.001547751
0.4250005,-0.001592507
0.4240005,-0.001633584
0.4230005,-0.001678953
0.4220005,-0.001716352
0.4210005,-0.001752831
0.4200005,-0.00179115
0.4190005,-0.001820885
0.4180005,-0.001855832
0.4170005,-0.001888019
0.4160005,-0.001916222
0.4150005,-0.001948103
0.4140005,-0.001973546
0.4130005,-0.001999909
0.4120005,-0.002027192
0.4110005,-0.002049264
0.4100005,-0.002079918
0.4090005,-0.00210996
0.4080005,-0.002126207
0.4070005,-0.002148585
0.4060005,-0.002166671
0.4050005,-0.002185677
0.4040005,-0.002206829
0.4030005,-0.002225222
0.4020005,-0.002244535
0.4010005,-0.002262621
0.4000005,-0.002278868
0.3990005,-0.002299713
0.3980005,-0.002315041
0.3970005,-0.002333434
0.3960005,-0.002353973
0.3950005,-0.002366847
0.3940005,-0.002385241
0.3930005,-0.002402714
0.3920005,-0.002415589
0.3910005,-0.002435821
0.3900005,-0.002452068
0.3890005,-0.002467396
0.3880005,-0.002486095
0.3870005,-0.002498663
0.3860005,-0.00251583
0.3850005,-0.002533303
0.3840005,-0.002547098
0.3830005,-0.00256733
0.3820005,-0.002581431
0.3810005,-0.002598291
0.3800005,-0.002616991
0.3790005,-0.002630786
0.3780005,-0.002649792
0.3770005,-0.002667571
0.3760005,-0.002682899
0.3750005,-0.002702518
0.3740005,-0.002719071
0.3730005,-0.002736851
0.3720005,-0.002755551
0.3710005,-0.002773944
0.3700005,-0.002793256
0.3690005,-0.002810423
0.3680005,-0.002827283
0.3670005,-0.002849354
0.3660005,-0.002865295
0.3650005,-0.002885834
0.3640005,-0.002908825
0.3630005,-0.002923539
0.3620005,-0.002946224
0.3610005,-0.002967989
0.3600005,-0.002984542
0.3590005,-0.00300876
0.3580005,-0.002997925
0.3570005,-0.003013253
0.3560005,-0.003037777
0.3550005,-0.003056169
0.3540005,-0.003077628
0.3530005,-0.003102152
0.3520005,-0.00312361
0.3510005,-0.003148134
0.3500005,-0.003169592
0.3490005,-0.003194116
0.3480005,-0.00321864
0.3470005,-0.003243164
0.3460005,-0.003270753
0.3450005,-0.003295277
0.3440005,-0.003319801
0.3430005,-0.003350456
0.3420005,-0.003371914
0.3410005,-0.003399503
0.3400005,-0.003430158
0.3390005,-0.003454682
0.3380005,-0.003485337
0.3370005,-0.003512926
0.3360005,-0.003540515
0.3350005,-0.003574236
0.3340005,-0.003601825
0.3330005,-0.003629415
0.3320005,-0.003663135
0.3310005,-0.003690724
0.3300005,-0.003724444
0.3290005,-0.003758165
0.3280005,-0.00378882
0.3270005,-0.00382254
0.3260005,-0.00385626
0.3250005,-0.00388998
0.3240005,-0.003923701
0.3230005,-0.003960487
0.3220005,-0.003997272
0.3210005,-0.004030993
0.3200005,-0.004070844
0.3190005,-0.004110695
0.3180005,-0.00414135
0.3170005,-0.004184267
0.3160005,-0.004227184
0.3150005,-0.004257839
0.3140005,-0.00430382
0.3130005,-0.004346738
0.3120005,-0.004380458
0.3110005,-0.004423374
0.3100005,-0.004466291
0.3090005,-0.004506143
0.3080005,-0.004552125
0.3070005,-0.004601172
0.3060005,-0.004644089
0.3050005,-0.004687006
0.3040005,-0.004732988
0.3030005,-0.00477897
0.3020005,-0.004824953
0.3010005,-0.004874
0.3000005,-0.004923048
0.2990005,-0.004965965
0.2980005,-0.005021143
0.2970005,-0.005067126
0.2960005,-0.005116174
0.2950005,-0.005171353
0.2940005,-0.0052204
0.2930005,-0.005272513
0.2920005,-0.005330757
0.2910005,-0.005379805
0.2900005,-0.005434984
0.2890005,-0.005490162
0.2880005,-0.005545341
0.2870005,-0.00560665
0.2860005,-0.005661829
0.2850005,-0.005720073
0.2840005,-0.005781383
0.2830005,-0.005839627
0.2820005,-0.005904003
0.2810005,-0.005959181
0.2800005,-0.006023556
0.2790005,-0.006087931
0.2780005,-0.006152307
0.2770005,-0.006219747
0.2760005,-0.006284122
0.2750005,-0.006351563
0.2740005,-0.0064282
0.2730005,-0.006492575
0.2720005,-0.006563081
0.2710005,-0.006639718
0.2700005,-0.006707159
0.2690005,-0.006783796
0.2680005,-0.006860433
0.2670005,-0.006930939
0.2660005,-0.007010642
0.2650005,-0.007090344
0.2640005,-0.007166982
0.2630005,-0.007252815
0.2620005,-0.007332517
0.2610005,-0.00741222
0.2600005,-0.007501119
0.2590005,-0.007580821
0.2580005,-0.00766972
0.2570005,-0.007755554
0.2560005,-0.007841388
0.2550005,-0.007930286
0.2540005,-0.008019186
0.2530005,-0.008108085
0.2520005,-0.008196983
0.2510005,-0.008285882
0.2500005,-0.008377847
0.2490005,-0.008463681
0.2480005,-0.008555645
0.2470005,-0.008644544
0.2460005,-0.008730377
0.2450005,-0.008822342
0.2440005,-0.008917372
0.2430005,-0.00900014
0.2420005,-0.009089039
0.2410005,-0.009174872
0.2400005,-0.009260706
0.2390005,-0.009349605
0.2380005,-0.009429308
0.2370005,-0.009518206
0.2360005,-0.009604041
0.2350005,-0.009680677
0.2340005,-0.009769576
0.2330005,-0.009846213
0.2320005,-0.00992285
0.2310005,-0.01001482
0.2300005,-0.01008226
0.2290005,-0.01015583
0.2280005,-0.01024166
0.2270005,-0.0103091
0.2260005,-0.01037961
0.2250005,-0.01045931
0.2240005,-0.01052062
0.2230005,-0.01058806
0.2220005,-0.0106555
0.2210005,-0.01070761
0.2200005,-0.01076892
0.2190005,-0.0108241
0.2180005,-0.01087008
0.2170005,-0.01091607
0.2160005,-0.01095898
0.2150005,-0.01098964
0.2140005,-0.01101723
0.2130005,-0.01104175
0.2120005,-0.01105095
0.2110005,-0.01105401
0.2100005,-0.01104788
0.2090005,-0.01102029
0.2080005,-0.01098657
0.2070005,-0.01093753
0.2060005,-0.01086395
0.2050005,-0.01078119
0.2040005,-0.01067389
0.2030005,-0.01053288
0.2020005,-0.01038267
0.2010005,-0.01020794
0.2000005,-0.009996422
0.1990005,-0.009781837
0.1980005,-0.009548862
0.1970005,-0.009291361
0.1960005,-0.009030795
0.1950005,-0.008767163
0.1940005,-0.008479008
0.1930005,-0.008203114
0.1920005,-0.007927221
0.1910005,-0.007645197
0.1900005,-0.007375435
0.1890005,-0.007114868
0.1880005,-0.006860433
0.1870005,-0.006615194
0.1860005,-0.006391414
0.1850005,-0.006170699
0.1840005,-0.005962247
0.1830005,-0.005772187
0.1820005,-0.005588258
0.1810005,-0.00541046
0.1800005,-0.005251055
0.1790005,-0.00509165
0.1780005,-0.004941441
0.1770005,-0.004803495
0.1760005,-0.004668613
0.1750005,-0.004539863
0.1740005,-0.004420309
0.1730005,-0.004306886
0.1720005,-0.004196529
0.1710005,-0.004086172
0.1700005,-0.003988076
0.1690005,-0.003886915
0.1680005,-0.003794951
0.1670005,-0.003709117
0.1660005,-0.003620218
0.1650005,-0.003534385
0.1640005,-0.003457748
0.1630005,-0.003378045
0.1620005,-0.003304473
0.1610005,-0.003233967
0.1600005,-0.003163461
0.1590005,-0.003096021
0.1580005,-0.003034711
0.1570005,-0.002970336
0.1560005,-0.002909026
0.1550005,-0.002850782
0.1540005,-0.002795603
0.1530005,-0.002740425
0.1520005,-0.002688312
0.1510005,-0.002636198
0.1500005,-0.002584085
0.1490005,-0.002531972
0.1480005,-0.00248599
0.1470005,-0.002440007
0.1460005,-0.00239096
0.1450005,-0.002344977
0.1440005,-0.002302061
0.1430005,-0.002256078
0.1420005,-0.002210096
0.1410005,-0.002164114
0.1400005,-0.002121197
0.1390005,-0.002075215
0.1380005,-0.002032298
0.1370005,-0.001989381
0.1360005,-0.00194953
0.1350005,-0.001909679
0.1340005,-0.001872893
0.1330005,-0.001839173
0.1320005,-0.001802387
0.1310005,-0.001771732
0.1300005,-0.001741077
0.1290005,-0.001710422
0.1280005,-0.001682833
0.1270005,-0.001655244
0.1260005,-0.00163072
0.1250005,-0.001606196
0.1240005,-0.001617644
0.1230005,-0.001594039
0.1220005,-0.001572274
0.1210005,-0.001550816
0.1200005,-0.001529664
0.1190005,-0.001509739
0.1180005,-0.001490119
0.1170005,-0.0014705
0.1160005,-0.001452414
0.1150005,-0.001434634
0.1140005,-0.001416855
0.1130005,-0.001399994
0.1120005,-0.001383747
0.1110005,-0.001367807
0.1100005,-0.001352173
0.1090005,-0.001336845
0.1080005,-0.001321825
0.1070005,-0.00130711
0.1060005,-0.001293316
0.1050005,-0.001279521
0.1040005,-0.001265726
0.1030005,-0.001252851
0.1020005,-0.001239976
0.1010005,-0.001227408
0.1000005,-0.001215146
0.09900048,-0.00120319
0.09800047,-0.001190928
0.09700048,-0.00117928
0.09600048,-0.001167937
0.09500048,-0.001156902
0.09400047,-0.001146172
0.09300048,-0.001135443
0.09200048,-0.001125021
0.09100047,-0.001115211
0.09000048,-0.001104788
0.08900048,-0.001094979
0.08800048,-0.001085476
0.08700047,-0.001076279
0.08600048,-0.001067083
0.08500048,-0.001057887
0.08400048,-0.001048997
0.08300047,-0.001040107
0.08200048,-0.00103183
0.08100048,-0.001023247
0.08000048,-0.001014663
0.07900048,-0.001006693
0.07800048,-0.0009987226
0.07700048,-0.0009907524
0.07600047,-0.0009830886
0.07500048,-0.0009754249
0.07400048,-0.0009677612
0.07300048,-0.0009604041
0.07200047,-0.0009530469
0.07100048,-0.0009459963
0.07000048,-0.0009389457
0.06900048,-0.000931895
0.06800048,-0.0009254576
0.06700048,-0.0009187135
0.06600048,-0.000912276
0.06500047,-0.0009055319
0.06400048,-0.000899401
0.06300048,-0.00089327
0.06200048,-0.000887139
0.06100048,-0.0008807015
0.06000048,-0.0008751836
0.05900048,-0.0008687461
0.05800048,-0.0008629217
0.05700048,-0.0008574039
0.05600048,-0.0008515794
0.05500048,-0.0008460616
0.05400048,-0.0008405437
0.05300048,-0.0008350258
0.05200048,-0.0008301211
0.05100048,-0.0008249097
0.05000048,-0.0008193919
0.04900048,-0.0008144871
0.04800048,-0.0008092758
0.04700048,-0.0008040644
0.04600048,-0.0007991597
0.04500048,-0.0007942549
0.04400048,-0.0007896567
0.04300048,-0.0007847519
0.04200048,-0.0007804602
0.04100048,-0.000775862
0.04000048,-0.0007709572
0.03900048,-0.0007666656
0.03800048,-0.0007620673
0.03700048,-0.0007574691
0.03600048,-0.000753484
0.03500048,-0.0007491923
0.03400048,-0.0007449006
0.03300048,-0.0007409155
0.03200048,-0.0007366238
0.03100048,-0.0007326387
0.03000048,-0.0007286536
0.02900048,-0.0007246684
0.02800048,-0.0007206833
0.02700048,-0.0007166982
0.02600048,-0.0007127131
0.02500048,-0.0007090345
0.02400048,-0.0007050494
0.02300048,-0.0007013708
0.02200048,-0.0006976922
0.02100048,-0.0006940136
0.02000048,-0.0006903351
0.01900048,-0.0006866565
0.01800048,-0.0006832844
0.01700048,-0.0006796059
0.01600048,-0.0006762338
0.01500048,-0.0006728618
0.01400048,-0.0006691832
0.01300048,-0.0006661177
0.01200048,-0.0006627457
0.01100048,-0.0006593736
0.01000048,-0.0006563082
0.009000476,-0.0006529361
0.008000477,-0.0006495641
0.007000477,-0.0006464986
0.006000477,-0.0006431266
0.005000477,-0.0006400611
0.004000477,-0.0006369957
0.003000477,-0.0006336236
0.002000477,-0.0006305581
0.001000477,-0.0006274926
