EXPID. 1321
[电化学]: CV : 0 >> 0.7 >> 0 >> 0(V) @ 0.01(V/s) X 10(Seg)
起始电位 (V),0
上限电位 (V),0.7
下限电位 (V),0
终止电位 (V),0
扫速 (V/s),0.01
电解液 信息:
KOH,1
0.001,-9.113563E-06
0.002,-8.610824E-06
0.003,-8.337995E-06
0.004,-8.013055E-06
0.005,-7.706506E-06
0.006,-7.458202E-06
0.007,-7.206832E-06
0.008,-6.900284E-06
0.009,-6.661176E-06
0.01,-6.351563E-06
0.011,-6.127783E-06
0.012,-5.787515E-06
0.013,-5.621978E-06
0.014,-5.346085E-06
0.015,-5.094715E-06
0.016,-4.867869E-06
0.017,-4.628762E-06
0.018,-4.380458E-06
0.019,-4.147481E-06
0.02,-3.893046E-06
0.021,-3.709117E-06
0.022,-3.519057E-06
0.023,-3.249295E-06
0.024,-3.102152E-06
0.025,-2.915157E-06
0.026,-2.688311E-06
0.027,-2.501317E-06
0.028,-2.314323E-06
0.029,-2.127328E-06
0.03,-1.97712E-06
0.031,-1.750274E-06
0.032,-1.514232E-06
0.033,-1.37935E-06
0.034,-1.173963E-06
0.035,-1.066671E-06
0.036,-8.612838E-07
0.037,-6.804204E-07
0.038,-4.597056E-07
0.039,-2.941696E-07
0.04,-1.623538E-07
0.041,2.770608E-08
0.042,1.840457E-07
0.043,3.342543E-07
0.044,5.365762E-07
0.045,6.959813E-07
0.046,7.971422E-07
0.047,1.048512E-06
0.048,1.143542E-06
0.049,1.284554E-06
0.05,1.480745E-06
0.051,1.615626E-06
0.052,1.817948E-06
0.053,1.998811E-06
0.054,2.124496E-06
0.055,2.290032E-06
0.056,2.443306E-06
0.057,2.575122E-06
0.058,2.768247E-06
0.059,2.88167E-06
0.06,3.044141E-06
0.061,3.255659E-06
0.062,3.353754E-06
0.063,3.45185E-06
0.064,3.669499E-06
0.065,3.785988E-06
0.066,3.920869E-06
0.067,4.083339E-06
0.068,4.270334E-06
0.069,4.417477E-06
0.07,4.497179E-06
0.071,4.674977E-06
0.072,4.794531E-06
0.073,4.969264E-06
0.074,5.143997E-06
0.075,5.214503E-06
0.076,5.413759E-06
0.077,5.545575E-06
0.078,5.628342E-06
0.079,5.839861E-06
0.08,5.968611E-06
0.081,6.072838E-06
0.082,6.287421E-06
0.083,6.394713E-06
0.084,6.615428E-06
0.085,6.710458E-06
0.086,6.860667E-06
0.087,7.075251E-06
0.088,7.173346E-06
0.089,7.384864E-06
0.09,7.535073E-06
0.091,7.648496E-06
0.092,7.789508E-06
0.093,7.951979E-06
0.094,8.068467E-06
0.095,8.240134E-06
0.096,8.335164E-06
0.097,8.448586E-06
0.098,8.56814E-06
0.099,8.745938E-06
0.1,8.810313E-06
0.101,8.90841E-06
0.102,9.101534E-06
0.103,9.196564E-06
0.104,9.340642E-06
0.105,9.469392E-06
0.106,9.601208E-06
0.107,9.696238E-06
0.108,9.870971E-06
0.109,1.008249E-05
0.11,1.011314E-05
0.111,1.030014E-05
0.112,1.042582E-05
0.113,1.054231E-05
0.114,1.072011E-05
0.115,1.085806E-05
0.116,1.103892E-05
0.117,1.114928E-05
0.118,1.127189E-05
0.119,1.144969E-05
0.12,1.155392E-05
0.121,1.170719E-05
0.122,1.183901E-05
0.123,1.193711E-05
0.124,1.218848E-05
0.125,1.229577E-05
0.126,1.245824E-05
0.127,1.260538E-05
0.128,1.274639E-05
0.129,1.296404E-05
0.13,1.313571E-05
0.131,1.326446E-05
0.132,1.350357E-05
0.133,1.356794E-05
0.134,1.376413E-05
0.135,1.392047E-05
0.136,1.407988E-05
0.137,1.419943E-05
0.138,1.43527E-05
0.139,1.447839E-05
0.14,1.464086E-05
0.141,1.482786E-05
0.142,1.492902E-05
0.143,1.51344E-05
0.144,1.525396E-05
0.145,1.538884E-05
0.146,1.552372E-05
0.147,1.564021E-05
0.148,1.58272E-05
0.149,1.602646E-05
0.15,1.610309E-05
0.151,1.630235E-05
0.152,1.643723E-05
0.153,1.654146E-05
0.154,1.674685E-05
0.155,1.689706E-05
0.156,1.702581E-05
0.157,1.722813E-05
0.158,1.740286E-05
0.159,1.750709E-05
0.16,1.766956E-05
0.161,1.779218E-05
0.162,1.794239E-05
0.163,1.812018E-05
0.164,1.822134E-05
0.165,1.838688E-05
0.166,1.858614E-05
0.167,1.877313E-05
0.168,1.892027E-05
0.169,1.908887E-05
0.17,1.926054E-05
0.171,1.935251E-05
0.172,1.966212E-05
0.173,1.976635E-05
0.174,1.98859E-05
0.175,2.010355E-05
0.176,2.028135E-05
0.177,2.038251E-05
0.178,2.060629E-05
0.179,2.073504E-05
0.18,2.09343E-05
0.181,2.112129E-05
0.182,2.128376E-05
0.183,2.145849E-05
0.184,2.159644E-05
0.185,2.179263E-05
0.186,2.199802E-05
0.187,2.21329E-05
0.188,2.229231E-05
0.189,2.248543E-05
0.19,2.260192E-05
0.191,2.289008E-05
0.192,2.296671E-05
0.193,2.319662E-05
0.194,2.341121E-05
0.195,2.352463E-05
0.196,2.365951E-05
0.197,2.384037E-05
0.198,2.3963E-05
0.199,2.418371E-05
0.2,2.43891E-05
0.201,2.447493E-05
0.202,2.471404E-05
0.203,2.526074E-05
0.204,2.547533E-05
0.205,2.568991E-05
0.206,2.584318E-05
0.207,2.608842E-05
0.208,2.642563E-05
0.209,2.654824E-05
0.21,2.676283E-05
0.211,2.69161E-05
0.212,2.710003E-05
0.213,2.728396E-05
0.214,2.746789E-05
0.215,2.762116E-05
0.216,2.78051E-05
0.217,2.808099E-05
0.218,2.829557E-05
0.219,2.857147E-05
0.22,2.884736E-05
0.221,2.90926E-05
0.222,2.927653E-05
0.223,2.949111E-05
0.224,2.967504E-05
0.225,2.988962E-05
0.226,3.016552E-05
0.227,3.031879E-05
0.228,3.056403E-05
0.229,3.077861E-05
0.23,3.096254E-05
0.231,3.129974E-05
0.232,3.145302E-05
0.233,3.163695E-05
0.234,3.188219E-05
0.235,3.209677E-05
0.236,3.240332E-05
0.237,3.264856E-05
0.238,3.289379E-05
0.239,3.326165E-05
0.24,3.347624E-05
0.241,3.375213E-05
0.242,3.405868E-05
0.243,3.430392E-05
0.244,3.461046E-05
0.245,3.482505E-05
0.246,3.503963E-05
0.247,3.534618E-05
0.248,3.562207E-05
0.249,3.589797E-05
0.25,3.611255E-05
0.251,3.638844E-05
0.252,3.67563E-05
0.253,3.700154E-05
0.254,3.727743E-05
0.255,3.76453E-05
0.256,3.795184E-05
0.257,3.822774E-05
0.258,3.862625E-05
0.259,3.890214E-05
0.26,3.923934E-05
0.261,3.957655E-05
0.262,3.985244E-05
0.263,4.02203E-05
0.264,4.049619E-05
0.265,4.089471E-05
0.266,4.123191E-05
0.267,4.15078E-05
0.268,4.190631E-05
0.269,4.221286E-05
0.27,4.255007E-05
0.271,4.291792E-05
0.272,4.325512E-05
0.273,4.359233E-05
0.274,4.399084E-05
0.275,4.429739E-05
0.276,4.46959E-05
0.277,4.49718E-05
0.278,4.527835E-05
0.279,4.56462E-05
0.28,4.601406E-05
0.281,4.641257E-05
0.282,4.674977E-05
0.283,4.708698E-05
0.284,4.75468E-05
0.285,4.794531E-05
0.286,4.831317E-05
0.287,4.8773E-05
0.288,4.917151E-05
0.289,4.953937E-05
0.29,4.996853E-05
0.291,5.036705E-05
0.292,5.079621E-05
0.293,5.125604E-05
0.294,5.165455E-05
0.295,5.208372E-05
0.296,5.257419E-05
0.297,5.29727E-05
0.298,5.337122E-05
0.299,5.380038E-05
0.3,5.432152E-05
0.301,5.475069E-05
0.302,5.51492E-05
0.303,5.551706E-05
0.304,5.594622E-05
0.305,5.634474E-05
0.306,5.683522E-05
0.307,5.729503E-05
0.308,5.778552E-05
0.309,5.827599E-05
0.31,5.86745E-05
0.311,5.919564E-05
0.312,5.96248E-05
0.313,6.011528E-05
0.314,6.069772E-05
0.315,6.115754E-05
0.316,6.170933E-05
0.317,6.21998E-05
0.318,6.265963E-05
0.319,6.318076E-05
0.32,6.373255E-05
0.321,6.422302E-05
0.322,6.477482E-05
0.323,6.526529E-05
0.324,6.578642E-05
0.325,6.624625E-05
0.326,6.679803E-05
0.327,6.728851E-05
0.328,6.777899E-05
0.329,6.830012E-05
0.33,6.875994E-05
0.331,6.921976E-05
0.332,6.98022E-05
0.333,7.035399E-05
0.334,7.090578E-05
0.335,7.142691E-05
0.336,7.204001E-05
0.337,7.259179E-05
0.338,7.314358E-05
0.339,7.369537E-05
0.34,7.436977E-05
0.341,7.486025E-05
0.342,7.541204E-05
0.343,7.599447E-05
0.344,7.660758E-05
0.345,7.719002E-05
0.346,7.780312E-05
0.347,7.829359E-05
0.348,7.890669E-05
0.349,7.948913E-05
0.35,8.013288E-05
0.351,8.071532E-05
0.352,8.132842E-05
0.353,8.191086E-05
0.354,8.246265E-05
0.355,8.31064E-05
0.356,8.37195E-05
0.357,8.427128E-05
0.358,8.482307E-05
0.359,8.546682E-05
0.36,8.611057E-05
0.361,8.669301E-05
0.362,8.733677E-05
0.363,8.791921E-05
0.364,8.859361E-05
0.365,8.917606E-05
0.366,8.988111E-05
0.367,9.046356E-05
0.368,9.110731E-05
0.369,9.178172E-05
0.37,9.248677E-05
0.371,9.306922E-05
0.372,9.380493E-05
0.373,9.444868E-05
0.374,9.506178E-05
0.375,9.582815E-05
0.376,9.644125E-05
0.377,9.711565E-05
0.378,9.791268E-05
0.379,9.852578E-05
0.38,9.926149E-05
0.381,9.990524E-05
0.382,0.000100549
0.383,0.0001012847
0.384,0.0001020204
0.385,0.0001026642
0.386,0.0001033692
0.387,0.0001040436
0.388,0.0001047794
0.389,0.0001054538
0.39,0.0001061588
0.391,0.0001069252
0.392,0.0001076303
0.393,0.0001083047
0.394,0.0001090404
0.395,0.0001097761
0.396,0.0001105731
0.397,0.0001112782
0.398,0.0001119526
0.399,0.0001127189
0.4,0.0001134547
0.401,0.0001141904
0.402,0.0001149261
0.403,0.0001156925
0.404,0.0001164895
0.405,0.0001171946
0.406,0.0001179609
0.407,0.000118758
0.408,0.0001194937
0.409,0.0001202907
0.41,0.0001211184
0.411,0.0001218847
0.412,0.0001226818
0.413,0.0001234481
0.414,0.0001242758
0.415,0.0001249809
0.416,0.0001257779
0.417,0.0001266362
0.418,0.0001274026
0.419,0.0001282303
0.42,0.0001291193
0.421,0.0001298243
0.422,0.0001307133
0.423,0.0001315717
0.424,0.0001323993
0.425,0.0001331964
0.426,0.0001340547
0.427,0.000134913
0.428,0.0001357407
0.429,0.0001366604
0.43,0.0001374881
0.431,0.000138377
0.432,0.0001392047
0.433,0.000140155
0.434,0.000141044
0.435,0.0001418717
0.436,0.0001428526
0.437,0.000143711
0.438,0.000144508
0.439,0.0001455809
0.44,0.0001463779
0.441,0.0001472976
0.442,0.0001484012
0.443,0.0001491982
0.444,0.0001502098
0.445,0.0001511601
0.446,0.0001520491
0.447,0.0001530914
0.448,0.000154103
0.449,0.000154992
0.45,0.0001560036
0.451,0.0001569539
0.452,0.0001580268
0.453,0.0001590384
0.454,0.0001599887
0.455,0.000161031
0.456,0.0001621039
0.457,0.0001631155
0.458,0.0001641271
0.459,0.000165108
0.46,0.0001663342
0.461,0.0001673458
0.462,0.0001683575
0.463,0.0001695223
0.464,0.000170534
0.465,0.0001717295
0.466,0.0001727718
0.467,0.000173906
0.468,0.0001750402
0.469,0.0001761744
0.47,0.0001773393
0.471,0.0001784736
0.472,0.0001796384
0.473,0.0001808646
0.474,0.0001821215
0.475,0.0001831944
0.476,0.0001845432
0.477,0.0001857388
0.478,0.0001869036
0.479,0.0001882218
0.48,0.000189448
0.481,0.0001907355
0.482,0.000192023
0.483,0.0001932798
0.484,0.000194598
0.485,0.0001960081
0.486,0.0001972956
0.487,0.0001987671
0.488,0.0002001465
0.489,0.000201434
0.49,0.0002030281
0.491,0.0002044382
0.492,0.000205971
0.493,0.0002073811
0.494,0.0002089138
0.495,0.0002103239
0.496,0.0002118873
0.497,0.0002133281
0.498,0.0002150448
0.499,0.0002165469
0.5,0.0002182022
0.501,0.0002198576
0.502,0.0002213903
0.503,0.000223199
0.504,0.0002249156
0.505,0.0002266629
0.506,0.0002284716
0.507,0.0002301882
0.508,0.0002321502
0.509,0.0002339281
0.51,0.0002358287
0.511,0.0002377906
0.512,0.0002397832
0.513,0.0002418984
0.514,0.0002439216
0.515,0.0002460368
0.516,0.0002483972
0.517,0.0002503591
0.518,0.0002526276
0.519,0.0002550493
0.52,0.0002572258
0.521,0.0002596169
0.522,0.0002622225
0.523,0.000264583
0.524,0.0002672806
0.525,0.0002699782
0.526,0.0002726452
0.527,0.0002755267
0.528,0.0002782857
0.529,0.0002811672
0.53,0.0002843247
0.531,0.0002873288
0.532,0.0002909155
0.533,0.0002973635
0.534,0.000300429
0.535,0.0003044141
0.536,0.0003077862
0.537,0.0003114647
0.538,0.0003157564
0.539,0.000319435
0.54,0.0003240332
0.541,0.0003283249
0.542,0.0003332296
0.543,0.000338441
0.544,0.0003430392
0.545,0.0003485571
0.546,0.000354688
0.547,0.0003602059
0.548,0.0003672565
0.549,0.0003740006
0.55,0.0003810512
0.551,0.0003890214
0.552,0.0003969917
0.553,0.0004058816
0.554,0.0004156911
0.555,0.0004251941
0.556,0.0004365364
0.557,0.0004484918
0.558,0.0004607537
0.559,0.0004745484
0.56,0.0004892627
0.561,0.0005052032
0.562,0.0005226765
0.563,0.0005413759
0.564,0.0005622212
0.565,0.0005842927
0.566,0.0006082035
0.567,0.0006351797
0.568,0.0006627691
0.569,0.0006943435
0.57,0.0007283704
0.571,0.0007645431
0.572,0.000805314
0.573,0.0008482307
0.574,0.0008951327
0.575,0.0009466327
0.576,0.001002118
0.577,0.001062201
0.578,0.001126883
0.579,0.001196163
0.58,0.0012728
0.581,0.001353422
0.582,0.001440482
0.583,0.001535205
0.584,0.001634527
0.585,0.001741819
0.586,0.001856468
0.587,0.001977555
0.588,0.002107838
0.589,0.002243945
0.59,0.002388636
0.591,0.002542217
0.592,0.002702235
0.593,0.002872676
0.594,0.003049554
0.595,0.00326179
0.596,0.003457981
0.597,0.003654172
0.598,0.00386569
0.599,0.00408334
0.6,0.004304054
0.601,0.004540097
0.602,0.00478227
0.603,0.005024442
0.604,0.005278877
0.605,0.005539444
0.606,0.005803075
0.607,0.006078968
0.608,0.006357928
0.609,0.006639952
0.61,0.006934239
0.611,0.007228524
0.612,0.007528942
0.613,0.00783549
0.614,0.008148169
0.615,0.008463915
0.616,0.008782724
0.617,0.009110731
0.618,0.009438737
0.619,0.009769809
0.62,0.01010701
0.621,0.01044728
0.622,0.01079061
0.623,0.01114008
0.624,0.01148341
0.625,0.01183901
0.626,0.01219461
0.627,0.01255327
0.628,0.01291499
0.629,0.01327672
0.63,0.01364458
0.631,0.01401244
0.632,0.01438029
0.633,0.01475735
0.634,0.01512521
0.635,0.01550226
0.636,0.01588238
0.637,0.0162533
0.638,0.01663342
0.639,0.01701354
0.64,0.01738753
0.641,0.01776765
0.642,0.01815084
0.643,0.01853402
0.644,0.01891721
0.645,0.01929733
0.646,0.01968664
0.647,0.02006983
0.648,0.02045915
0.649,0.0208454
0.65,0.02123165
0.651,0.02163016
0.652,0.02201948
0.653,0.02241186
0.654,0.02281651
0.655,0.02320888
0.656,0.02360433
0.657,0.02401204
0.658,0.02440442
0.659,0.02480294
0.66,0.02521984
0.661,0.02561529
0.662,0.02601687
0.663,0.02643071
0.664,0.02683842
0.665,0.02723693
0.666,0.0276569
0.667,0.02806461
0.668,0.02847232
0.669,0.02888616
0.67,0.02930306
0.671,0.02970771
0.672,0.03012155
0.673,0.03129975
0.674,0.03169826
0.675,0.03212743
0.676,0.03255659
0.677,0.03295511
0.678,0.03338427
0.679,0.03381344
0.68,0.03424261
0.681,0.03464112
0.682,0.03510094
0.683,0.03549946
0.684,0.03592863
0.685,0.03635779
0.686,0.03678696
0.687,0.03721613
0.688,0.0376453
0.689,0.03807446
0.69,0.03850363
0.691,0.03896345
0.692,0.03939262
0.693,0.03979113
0.694,0.04025095
0.695,0.04068012
0.696,0.04107863
0.697,0.04153846
0.698,0.04196763
0.699,0.0423968
0.7,0.04255007
0.6990001,0.04218221
0.6980001,0.0417837
0.6970001,0.04141584
0.6960001,0.04101732
0.6950001,0.04064947
0.6940001,0.04025095
0.6930001,0.0398831
0.6920001,0.03948459
0.6910001,0.03911673
0.6900001,0.03871821
0.6890001,0.03835035
0.6880001,0.03795184
0.6870001,0.03755333
0.6860001,0.03718547
0.6850001,0.03678696
0.6840001,0.0364191
0.6830001,0.03602059
0.6820001,0.03562208
0.6810001,0.03525422
0.6800001,0.0348557
0.6790001,0.03445719
0.6780001,0.03408933
0.6770001,0.03369082
0.6760001,0.03332296
0.6750001,0.03295511
0.6740001,0.03255659
0.6730001,0.03218874
0.6720001,0.03179022
0.6710001,0.03139171
0.6700001,0.03102385
0.6690001,0.03065599
0.6680001,0.03025748
0.6670001,0.02988962
0.6660001,0.02949111
0.6650001,0.02912325
0.6640001,0.02872474
0.6630001,0.02835688
0.6620001,0.02798902
0.6610001,0.02762116
0.6600001,0.02725331
0.6590001,0.0268548
0.6580001,0.02648694
0.6570001,0.02611908
0.6560001,0.02575122
0.6550001,0.02538336
0.6540001,0.02501551
0.6530001,0.02464765
0.6520001,0.02427979
0.6510001,0.02391193
0.6500001,0.02354407
0.6490001,0.02317622
0.6480001,0.02280836
0.6470001,0.0224405
0.6460001,0.0221033
0.6450001,0.02173544
0.6440001,0.02136758
0.6430001,0.02103038
0.6420001,0.02066252
0.6410001,0.02029466
0.6400001,0.01995746
0.6390001,0.0195896
0.6380001,0.0192524
0.6370001,0.0189152
0.6360001,0.01857799
0.6350001,0.01824079
0.6340001,0.01787293
0.6330001,0.01753573
0.6320001,0.01719853
0.6310001,0.01686132
0.6300001,0.01652412
0.6290001,0.01618692
0.6280001,0.01584971
0.6270001,0.01554316
0.6260001,0.01520596
0.6250001,0.01486876
0.6240001,0.01456221
0.6230001,0.01422501
0.6220001,0.01391846
0.6210001,0.01358126
0.6200001,0.01327471
0.6190001,0.0124797
0.6180001,0.01217621
0.6170001,0.01187273
0.6160001,0.01157231
0.6150001,0.01126883
0.6140001,0.01097454
0.6130001,0.01068332
0.6120001,0.0103921
0.6110001,0.01010701
0.6100001,0.009821923
0.6090001,0.009539898
0.6080001,0.009264005
0.6070001,0.008988111
0.6060001,0.008721415
0.6050001,0.008451653
0.6040001,0.00818802
0.6030001,0.00793052
0.6020001,0.007669954
0.6010001,0.007415519
0.6000001,0.007167215
0.5990001,0.00691891
0.5980001,0.006679803
0.5970001,0.006440695
0.5960001,0.006207719
0.5950001,0.005974742
0.5940001,0.005747896
0.5930001,0.005527182
0.5920001,0.005309533
0.5910001,0.005098014
0.5900001,0.004892627
0.5890001,0.004690305
0.5880001,0.004487983
0.5870001,0.004294858
0.5860001,0.004104798
0.5850001,0.003920869
0.5840001,0.003740005
0.5830001,0.003565273
0.5820001,0.003396671
0.5810001,0.003231135
0.5800001,0.00307173
0.5790001,0.002915391
0.5780001,0.002765182
0.5770001,0.002621104
0.5760001,0.002483158
0.5750001,0.002348276
0.5740001,0.002216461
0.5730001,0.002093841
0.5720001,0.001974287
0.5710001,0.001860865
0.5700001,0.001753573
0.5690001,0.001646281
0.5680001,0.001548185
0.5670001,0.001453156
0.5660001,0.001361191
0.5650001,0.001275357
0.5640001,0.001163362
0.5630001,0.001086725
0.5620001,0.001014073
0.5610001,0.0009444869
0.5600001,0.0008801118
0.5590001,0.0008184955
0.5580001,0.000761171
0.5570001,0.000706912
0.5560001,0.000656025
0.5550001,0.0006088165
0.5540001,0.000564367
0.5530001,0.000522983
0.5520001,0.0004852776
0.5510001,0.0004484918
0.5500001,0.000415078
0.5490001,0.0003844232
0.5480001,0.0003549946
0.5470001,0.000328938
0.5460001,0.0003041076
0.5450001,0.0002808099
0.5440001,0.0002605777
0.5430001,0.0002406521
0.5420001,0.0002222592
0.5410001,0.0002060121
0.5400001,0.0001906847
0.5390001,0.00017689
0.5380001,0.0001643216
0.5370001,0.0001520596
0.5360001,0.000141637
0.5350001,0.0001315209
0.5340001,0.0001223244
0.5330001,0.0001105731
0.5320001,0.0001030014
0.5310001,9.625732E-05
0.5300001,8.985046E-05
0.5290001,8.381146E-05
0.5280001,7.893734E-05
0.5270001,7.38793E-05
0.5260001,6.949566E-05
0.5250001,6.557184E-05
0.5240001,6.164802E-05
0.5230001,5.845992E-05
0.5220001,5.560902E-05
0.5210001,5.266616E-05
0.5200001,5.042835E-05
0.5190001,4.800662E-05
0.5180001,4.589144E-05
0.5170001,4.420543E-05
0.5160001,4.239679E-05
0.5150001,4.083339E-05
0.5140001,3.96072E-05
0.5130001,3.825839E-05
0.5120001,3.687892E-05
0.5110001,3.595928E-05
0.5100001,3.503963E-05
0.5090001,3.433457E-05
0.5080001,3.350689E-05
0.5070001,3.286314E-05
0.5060001,3.215808E-05
0.5050001,3.163695E-05
0.5040001,3.129974E-05
0.5030001,3.053337E-05
0.5020001,3.025748E-05
0.5010001,2.992028E-05
0.5000001,2.927653E-05
0.4990001,2.912325E-05
0.4980001,2.887801E-05
0.4970001,2.84795E-05
0.4960001,2.841819E-05
0.4950001,2.801968E-05
0.4940001,2.78051E-05
0.4930001,2.762116E-05
0.4920001,2.737593E-05
0.4910001,2.734527E-05
0.4900001,2.713069E-05
0.4890001,2.688545E-05
0.4880001,2.685479E-05
0.4870001,2.660956E-05
0.4860001,2.651759E-05
0.4850001,2.660956E-05
0.4840001,2.636432E-05
0.4830001,2.621104E-05
0.4820001,2.62417E-05
0.4810001,2.605777E-05
0.4800001,2.602712E-05
0.4790001,2.590449E-05
0.4780001,2.575122E-05
0.4770001,2.572057E-05
0.4760001,2.568991E-05
0.4750001,2.556729E-05
0.4740001,2.547533E-05
0.4730001,2.541402E-05
0.4720001,2.535271E-05
0.4710001,2.516878E-05
0.4700001,2.504616E-05
0.4690001,2.49542E-05
0.4680001,2.473961E-05
0.4670001,2.464765E-05
0.4660001,2.449437E-05
0.4650001,2.424914E-05
0.4640001,2.421848E-05
0.4630001,2.403455E-05
0.4620001,2.381997E-05
0.4610001,2.369735E-05
0.4600001,2.342145E-05
0.4590001,2.320687E-05
0.4580001,2.308425E-05
0.4570001,2.290032E-05
0.4560001,2.271639E-05
0.4550001,2.250181E-05
0.4540001,2.225657E-05
0.4530001,2.204199E-05
0.4520001,2.176609E-05
0.4510001,2.158217E-05
0.4500001,2.133693E-05
0.4490001,2.109169E-05
0.4480001,2.084645E-05
0.4470001,2.060121E-05
0.4460001,2.032532E-05
0.4450001,2.001877E-05
0.4440001,1.974287E-05
0.4430001,1.949764E-05
0.4420001,1.919109E-05
0.4410001,1.885389E-05
0.4400001,1.86393E-05
0.4390001,1.836341E-05
0.4380001,1.80262E-05
0.4370001,1.778097E-05
0.4360001,1.738245E-05
0.4350001,1.710656E-05
0.4340001,1.683067E-05
0.4330001,1.646281E-05
0.4320001,1.621757E-05
0.4310001,1.581906E-05
0.4300001,1.548186E-05
0.4290001,1.517531E-05
0.4280001,1.48381E-05
0.4270001,1.45009E-05
0.4260001,1.419435E-05
0.4250001,1.376518E-05
0.4240001,1.348929E-05
0.4230001,1.309078E-05
0.4220001,1.269227E-05
0.4210001,1.238572E-05
0.4200001,1.195655E-05
0.4190001,1.161935E-05
0.4180001,1.092243E-05
0.4170001,1.056377E-05
0.4160001,1.02143E-05
0.4150001,9.733024E-06
0.4140001,9.405017E-06
0.4130001,9.046355E-06
0.4120001,8.641712E-06
0.4110001,8.21561E-06
0.4100001,7.789508E-06
0.4090001,7.48296E-06
0.4080001,7.121233E-06
0.4070001,6.707393E-06
0.4060001,6.296618E-06
0.4050001,5.959414E-06
0.4040001,5.573164E-06
0.4030001,5.091883E-06
0.4020001,4.760811E-06
0.4010001,4.362299E-06
0.4000001,3.99444E-06
0.3990001,3.516225E-06
0.3980001,3.114647E-06
0.3970001,2.676283E-06
0.3960001,2.27777E-06
0.3950001,1.89152E-06
0.3940001,1.480745E-06
0.3930001,1.060774E-06
0.3920001,6.591955E-07
0.3910001,1.717838E-07
0.3900001,-2.175325E-07
0.3890001,-6.773549E-07
0.3880001,-1.152505E-06
0.3870001,-1.554083E-06
0.3860001,-1.937268E-06
0.3850001,-2.387894E-06
0.3840001,-2.807865E-06
0.3830001,-3.224771E-06
0.3820001,-3.669266E-06
0.3810001,-4.034058E-06
0.3800001,-4.52147E-06
0.3790001,-4.929179E-06
0.3780001,-5.367543E-06
0.3770001,-5.842693E-06
0.3760001,-6.207486E-06
0.3750001,-6.636653E-06
0.3740001,-7.056624E-06
0.3730001,-7.537905E-06
0.3720001,-7.933352E-06
0.3710001,-8.390109E-06
0.3700001,-8.81008E-06
0.3690001,-9.245378E-06
0.3680001,-9.650023E-06
0.3670001,-1.012517E-05
0.3660001,-1.053288E-05
0.3650001,-1.095898E-05
0.3640001,-1.139735E-05
0.3630001,-1.183878E-05
0.3620001,-1.223116E-05
0.3610001,-1.263274E-05
0.3600001,-1.300673E-05
0.3590001,-1.345429E-05
0.3580001,-1.38436E-05
0.3570001,-1.422985E-05
0.3560001,-1.473872E-05
0.3550001,-1.51495E-05
0.3540001,-1.557867E-05
0.3530001,-1.611819E-05
0.3520001,-1.65259E-05
0.3510001,-1.697653E-05
0.3500001,-1.748846E-05
0.3490001,-1.797281E-05
0.3480001,-1.84265E-05
0.3470001,-1.885873E-05
0.3460001,-1.923885E-05
0.3450001,-1.957299E-05
0.3440001,-1.999296E-05
0.3430001,-2.044358E-05
0.3420001,-2.090341E-05
0.3410001,-2.141228E-05
0.3400001,-2.186903E-05
0.3390001,-2.229514E-05
0.3380001,-2.272737E-05
0.3370001,-2.326077E-05
0.3360001,-2.369606E-05
0.3350001,-2.422639E-05
0.3340001,-2.466475E-05
0.3330001,-2.500809E-05
0.3320001,-2.543113E-05
0.3310001,-2.588788E-05
0.3300001,-2.608609E-05
0.3290001,-2.645395E-05
0.3280001,-2.679115E-05
0.3270001,-2.725097E-05
0.3260001,-2.771079E-05
0.3250001,-2.817062E-05
0.3240001,-2.86611E-05
0.3230001,-2.902895E-05
0.3220001,-2.945812E-05
0.3210001,-2.997925E-05
0.3200001,-3.046973E-05
0.3190001,-3.08989E-05
0.3180001,-3.135872E-05
0.3170001,-3.181854E-05
0.3160001,-3.227836E-05
0.3150001,-3.270753E-05
0.3140001,-3.322866E-05
0.3130001,-3.365783E-05
0.3120001,-3.402569E-05
0.3110001,-3.451617E-05
0.3100001,-3.488402E-05
0.3090001,-3.531319E-05
0.3080001,-3.574236E-05
0.3070001,-3.617152E-05
0.3060001,-3.653938E-05
0.3050001,-3.699921E-05
0.3040001,-3.742837E-05
0.3030001,-3.78882E-05
0.3020001,-3.834802E-05
0.3010001,-3.874653E-05
0.3000001,-3.929832E-05
0.2990001,-3.97888E-05
0.2980001,-4.018731E-05
0.2970001,-4.058582E-05
0.2960001,-4.089237E-05
0.2950001,-4.126023E-05
0.2940001,-4.181201E-05
0.2930001,-4.221053E-05
0.2920001,-4.267035E-05
0.2910001,-4.313017E-05
0.2900001,-4.352869E-05
0.2890001,-4.404982E-05
0.2880001,-4.447898E-05
0.2870001,-4.490815E-05
0.2860001,-4.524535E-05
0.2850001,-4.558256E-05
0.2840001,-4.607304E-05
0.2830001,-4.65022E-05
0.2820001,-4.687006E-05
0.2810001,-4.742185E-05
0.2800001,-4.788167E-05
0.2790001,-4.828018E-05
0.2780001,-4.874E-05
0.2770001,-4.907721E-05
0.2760001,-4.944507E-05
0.2750001,-4.990489E-05
0.2740001,-5.033405E-05
0.2730001,-5.079388E-05
0.2720001,-5.122304E-05
0.2710001,-5.168287E-05
0.2700001,-5.2204E-05
0.2690001,-5.257186E-05
0.2680001,-5.297037E-05
0.2670001,-5.336888E-05
0.2660001,-5.37674E-05
0.2650001,-5.419656E-05
0.2640001,-5.456442E-05
0.2630001,-5.499359E-05
0.2620001,-5.548407E-05
0.2610001,-5.588258E-05
0.2600001,-5.637306E-05
0.2590001,-5.686353E-05
0.2580001,-5.72927E-05
0.2570001,-5.769121E-05
0.2560001,-5.808972E-05
0.2550001,-5.851889E-05
0.2540001,-5.888675E-05
0.2530001,-5.922396E-05
0.2520001,-5.962246E-05
0.2510001,-6.002098E-05
0.2500001,-6.04808E-05
0.2490001,-6.094063E-05
0.2480001,-6.130848E-05
0.2470001,-6.1707E-05
0.2460001,-6.216682E-05
0.2450001,-6.259599E-05
0.2440001,-6.302515E-05
0.2430001,-6.354629E-05
0.2420001,-6.391414E-05
0.2410001,-6.431266E-05
0.2400001,-6.471117E-05
0.2390001,-6.514033E-05
0.2380001,-6.553885E-05
0.2370001,-6.590671E-05
0.2360001,-6.627457E-05
0.2350001,-6.664242E-05
0.2340001,-6.710224E-05
0.2330001,-6.753141E-05
0.2320001,-6.789927E-05
0.2310001,-6.832844E-05
0.2300001,-6.87576E-05
0.2290001,-6.918678E-05
0.2280001,-6.961594E-05
0.2270001,-7.004511E-05
0.2260001,-7.041297E-05
0.2250001,-7.087279E-05
0.2240001,-7.133261E-05
0.2230001,-7.176178E-05
0.2220001,-7.212964E-05
0.2210001,-7.252815E-05
0.2200001,-7.292666E-05
0.2190001,-7.329452E-05
0.2180001,-7.375435E-05
0.2170001,-7.418351E-05
0.2160001,-7.44594E-05
0.2150001,-7.482726E-05
0.2140001,-7.525643E-05
0.2130001,-7.559363E-05
0.2120001,-7.60228E-05
0.2110001,-7.645196E-05
0.2100001,-7.685048E-05
0.2090001,-7.724899E-05
0.2080001,-7.755554E-05
0.2070001,-7.801536E-05
0.2060001,-7.844453E-05
0.2050001,-7.884304E-05
0.2040001,-7.927221E-05
0.2030001,-7.967072E-05
0.2020001,-8.000793E-05
0.2010001,-8.04984E-05
0.2000001,-8.080495E-05
0.1990001,-8.120346E-05
0.1980001,-8.17246E-05
0.1970001,-8.209245E-05
0.1960001,-8.249097E-05
0.1950001,-8.279752E-05
0.1940001,-8.316537E-05
0.1930001,-8.347192E-05
0.1920001,-8.383978E-05
0.1910001,-8.420764E-05
0.1900001,-8.451418E-05
0.1890001,-8.503532E-05
0.1880001,-8.543384E-05
0.1870001,-8.574038E-05
0.1860001,-8.613889E-05
0.1850001,-8.659872E-05
0.1840001,-8.696657E-05
0.1830001,-8.739574E-05
0.1820001,-8.767164E-05
0.1810001,-8.797818E-05
0.1800001,-8.834604E-05
0.1790001,-8.865258E-05
0.1780001,-8.898979E-05
0.1770001,-8.941896E-05
0.1760001,-8.975616E-05
0.1750001,-9.009337E-05
0.1740001,-9.052253E-05
0.1730001,-9.082907E-05
0.1720001,-9.119694E-05
0.1710001,-9.165676E-05
0.1700001,-9.193265E-05
0.1690001,-9.230051E-05
0.1680001,-9.260706E-05
0.1670001,-9.291361E-05
0.1660001,-9.315884E-05
0.1650001,-9.358802E-05
0.1640001,-9.392522E-05
0.1630001,-9.420111E-05
0.1620001,-9.456897E-05
0.1610001,-9.493683E-05
0.1600001,-9.521272E-05
0.1590001,-9.561123E-05
0.1580001,-9.591779E-05
0.1570001,-9.625498E-05
0.1560001,-9.665349E-05
0.1550001,-9.683742E-05
0.1540001,-9.705201E-05
0.1530001,-9.745052E-05
0.1520001,-9.766511E-05
0.1510001,-9.803296E-05
0.1500001,-9.840082E-05
0.1490001,-9.867671E-05
0.1480001,-9.904457E-05
0.1470001,-9.938178E-05
0.1460001,-9.965767E-05
0.1450001,-9.990291E-05
0.1440001,-0.0001001788
0.1430001,-0.0001004547
0.1420001,-0.0001006693
0.1410001,-0.0001008839
0.1400001,-0.0001012517
0.1390001,-0.000101497
0.1380001,-0.0001017422
0.1370001,-0.0001021101
0.1360001,-0.0001023553
0.1350001,-0.0001026925
0.1340001,-0.0001029377
0.1330001,-0.0001032443
0.1320001,-0.0001035508
0.1310001,-0.0001037348
0.1300001,-0.000104072
0.1290001,-0.0001041946
0.1280001,-0.0001044398
0.1270001,-0.0001046544
0.1260001,-0.0001048077
0.1250001,-0.0001050836
0.1240001,-0.0001053901
0.1230001,-0.0001055741
0.1220001,-0.00010585
0.1210001,-0.0001060952
0.1200001,-0.0001062791
0.1190001,-0.000106555
0.1180001,-0.0001067389
0.1170001,-0.0001068616
0.1160001,-0.0001070455
0.1150001,-0.0001072294
0.1140001,-0.000107352
0.1130001,-0.0001075053
0.1120001,-0.0001076586
0.1110001,-0.0001078425
0.1100001,-0.0001079651
0.1090001,-0.0001081797
0.1080001,-0.0001083637
0.1070001,-0.000108425
0.1060001,-0.0001085476
0.1050001,-0.0001087315
0.1040001,-0.0001088541
0.1030001,-0.0001090994
0.1020001,-0.0001091607
0.1010001,-0.0001091913
0.1000001,-0.0001093753
0.0990001,-0.0001093753
0.09800009,-0.0001092833
0.09700009,-0.0001093753
0.0960001,-0.0001094366
0.0950001,-0.0001094672
0.09400009,-0.0001095592
0.0930001,-0.0001095285
0.0920001,-0.0001095285
0.0910001,-0.0001095898
0.09000009,-0.0001096205
0.0890001,-0.0001096205
0.0880001,-0.0001096205
0.08700009,-0.0001095285
0.08600009,-0.0001094059
0.0850001,-0.0001094059
0.0840001,-0.000109314
0.08300009,-0.00010913
0.08200009,-0.0001090994
0.0810001,-0.0001090074
0.0800001,-0.0001087622
0.07900009,-0.0001086702
0.0780001,-0.0001085476
0.0770001,-0.0001082104
0.07600009,-0.0001081491
0.07500009,-0.0001079345
0.0740001,-0.0001076279
0.0730001,-0.0001074133
0.07200009,-0.0001071988
0.07100009,-0.0001068616
0.0700001,-0.000106555
0.0690001,-0.0001061872
0.06800009,-0.0001057886
0.0670001,-0.0001055128
0.0660001,-0.0001051755
0.06500009,-0.0001047157
0.06400009,-0.0001042559
0.0630001,-0.0001038574
0.0620001,-0.0001033669
0.06100009,-0.0001029071
0.0600001,-0.0001024473
0.0590001,-0.0001018955
0.0580001,-0.000101405
0.0570001,-0.0001008532
0.05600009,-0.0001002401
0.0550001,-9.968832E-05
0.05400009,-9.910588E-05
0.0530001,-9.849279E-05
0.05200009,-9.775707E-05
0.0510001,-9.726659E-05
0.05000009,-9.656153E-05
0.0490001,-9.582582E-05
0.04800009,-9.521272E-05
0.0470001,-9.463028E-05
0.0460001,-9.392522E-05
0.04500009,-9.337343E-05
0.0440001,-9.28523E-05
0.04300009,-9.217789E-05
0.0420001,-9.168741E-05
0.04100009,-9.116629E-05
0.0400001,-9.061449E-05
0.03900009,-9.018533E-05
0.0380001,-8.97255E-05
0.03700009,-8.926568E-05
0.0360001,-8.892849E-05
0.0350001,-8.8438E-05
0.03400009,-8.800883E-05
0.0330001,-8.764098E-05
0.03200009,-8.730377E-05
0.03100009,-8.690526E-05
0.0300001,-8.64761E-05
0.0290001,-8.62002E-05
0.0280001,-8.577103E-05
0.0270001,-8.546449E-05
0.0260001,-8.518859E-05
0.0250001,-8.482073E-05
0.0240001,-8.445288E-05
0.0230001,-8.42996E-05
0.02200009,-8.399305E-05
0.02100009,-8.371716E-05
0.02000009,-8.350258E-05
0.0190001,-8.325734E-05
0.0180001,-8.30121E-05
0.0170001,-8.279752E-05
0.0160001,-8.264424E-05
0.0150001,-8.236835E-05
0.0140001,-8.224573E-05
0.0130001,-8.209245E-05
0.0120001,-8.187787E-05
0.01100009,-8.17246E-05
0.0100001,-8.154067E-05
0.009000096,-8.135674E-05
0.008000095,-8.11115E-05
0.007000095,-8.089692E-05
0.006000096,-8.068234E-05
0.005000095,-8.04984E-05
0.004000095,-8.037578E-05
0.003000095,-8.022251E-05
0.002000095,-8.006924E-05
0.001000095,-7.994661E-05
9.536743E-08,-7.783144E-05
0.0009999046,-7.657459E-05
0.001999905,-7.565494E-05
0.002999905,-7.488857E-05
0.003999905,-7.41222E-05
0.004999904,-7.341714E-05
0.005999905,-7.274273E-05
0.006999905,-7.209898E-05
0.007999904,-7.142458E-05
0.008999905,-7.087279E-05
0.009999905,-7.019839E-05
0.0109999,-6.961594E-05
0.0119999,-6.897219E-05
0.0129999,-6.832844E-05
0.0139999,-6.774599E-05
0.0149999,-6.707159E-05
0.0159999,-6.65198E-05
0.0169999,-6.590671E-05
0.0179999,-6.538557E-05
0.0189999,-6.48951E-05
0.0199999,-6.437397E-05
0.0209999,-6.388349E-05
0.0219999,-6.342367E-05
0.02299991,-6.290253E-05
0.02399991,-6.244271E-05
0.02499991,-6.195223E-05
0.02599991,-6.140045E-05
0.0269999,-6.084866E-05
0.0279999,-6.029687E-05
0.0289999,-5.983705E-05
0.0299999,-5.931592E-05
0.0309999,-5.88561E-05
0.0319999,-5.836562E-05
0.0329999,-5.793645E-05
0.0339999,-5.75686E-05
0.0349999,-5.710877E-05
0.03599991,-5.655699E-05
0.0369999,-5.612781E-05
0.03799991,-5.557603E-05
0.0389999,-5.505489E-05
0.03999991,-5.465639E-05
0.0409999,-5.416591E-05
0.04199991,-5.379805E-05
0.0429999,-5.333823E-05
0.0439999,-5.293972E-05
0.0449999,-5.251055E-05
0.0459999,-5.211203E-05
0.04699991,-5.165222E-05
0.0479999,-5.113108E-05
0.04899991,-5.064061E-05
0.0499999,-5.03034E-05
0.05099991,-4.981292E-05
0.0519999,-4.938375E-05
0.05299991,-4.90159E-05
0.0539999,-4.858673E-05
0.0549999,-4.809625E-05
0.0559999,-4.785102E-05
0.0569999,-4.748316E-05
0.05799991,-4.696202E-05
0.0589999,-4.662482E-05
0.05999991,-4.610369E-05
0.0609999,-4.573583E-05
0.06199991,-4.530666E-05
0.0629999,-4.478553E-05
0.06399991,-4.438702E-05
0.06499991,-4.404982E-05
0.0659999,-4.362065E-05
0.0669999,-4.322214E-05
0.06799991,-4.285428E-05
0.0689999,-4.242511E-05
0.0699999,-4.208791E-05
0.07099991,-4.16894E-05
0.07199991,-4.129088E-05
0.0729999,-4.095368E-05
0.0739999,-4.058582E-05
0.07499991,-4.021796E-05
0.07599991,-3.985011E-05
0.0769999,-3.945159E-05
0.0779999,-3.905308E-05
0.07899991,-3.865457E-05
0.0799999,-3.828671E-05
0.0809999,-3.78882E-05
0.08199991,-3.736707E-05
0.08299991,-3.709117E-05
0.0839999,-3.669266E-05
0.0849999,-3.63248E-05
0.08599991,-3.601825E-05
0.08699991,-3.56504E-05
0.0879999,-3.525188E-05
0.0889999,-3.497599E-05
0.08999991,-3.460813E-05
0.0909999,-3.427093E-05
0.0919999,-3.390307E-05
0.09299991,-3.359652E-05
0.09399991,-3.316735E-05
0.0949999,-3.27995E-05
0.0959999,-3.237033E-05
0.09699991,-3.203312E-05
0.09799991,-3.172658E-05
0.0989999,-3.145068E-05
0.0999999,-3.105217E-05
0.1009999,-3.080693E-05
0.1019999,-3.043907E-05
0.1029999,-3.013253E-05
0.1039999,-2.973401E-05
0.1049999,-2.939681E-05
0.1059999,-2.89983E-05
0.1069999,-2.87224E-05
0.1079999,-2.835455E-05
0.1089999,-2.801734E-05
0.1099999,-2.774145E-05
0.1109999,-2.740424E-05
0.1119999,-2.712835E-05
0.1129999,-2.685246E-05
0.1139999,-2.654591E-05
0.1149999,-2.623936E-05
0.1159999,-2.590216E-05
0.1169999,-2.55343E-05
0.1179999,-2.528906E-05
0.1189999,-2.48599E-05
0.1199999,-2.452269E-05
0.1209999,-2.418549E-05
0.1219999,-2.387894E-05
0.1229999,-2.357239E-05
0.1239999,-2.32965E-05
0.1249999,-2.298995E-05
0.1259999,-2.26834E-05
0.1269999,-2.243817E-05
0.1279999,-2.210096E-05
0.1289999,-2.182507E-05
0.1299999,-2.154917E-05
0.1309999,-2.130394E-05
0.1319999,-2.102804E-05
0.1329999,-2.072149E-05
0.1339999,-2.04456E-05
0.1349999,-2.01084E-05
0.1359999,-1.983251E-05
0.1369999,-1.946465E-05
0.1379999,-1.909679E-05
0.1389999,-1.882089E-05
0.1399999,-1.851435E-05
0.1409999,-1.82078E-05
0.1419999,-1.796256E-05
0.1429999,-1.768667E-05
0.1439999,-1.741077E-05
0.1449999,-1.710422E-05
0.1459999,-1.679768E-05
0.1469999,-1.661375E-05
0.1479999,-1.63072E-05
0.1489999,-1.603131E-05
0.1499999,-1.572476E-05
0.1509999,-1.551017E-05
0.1519999,-1.523428E-05
0.1529999,-1.492773E-05
0.1539999,-1.462118E-05
0.1549999,-1.44066E-05
0.1559999,-1.410005E-05
0.1569999,-1.416548E-05
0.1579999,-1.387732E-05
0.1589999,-1.356158E-05
0.1599999,-1.339911E-05
0.1609999,-1.306804E-05
0.1619999,-1.278601E-05
0.1629999,-1.248253E-05
0.1639999,-1.216372E-05
0.1649999,-1.194914E-05
0.1659999,-1.167018E-05
0.1669999,-1.134217E-05
0.1679999,-1.11E-05
0.1689999,-1.085476E-05
0.1699999,-1.051755E-05
0.1709999,-1.024473E-05
0.1719999,-9.935113E-06
0.1729999,-9.63776E-06
0.1739999,-9.367998E-06
0.1749999,-9.039992E-06
0.1759999,-8.721181E-06
0.1769999,-8.469811E-06
0.1779999,-8.157132E-06
0.1789999,-7.896566E-06
0.1799999,-7.599215E-06
0.1809999,-7.301863E-06
0.1819999,-7.029035E-06
0.1829999,-6.765403E-06
0.1839999,-6.471117E-06
0.1849999,-6.133914E-06
0.1859999,-5.879479E-06
0.1869999,-5.621978E-06
0.1879999,-5.336888E-06
0.1889999,-5.070191E-06
0.1899999,-4.769774E-06
0.1909999,-4.503077E-06
0.1919999,-4.239445E-06
0.1929999,-4.000338E-06
0.1939999,-3.702986E-06
0.1949999,-3.427093E-06
0.1959999,-3.129741E-06
0.1969999,-2.810931E-06
0.1979999,-2.528906E-06
0.1989999,-2.203965E-06
0.1999999,-1.897417E-06
0.2009999,-1.593934E-06
0.2019999,-1.198487E-06
0.2029999,-8.888732E-07
0.2039999,-6.436346E-07
0.2049999,-3.248244E-07
0.2059999,-5.506195E-08
0.2069999,3.097305E-07
0.2079999,5.702965E-07
0.2089999,8.33928E-07
0.2099999,1.079167E-06
0.2109999,1.345864E-06
0.2119999,1.661608E-06
0.2129999,2.060121E-06
0.2139999,2.354407E-06
0.2149999,2.7192E-06
0.2159999,3.07173E-06
0.2169999,3.369082E-06
0.2179999,3.718547E-06
0.2189999,3.963786E-06
0.2199999,4.316316E-06
0.2209999,4.567686E-06
0.2219999,4.953937E-06
0.2229999,5.251288E-06
0.2239999,5.551706E-06
0.2249999,5.809206E-06
0.2259999,6.183195E-06
0.2269999,6.459088E-06
0.2279999,6.805488E-06
0.2289999,7.115102E-06
0.2299999,7.378733E-06
0.2309999,7.691412E-06
0.2319999,8.102187E-06
0.2329999,8.40567E-06
0.2339999,8.7582E-06
0.2349999,9.040225E-06
0.2359999,9.359034E-06
0.2369999,9.696238E-06
0.2379999,1.00549E-05
0.2389999,1.038291E-05
0.2399999,1.07385E-05
0.2409999,1.105731E-05
0.2419999,1.142517E-05
0.2429999,1.179609E-05
0.2439999,1.218234E-05
0.2449999,1.245824E-05
0.2459999,1.285062E-05
0.2469999,1.322461E-05
0.2479999,1.354035E-05
0.2489999,1.389288E-05
0.2499999,1.42914E-05
0.2509999,1.458568E-05
0.2519999,1.504244E-05
0.2529999,1.53919E-05
0.2539999,1.567086E-05
0.2549999,1.608164E-05
0.2559999,1.649548E-05
0.2569999,1.681429E-05
0.2579999,1.716682E-05
0.2589999,1.752855E-05
0.2599999,1.783203E-05
0.2609999,1.821828E-05
0.2619999,1.852176E-05
0.2629999,1.888349E-05
0.2639999,1.926361E-05
0.2649999,1.967132E-05
0.2659999,2.010355E-05
0.2669999,2.048061E-05
0.2679999,2.088218E-05
0.2689999,2.128989E-05
0.2699999,2.163323E-05
0.2709999,2.206853E-05
0.2719999,2.241799E-05
0.2729999,2.28349E-05
0.2739999,2.323034E-05
0.2749999,2.353689E-05
0.2759999,2.393234E-05
0.2769999,2.461699E-05
0.2779999,2.501551E-05
0.2789999,2.544467E-05
0.2799999,2.575122E-05
0.2809999,2.611908E-05
0.2819999,2.65789E-05
0.2829999,2.703872E-05
0.2839999,2.746789E-05
0.2849999,2.789706E-05
0.2859999,2.826491E-05
0.2869999,2.869408E-05
0.2879999,2.912325E-05
0.2889999,2.955242E-05
0.2899999,3.001224E-05
0.2909999,3.03801E-05
0.2919999,3.080927E-05
0.2929999,3.123844E-05
0.2939999,3.163695E-05
0.2949999,3.212742E-05
0.2959999,3.249528E-05
0.2969999,3.289379E-05
0.2979999,3.335362E-05
0.2989999,3.372148E-05
0.2999999,3.421195E-05
0.3009999,3.464112E-05
0.3019999,3.503963E-05
0.3029999,3.549946E-05
0.3039999,3.592862E-05
0.3049999,3.635779E-05
0.3059999,3.678696E-05
0.3069999,3.724678E-05
0.3079999,3.776791E-05
0.3089999,3.813577E-05
0.3099999,3.859559E-05
0.3109999,3.905542E-05
0.3119999,3.948458E-05
0.3129999,3.99444E-05
0.3139999,4.040423E-05
0.3149999,4.080274E-05
0.3159999,4.132387E-05
0.3169999,4.172239E-05
0.3179999,4.215155E-05
0.3189999,4.267268E-05
0.3199999,4.310185E-05
0.3209999,4.356167E-05
0.3219999,4.402149E-05
0.3229999,4.438936E-05
0.3239999,4.487983E-05
0.3249999,4.5309E-05
0.3259999,4.579948E-05
0.3269999,4.622864E-05
0.3279999,4.668847E-05
0.3289999,4.717894E-05
0.3299999,4.763876E-05
0.3309999,4.800662E-05
0.3319999,4.855841E-05
0.3329999,4.901823E-05
0.3339999,4.947805E-05
0.3349999,4.996853E-05
0.3359999,5.048966E-05
0.3369999,5.094949E-05
0.3379999,5.143996E-05
0.3389999,5.186913E-05
0.3399999,5.242092E-05
0.3409999,5.285009E-05
0.3419999,5.334057E-05
0.3429999,5.38617E-05
0.3439999,5.429086E-05
0.3449999,5.481199E-05
0.3459999,5.530247E-05
0.3469999,5.579295E-05
0.3479999,5.634474E-05
0.3489999,5.67739E-05
0.3499999,5.729503E-05
0.3509999,5.781617E-05
0.3519999,5.827599E-05
0.3529999,5.876647E-05
0.3539999,5.92876E-05
0.3549999,5.974742E-05
0.3559999,6.032986E-05
0.3569999,6.085099E-05
0.3579999,6.131082E-05
0.3589999,6.189326E-05
0.3599999,6.241439E-05
0.3609999,6.284356E-05
0.3619999,6.339535E-05
0.3629999,6.394713E-05
0.3639999,6.446827E-05
0.3649999,6.492809E-05
0.3659999,6.541856E-05
0.3669999,6.597035E-05
0.3679999,6.649148E-05
0.3689999,6.701262E-05
0.3699999,6.750309E-05
0.3709999,6.805488E-05
0.3719999,6.854536E-05
0.3729999,6.906649E-05
0.3739999,6.961828E-05
0.3749999,7.013941E-05
0.3759999,7.062989E-05
0.3769999,7.115101E-05
0.3779999,7.170281E-05
0.3789999,7.225459E-05
0.3799999,7.277572E-05
0.3809999,7.329685E-05
0.3819999,7.378733E-05
0.3829999,7.433912E-05
0.3839999,7.48909E-05
0.3849999,7.538139E-05
0.3859999,7.599447E-05
0.3869999,7.651561E-05
0.3879999,7.703674E-05
0.3889999,7.761919E-05
0.3899999,7.810966E-05
0.3909999,7.869211E-05
0.3919999,7.927455E-05
0.3929999,7.976502E-05
0.3939999,8.034746E-05
0.3949999,8.089925E-05
0.3959999,8.145103E-05
0.3969999,8.197217E-05
0.3979999,8.264658E-05
0.3989999,8.313705E-05
0.3999999,8.368884E-05
0.4009999,8.433259E-05
0.4019999,8.488438E-05
0.4029999,8.543616E-05
0.4039999,8.607992E-05
0.4049999,8.660105E-05
0.4059999,8.721415E-05
0.4069999,8.779659E-05
0.4079999,8.837903E-05
0.4089999,8.896147E-05
0.4099999,8.951325E-05
0.4109999,9.009569E-05
0.4119999,9.067814E-05
0.4129999,9.129124E-05
0.4139999,9.184302E-05
0.4149999,9.245612E-05
0.4159999,9.297725E-05
0.4169999,9.359034E-05
0.4179999,9.417279E-05
0.4189999,9.475523E-05
0.4199999,9.539899E-05
0.4209999,9.595077E-05
0.4219999,9.653321E-05
0.4229999,9.720762E-05
0.4239999,9.76981E-05
0.4249999,9.834184E-05
0.4259999,9.89856E-05
0.4269999,9.962935E-05
0.4279999,0.0001001811
0.4289999,0.0001007636
0.4299999,0.0001013767
0.4309999,0.0001019898
0.4319999,0.0001026335
0.4329999,0.000103216
0.4339999,0.0001038291
0.4349999,0.0001044728
0.4359999,0.0001051472
0.4369999,0.0001057603
0.4379999,0.0001064041
0.4389999,0.0001069865
0.4399999,0.0001076303
0.4409999,0.0001083047
0.4419999,0.0001089178
0.4429999,0.0001095002
0.4439999,0.0001102053
0.4449999,0.0001108797
0.4459999,0.0001115234
0.4469999,0.0001122898
0.4479999,0.0001129335
0.4489999,0.0001136079
0.4499999,0.000114221
0.4509999,0.0001149568
0.4519999,0.0001156312
0.4529999,0.0001162443
0.4539999,0.0001170719
0.4549999,0.0001177463
0.4559999,0.0001183594
0.4569999,0.0001191565
0.4579999,0.0001198002
0.4589999,0.000120444
0.4599999,0.0001213023
0.4609999,0.0001220074
0.4619999,0.0001226818
0.4629999,0.0001234481
0.4639999,0.0001241225
0.4649999,0.000124797
0.4659999,0.0001256553
0.4669999,0.0001263297
0.4679999,0.0001270348
0.4689999,0.0001278931
0.4699999,0.0001285982
0.4709999,0.0001293952
0.4719999,0.0001302535
0.4729999,0.0001309892
0.4739999,0.0001318169
0.4749999,0.0001326753
0.4759999,0.0001335336
0.4769999,0.0001343919
0.4779999,0.0001351276
0.4789999,0.0001360473
0.4799999,0.000136875
0.4809999,0.0001377333
0.4819999,0.0001386529
0.4829999,0.0001395419
0.4839999,0.0001404616
0.4849999,0.0001412893
0.4859999,0.0001422089
0.4869999,0.0001432205
0.4879999,0.0001440482
0.4889999,0.0001450904
0.4899999,0.0001461327
0.4909999,0.0001468991
0.4919999,0.000148064
0.4929999,0.0001489836
0.4939999,0.0001498419
0.4949999,0.0001510375
0.4959999,0.0001518958
0.4969999,0.0001529074
0.4979999,0.0001540417
0.4989999,0.0001551146
0.4999999,0.0001562488
0.5009999,0.000157475
0.5019999,0.0001584866
0.5029999,0.0001597128
0.5039999,0.0001608164
0.5049999,0.0001620119
0.5059999,0.0001632688
0.5069999,0.0001644336
0.5079999,0.0001658131
0.5089999,0.000166978
0.5099999,0.0001683881
0.5109999,0.0001697676
0.5119999,0.000171239
0.5129999,0.0001725572
0.5139999,0.0001739673
0.5149999,0.0001754081
0.5159999,0.0001770328
0.5169999,0.0001785349
0.5179999,0.000180037
0.5189999,0.0001817536
0.5199999,0.000183317
0.5209999,0.0001849417
0.5219999,0.0001866891
0.5229999,0.0001883751
0.5239999,0.0001902757
0.5249999,0.000192115
0.5259999,0.0001938929
0.5269999,0.0001960081
0.5279999,0.0001978781
0.5289999,0.0001999626
0.5299999,0.0002021697
0.5309999,0.000204193
0.5319999,0.000206676
0.5329999,0.0002088832
0.5339999,0.0002112129
0.5349999,0.0002138492
0.5359999,0.0002163629
0.5369999,0.0002189686
0.5379999,0.0002218808
0.5389999,0.0002246704
0.5399999,0.0002279198
0.5409999,0.000230832
0.5419999,0.0002340508
0.5429999,0.0002378213
0.5439999,0.000241224
0.5449999,0.0002450252
0.5459999,0.0002491943
0.5469999,0.0002529954
0.5479999,0.0002575937
0.5489999,0.0002621613
0.5499999,0.0002669434
0.5509999,0.0002722773
0.5519999,0.0002778258
0.5529999,0.000283497
0.5539999,0.0002897506
0.5549999,0.0002995093
0.5559999,0.0003062534
0.5569999,0.0003136106
0.5579999,0.0003215808
0.5589999,0.0003298576
0.5599999,0.0003387475
0.5609999,0.0003485571
0.5619999,0.0003589797
0.5629999,0.000370322
0.5639999,0.0003825839
0.5649999,0.0003951524
0.5659999,0.0004089471
0.5669999,0.0004242745
0.5679999,0.0004399084
0.5689999,0.0004576883
0.5699999,0.0004766943
0.5709999,0.0004960068
0.5719999,0.0005183848
0.5729999,0.0005416825
0.5739999,0.0005665129
0.5749999,0.0005944088
0.5759999,0.0006235309
0.5769999,0.0006551053
0.5779999,0.0006891322
0.5789999,0.0007253049
0.5799999,0.0007648497
0.5809999,0.0008065402
0.5819999,0.0008516028
0.5829999,0.0009003439
0.5839999,0.0009515375
0.5849999,0.001007023
0.5859999,0.001066493
0.5869999,0.001128416
0.5879999,0.001196776
0.5889999,0.001267282
0.5899999,0.001343
0.5909999,0.001424541
0.5919999,0.001509149
0.5929999,0.001599887
0.5939999,0.001695224
0.5949999,0.001796078
0.5959999,0.00190337
0.5969999,0.002014953
0.5979999,0.002132055
0.5989999,0.00225682
0.5999999,0.002384651
0.6009999,0.002521985
0.6019999,0.002664223
0.6029999,0.002811059
0.6039999,0.002967092
0.6049999,0.003154498
0.6059999,0.003316969
0.6069999,0.003491701
0.6079999,0.003669499
0.6089999,0.003856494
0.6099999,0.004049619
0.6109999,0.00424581
0.6119999,0.004451197
0.6129999,0.004662716
0.6139999,0.004880365
0.6149999,0.005104146
0.6159999,0.005334056
0.6169999,0.005570099
0.6179999,0.005809206
0.6189999,0.006054445
0.6199999,0.006311945
0.6209999,0.00656638
0.6219999,0.006830012
0.6229999,0.007099774
0.6239999,0.007372602
0.6249999,0.007651561
0.6259999,0.007933586
0.6269999,0.008221741
0.6279999,0.008519093
0.6289999,0.008813379
0.6299999,0.009116862
0.6309999,0.009426476
0.6319999,0.009733024
0.6329999,0.01005183
0.6339999,0.01037064
0.6349999,0.01069252
0.6359999,0.01102359
0.6369999,0.0113516
0.6379999,0.01168267
0.6389999,0.01202294
0.6399999,0.01236321
0.6409999,0.01270654
0.6419999,0.01305601
0.6429999,0.01340547
0.6439999,0.013758
0.6449999,0.0141136
0.6459999,0.01447533
0.6469999,0.01483705
0.6479999,0.01519878
0.6489999,0.0155697
0.6499999,0.01593756
0.6509999,0.01630542
0.6519999,0.01668554
0.6529999,0.01705646
0.6539999,0.01743351
0.6549999,0.01781364
0.6559999,0.01819376
0.6569999,0.01857387
0.6579999,0.01896319
0.6589999,0.01934638
0.6599999,0.01973876
0.6609999,0.02012501
0.6619999,0.02051433
0.6629999,0.02090364
0.6639999,0.02129909
0.6649999,0.02169147
0.6659999,0.02208998
0.6669999,0.02249156
0.6679999,0.02289008
0.6689999,0.02328552
0.6699999,0.02369323
0.6709999,0.02408868
0.6719999,0.02448719
0.6729999,0.02489797
0.6739999,0.02530261
0.6749999,0.02570419
0.6759999,0.02612416
0.6769999,0.02652574
0.6779999,0.02693345
0.6789999,0.02735035
0.6799999,0.02776113
0.6809999,0.0281719
0.6819999,0.02858268
0.6829999,0.02899958
0.6839999,0.02940729
0.6849999,0.02982726
0.6859999,0.0302503
0.6869999,0.03142237
0.6879999,0.03182088
0.6889999,0.03225004
0.6899999,0.03264856
0.6909999,0.03307773
0.6919999,0.03350689
0.6929999,0.03393606
0.6939999,0.03436523
0.6949999,0.0347944
0.6959999,0.03522356
0.6969999,0.03565273
0.6979999,0.0360819
0.6989999,0.03651107
0.6999999,0.03666434
0.6990002,0.03632713
0.6980002,0.03595928
0.6970002,0.03559142
0.6960002,0.03525422
0.6950002,0.03488636
0.6940002,0.0345185
0.6930002,0.0341813
0.6920002,0.03381344
0.6910002,0.03344558
0.6900002,0.03310838
0.6890002,0.03274052
0.6880002,0.03237266
0.6870002,0.03203546
0.6860002,0.0316676
0.6850002,0.03129975
0.6840002,0.03093189
0.6830002,0.03056403
0.6820002,0.03019617
0.6810002,0.02982831
0.6800002,0.02949111
0.6790002,0.02912325
0.6780002,0.02875539
0.6770002,0.02841819
0.6760002,0.02805033
0.6750002,0.02768247
0.6740002,0.02734527
0.6730002,0.02697741
0.6720002,0.02660956
0.6710002,0.02627235
0.6700002,0.0259045
0.6690002,0.02556729
0.6680002,0.02519943
0.6670002,0.02486223
0.6660002,0.02449437
0.6650002,0.02415717
0.6640002,0.02381997
0.6630002,0.02345211
0.6620002,0.02311491
0.6610002,0.0227777
0.6600002,0.02240985
0.6590002,0.02207264
0.6580002,0.02170478
0.6570002,0.02136758
0.6560002,0.02103038
0.6550002,0.02069318
0.6540002,0.02035597
0.6530002,0.02001877
0.6520002,0.01968157
0.6510002,0.01934436
0.6500002,0.01900716
0.6490002,0.01870061
0.6480002,0.01839406
0.6470002,0.01805686
0.6460002,0.01771966
0.6450002,0.01741311
0.6440002,0.01707591
0.6430002,0.01676936
0.6420002,0.01643215
0.6410002,0.01612561
0.6400002,0.01581906
0.6390002,0.01548185
0.6380002,0.01517531
0.6370002,0.01486876
0.6360002,0.01456221
0.6350002,0.01425566
0.6340002,0.01394911
0.6330002,0.01364256
0.6320002,0.01333602
0.6310002,0.01258086
0.6300002,0.0122927
0.6290002,0.01199841
0.6280002,0.01171639
0.6270002,0.01143437
0.6260002,0.01114928
0.6250002,0.01087645
0.6240002,0.01060055
0.6230002,0.01032466
0.6220002,0.0100549
0.6210002,0.009788202
0.6200002,0.009521506
0.6190002,0.009260939
0.6180002,0.009003439
0.6170002,0.008745939
0.6160002,0.008494569
0.6150002,0.008243199
0.6140002,0.007994896
0.6130002,0.007749657
0.6120002,0.007510548
0.6110002,0.007277572
0.6100002,0.00704153
0.6090002,0.006811619
0.6080002,0.006587839
0.6070002,0.006364059
0.6060002,0.00614641
0.6050002,0.005931825
0.6040002,0.005717242
0.6030002,0.00551492
0.6020002,0.005309533
0.6010002,0.005107211
0.6000002,0.004917151
0.5990002,0.004724025
0.5980002,0.004537031
0.5970002,0.004356168
0.5960002,0.004178369
0.5950002,0.004003637
0.5940002,0.00383197
0.5930002,0.003666434
0.5920002,0.003507029
0.5910002,0.003347624
0.5900002,0.003197415
0.5890002,0.003050272
0.5880002,0.002903129
0.5870002,0.002768247
0.5860002,0.002633366
0.5850002,0.002504616
0.5840002,0.002378931
0.5830002,0.002256312
0.5820002,0.002139824
0.5810002,0.002026401
0.5800002,0.001919109
0.5790002,0.001817948
0.5780002,0.001716787
0.5770002,0.001621757
0.5760002,0.001529793
0.5750002,0.001443959
0.5740002,0.001361191
0.5730002,0.001281488
0.5720002,0.001177157
0.5710002,0.001106651
0.5700002,0.001037678
0.5690002,0.0009729959
0.5680002,0.0009122993
0.5670002,0.0008534421
0.5660002,0.0007985699
0.5650002,0.0007473764
0.5640002,0.0006977156
0.5630002,0.0006520398
0.5620002,0.0006088165
0.5610002,0.0005680457
0.5600002,0.0005303402
0.5590002,0.000494474
0.5580002,0.0004607537
0.5570002,0.0004294858
0.5560002,0.0004000572
0.5550002,0.0003727744
0.5540002,0.0003476374
0.5530002,0.0003237267
0.5520002,0.0003016552
0.5510002,0.0002808099
0.5500002,0.0002618039
0.5490002,0.0002443306
0.5480002,0.0002274705
0.5470002,0.0002124496
0.5460002,0.0001980419
0.5450002,0.0001848603
0.5440002,0.0001732114
0.5430002,0.0001618692
0.5420002,0.0001514465
0.5410002,0.0001419435
0.5400002,0.0001327471
0.5390002,0.0001247768
0.5380002,0.0001138838
0.5370002,0.0001070785
0.5360002,0.0001008862
0.5350002,9.487785E-05
0.5340002,8.929867E-05
0.5330002,8.436324E-05
0.5320002,7.955044E-05
0.5310002,7.535073E-05
0.5300002,7.145757E-05
0.5290002,6.762571E-05
0.5280002,6.459088E-05
0.5270002,6.121886E-05
0.5260002,5.839861E-05
0.5250002,5.588491E-05
0.5240002,5.32486E-05
0.5230002,5.119473E-05
0.5220002,4.923281E-05
0.5210002,4.730156E-05
0.5200002,4.579948E-05
0.5190002,4.405215E-05
0.5180002,4.242745E-05
0.5170002,4.113995E-05
0.5160002,3.979113E-05
0.5150002,3.86569E-05
0.5140002,3.746136E-05
0.5130002,3.635779E-05
0.5120002,3.537684E-05
0.5110002,3.442654E-05
0.5100002,3.362951E-05
0.5090002,3.286314E-05
0.5080002,3.200481E-05
0.5070002,3.160629E-05
0.5060002,3.102385E-05
0.5050002,3.031879E-05
0.5040002,2.998159E-05
0.5030002,2.924587E-05
0.5020002,2.878605E-05
0.5010002,2.841819E-05
0.5000002,2.777444E-05
0.4990002,2.731462E-05
0.4980002,2.69161E-05
0.4970002,2.651759E-05
0.4960002,2.62417E-05
0.4950002,2.590449E-05
0.4940002,2.553664E-05
0.4930002,2.519943E-05
0.4920002,2.473961E-05
0.4910002,2.449437E-05
0.4900002,2.415717E-05
0.4890002,2.369735E-05
0.4880002,2.357473E-05
0.4870002,2.323752E-05
0.4860002,2.30536E-05
0.4850002,2.290032E-05
0.4840002,2.240985E-05
0.4830002,2.216461E-05
0.4820002,2.191937E-05
0.4810002,2.158217E-05
0.4800002,2.130627E-05
0.4790002,2.096907E-05
0.4780002,2.075448E-05
0.4770002,2.047859E-05
0.4760002,2.026401E-05
0.4750002,2.001877E-05
0.4740002,1.974287E-05
0.4730002,1.943633E-05
0.4720002,1.92524E-05
0.4710002,1.89152E-05
0.4700002,1.857799E-05
0.4690002,1.83021E-05
0.4680002,1.790359E-05
0.4670002,1.762769E-05
0.4660002,1.741311E-05
0.4650002,1.713721E-05
0.4640002,1.686132E-05
0.4630002,1.658543E-05
0.4620002,1.634019E-05
0.4610002,1.600299E-05
0.4600002,1.563513E-05
0.4590002,1.532858E-05
0.4580002,1.496072E-05
0.4570002,1.465417E-05
0.4560002,1.431697E-05
0.4550002,1.38878E-05
0.4540002,1.358126E-05
0.4530002,1.324405E-05
0.4520002,1.290685E-05
0.4510002,1.256965E-05
0.4500002,1.238572E-05
0.4490002,1.195655E-05
0.4480002,1.161935E-05
0.4470002,1.128214E-05
0.4460002,1.082232E-05
0.4450002,1.009475E-05
0.4440002,9.687042E-06
0.4430002,9.319184E-06
0.4420002,8.935998E-06
0.4410002,8.482307E-06
0.4400002,8.169628E-06
0.4390002,7.777246E-06
0.4380002,7.443108E-06
0.4370002,7.078316E-06
0.4360002,6.692065E-06
0.4350002,6.318076E-06
0.4340002,5.944087E-06
0.4330002,5.54864E-06
0.4320002,5.193044E-06
0.4310002,4.75468E-06
0.4300002,4.325513E-06
0.4290002,3.868756E-06
0.4280002,3.519291E-06
0.4270002,3.096254E-06
0.4260002,2.648693E-06
0.4250002,2.228722E-06
0.4240002,1.848603E-06
0.4230002,1.324405E-06
0.4220002,9.22827E-07
0.4210002,4.813975E-07
0.4200002,2.157511E-08
0.4190002,-3.830686E-07
0.4180002,-8.214326E-07
0.4170002,-1.339499E-06
0.4160002,-1.756405E-06
0.4150002,-2.17331E-06
0.4140002,-2.627002E-06
0.4130002,-3.02858E-06
0.4120002,-3.525188E-06
0.4110002,-3.911439E-06
0.4100002,-4.408047E-06
0.4090002,-4.864804E-06
0.4080002,-5.247989E-06
0.4070002,-5.717008E-06
0.4060002,-6.207486E-06
0.4050002,-6.642784E-06
0.4040002,-7.078082E-06
0.4030002,-7.522578E-06
0.4020002,-7.942548E-06
0.4010002,-8.331865E-06
0.4000002,-8.761032E-06
0.3990002,-9.208593E-06
0.3980002,-9.702136E-06
0.3970002,-1.009145E-05
0.3960002,-1.059113E-05
0.3950002,-1.102029E-05
0.3940002,-1.15261E-05
0.3930002,-1.197979E-05
0.3920002,-1.242735E-05
0.3910002,-1.291783E-05
0.3900002,-1.342976E-05
0.3890002,-1.380988E-05
0.3880002,-1.436167E-05
0.3870002,-1.480616E-05
0.3860002,-1.526292E-05
0.3850002,-1.576259E-05
0.3840002,-1.621935E-05
0.3830002,-1.669144E-05
0.3820002,-1.720337E-05
0.3810002,-1.764787E-05
0.3800002,-1.81782E-05
0.3790002,-1.866867E-05
0.3780002,-1.913463E-05
0.3770002,-1.961591E-05
0.3760002,-2.009412E-05
0.3750002,-2.055701E-05
0.3740002,-2.105055E-05
0.3730002,-2.15165E-05
0.3720002,-2.1961E-05
0.3710002,-2.242695E-05
0.3700002,-2.289597E-05
0.3690002,-2.335579E-05
0.3680002,-2.383707E-05
0.3670002,-2.428464E-05
0.3660002,-2.476285E-05
0.3650002,-2.521961E-05
0.3640002,-2.567023E-05
0.3630002,-2.590216E-05
0.3620002,-2.636198E-05
0.3610002,-2.688312E-05
0.3600002,-2.728163E-05
0.3590002,-2.783341E-05
0.3580002,-2.829324E-05
0.3570002,-2.878371E-05
0.3560002,-2.930485E-05
0.3550002,-2.976467E-05
0.3540002,-3.022449E-05
0.3530002,-3.074562E-05
0.3520002,-3.120544E-05
0.3510002,-3.175723E-05
0.3500002,-3.221706E-05
0.3490002,-3.264622E-05
0.3480002,-3.316735E-05
0.3470002,-3.371914E-05
0.3460002,-3.414831E-05
0.3450002,-3.470009E-05
0.3440002,-3.512926E-05
0.3430002,-3.56504E-05
0.3420002,-3.614087E-05
0.3410002,-3.660069E-05
0.3400002,-3.709117E-05
0.3390002,-3.7551E-05
0.3380002,-3.807212E-05
0.3370002,-3.859326E-05
0.3360002,-3.899177E-05
0.3350002,-3.954356E-05
0.3340002,-4.000338E-05
0.3330002,-4.052451E-05
0.3320002,-4.101499E-05
0.3310002,-4.147481E-05
0.3300002,-4.193463E-05
0.3290002,-4.245577E-05
0.3280002,-4.291559E-05
0.3270002,-4.340606E-05
0.3260002,-4.386589E-05
0.3250002,-4.435637E-05
0.3240002,-4.484684E-05
0.3230002,-4.539863E-05
0.3220002,-4.58278E-05
0.3210002,-4.628762E-05
0.3200002,-4.67781E-05
0.3190002,-4.723792E-05
0.3180002,-4.77897E-05
0.3170002,-4.828018E-05
0.3160002,-4.880131E-05
0.3150002,-4.932245E-05
0.3140002,-4.975162E-05
0.3130002,-5.021143E-05
0.3120002,-5.070191E-05
0.3110002,-5.116174E-05
0.3100002,-5.165222E-05
0.3090002,-5.217335E-05
0.3080002,-5.263316E-05
0.3070002,-5.31543E-05
0.3060002,-5.364477E-05
0.3050002,-5.413526E-05
0.3040002,-5.456442E-05
0.3030002,-5.511621E-05
0.3020002,-5.560668E-05
0.3010002,-5.612781E-05
0.3000002,-5.66183E-05
0.2990002,-5.710877E-05
0.2980002,-5.759925E-05
0.2970002,-5.805907E-05
0.2960002,-5.858021E-05
0.2950002,-5.907068E-05
0.2940002,-5.956116E-05
0.2930002,-6.005164E-05
0.2920002,-6.04808E-05
0.2910002,-6.100194E-05
0.2900002,-6.146176E-05
0.2890002,-6.195223E-05
0.2880002,-6.241206E-05
0.2870002,-6.290253E-05
0.2860002,-6.339301E-05
0.2850002,-6.379152E-05
0.2840002,-6.4282E-05
0.2830002,-6.471117E-05
0.2820002,-6.514033E-05
0.2810002,-6.563082E-05
0.2800002,-6.612129E-05
0.2790002,-6.661176E-05
0.2780002,-6.704094E-05
0.2770002,-6.753141E-05
0.2760002,-6.805255E-05
0.2750002,-6.854302E-05
0.2740002,-6.909481E-05
0.2730002,-6.952398E-05
0.2720002,-6.995314E-05
0.2710002,-7.050493E-05
0.2700002,-7.105672E-05
0.2690002,-7.145523E-05
0.2680002,-7.203767E-05
0.2670002,-7.249749E-05
0.2660002,-7.292666E-05
0.2650002,-7.341714E-05
0.2640002,-7.387697E-05
0.2630002,-7.433679E-05
0.2620002,-7.485792E-05
0.2610002,-7.537904E-05
0.2600002,-7.580821E-05
0.2590002,-7.62987E-05
0.2580002,-7.672786E-05
0.2570002,-7.724899E-05
0.2560002,-7.761685E-05
0.2550002,-7.813798E-05
0.2540002,-7.862846E-05
0.2530002,-7.914959E-05
0.2520002,-7.960942E-05
0.2510002,-8.000793E-05
0.2500002,-8.046775E-05
0.2490002,-8.101953E-05
0.2480002,-8.141805E-05
0.2470002,-8.187787E-05
0.2460002,-8.236835E-05
0.2450002,-8.276686E-05
0.2440002,-8.322668E-05
0.2430002,-8.383978E-05
0.2420002,-8.420764E-05
0.2410002,-8.472877E-05
0.2400002,-8.52499E-05
0.2390002,-8.567907E-05
0.2380002,-8.613889E-05
0.2370002,-8.662937E-05
0.2360002,-8.705854E-05
0.2350002,-8.754901E-05
0.2340002,-8.803949E-05
0.2330002,-8.846866E-05
0.2320002,-8.889782E-05
0.2310002,-8.951092E-05
0.2300002,-8.994009E-05
0.2290002,-9.043057E-05
0.2280002,-9.098235E-05
0.2270002,-9.147283E-05
0.2260002,-9.190199E-05
0.2250002,-9.236182E-05
0.2240002,-9.288295E-05
0.2230002,-9.337343E-05
0.2220002,-9.383325E-05
0.2210002,-9.423176E-05
0.2200002,-9.472224E-05
0.2190002,-9.515141E-05
0.2180002,-9.561123E-05
0.2170002,-9.610171E-05
0.2160002,-9.650022E-05
0.2150002,-9.699071E-05
0.2140002,-9.738921E-05
0.2130002,-9.781838E-05
0.2120002,-9.846213E-05
0.2110002,-9.886064E-05
0.2100002,-9.941243E-05
0.2090002,-9.990291E-05
0.2080002,-0.0001003014
0.2070002,-0.0001007306
0.2060002,-0.0001012824
0.2050002,-0.0001016809
0.2040002,-0.0001021714
0.2030002,-0.0001026312
0.2020002,-0.0001029991
0.2010002,-0.0001034589
0.2000002,-0.0001039494
0.1990002,-0.0001043479
0.1980002,-0.0001048077
0.1970002,-0.0001053288
0.1960002,-0.0001057273
0.1950002,-0.0001061565
0.1940002,-0.0001066163
0.1930002,-0.0001070455
0.1920002,-0.000107536
0.1910002,-0.0001080264
0.1900002,-0.0001084556
0.1890002,-0.0001088848
0.1880002,-0.0001094366
0.1870002,-0.0001098657
0.1860002,-0.0001103256
0.1850002,-0.0001108773
0.1840002,-0.0001113065
0.1830002,-0.000111705
0.1820002,-0.0001121955
0.1810002,-0.0001126553
0.1800002,-0.0001130232
0.1790002,-0.0001135443
0.1780002,-0.0001139428
0.1770002,-0.000114372
0.1760002,-0.0001147705
0.1750002,-0.000115169
0.1740002,-0.0001155675
0.1730002,-0.00011615
0.1720002,-0.0001165178
0.1710002,-0.0001169163
0.1700002,-0.0001173455
0.1690002,-0.000117836
0.1680002,-0.0001182345
0.1670002,-0.0001186943
0.1660002,-0.0001190928
0.1650002,-0.000119522
0.1640002,-0.0001200125
0.1630002,-0.0001203803
0.1620002,-0.0001208402
0.1610002,-0.0001213
0.1600002,-0.0001216065
0.1590002,-0.000122097
0.1580002,-0.0001225262
0.1570002,-0.0001229553
0.1560002,-0.0001234152
0.1550002,-0.000123783
0.1540002,-0.0001241202
0.1530002,-0.000124672
0.1520002,-0.0001250399
0.1510002,-0.0001254384
0.1500002,-0.0001259902
0.1490002,-0.0001263274
0.1480002,-0.0001267565
0.1470002,-0.0001272164
0.1460002,-0.0001276149
0.1450002,-0.0001279827
0.1440002,-0.0001284119
0.1430002,-0.0001289024
0.1420002,-0.0001293315
0.1410002,-0.0001297607
0.1400002,-0.0001300366
0.1390002,-0.0001305271
0.1380002,-0.0001309563
0.1370002,-0.0001312935
0.1360002,-0.0001317839
0.1350002,-0.0001321824
0.1340002,-0.0001325503
0.1330002,-0.0001328875
0.1320002,-0.0001333473
0.1310002,-0.0001336232
0.1300002,-0.0001339911
0.1290002,-0.0001345735
0.1280002,-0.0001347881
0.1270002,-0.0001351253
0.1260002,-0.0001355851
0.1250002,-0.0001358917
0.1240002,-0.0001363208
0.1230002,-0.0001366274
0.1220002,-0.0001370259
0.1210002,-0.0001373325
0.1200002,-0.0001378229
0.1190002,-0.0001382521
0.1180002,-0.000138528
0.1170002,-0.0001389265
0.1160002,-0.0001393557
0.1150002,-0.0001396622
0.1140002,-0.0001400607
0.1130002,-0.0001404286
0.1120002,-0.0001407965
0.1110002,-0.000141103
0.1100002,-0.0001415322
0.1090002,-0.0001418694
0.1080002,-0.0001422372
0.1070002,-0.0001426664
0.1060002,-0.0001429423
0.1050002,-0.0001433102
0.1040002,-0.0001437393
0.1030002,-0.0001440459
0.1020002,-0.0001444137
0.1010002,-0.0001448429
0.1000002,-0.0001450575
0.09900019,-0.000145456
0.09800019,-0.0001458545
0.09700019,-0.0001460997
0.09600019,-0.0001464369
0.09500019,-0.0001468048
0.09400019,-0.0001470807
0.09300019,-0.0001473566
0.09200019,-0.0001477245
0.09100019,-0.0001480003
0.09000019,-0.0001482456
0.08900019,-0.0001485828
0.08800019,-0.0001488893
0.08700019,-0.0001491652
0.08600019,-0.0001494411
0.08500019,-0.0001496863
0.08400019,-0.0001499316
0.08300019,-0.0001503301
0.08200019,-0.000150606
0.08100019,-0.0001507593
0.08000019,-0.0001510658
0.07900019,-0.0001513111
0.07800019,-0.0001514643
0.07700019,-0.0001517402
0.07600019,-0.0001519855
0.07500019,-0.0001522307
0.07400019,-0.0001524453
0.07300019,-0.0001526905
0.07200019,-0.0001529358
0.07100019,-0.000153089
0.07000019,-0.0001533343
0.06900019,-0.0001536102
0.06800019,-0.0001537635
0.06700019,-0.0001540087
0.06600019,-0.000154162
0.06500019,-0.0001543152
0.06400019,-0.0001544992
0.06300019,-0.0001546524
0.06200019,-0.0001548977
0.06100019,-0.0001551123
0.06000019,-0.0001551736
0.05900019,-0.0001552042
0.05800019,-0.0001553575
0.05700019,-0.0001554801
0.05600019,-0.0001554801
0.05500019,-0.0001555721
0.05400019,-0.0001556027
0.05300019,-0.0001556027
0.05200019,-0.0001557867
0.05100019,-0.0001557254
0.05000019,-0.0001556947
0.04900019,-0.000155848
0.04800019,-0.0001558173
0.04700019,-0.0001556947
0.04600019,-0.0001558173
0.04500019,-0.0001556947
0.04400019,-0.0001555721
0.04300019,-0.0001555721
0.04200019,-0.0001555108
0.04100019,-0.0001553268
0.04000019,-0.0001552349
0.03900019,-0.0001550816
0.03800019,-0.000154959
0.03700019,-0.0001547444
0.03600019,-0.0001545298
0.03500019,-0.0001543459
0.03400019,-0.0001540087
0.03300019,-0.0001537941
0.03200019,-0.0001534569
0.03100019,-0.000153089
0.03000019,-0.0001527212
0.02900019,-0.000152292
0.02800019,-0.0001518935
0.02700019,-0.0001514337
0.02600019,-0.0001510045
0.02500019,-0.0001506366
0.02400019,-0.0001499929
0.02300019,-0.0001495637
0.02200019,-0.0001491346
0.02100019,-0.0001483988
0.02000019,-0.000147939
0.01900019,-0.0001472953
0.01800019,-0.0001466209
0.01700019,-0.0001459771
0.01600019,-0.0001451188
0.01500019,-0.0001443831
0.01400019,-0.0001436473
0.01300019,-0.0001427583
0.01200019,-0.0001418694
0.01100019,-0.0001409804
0.01000019,-0.000140122
0.009000191,-0.0001392944
0.00800019,-0.0001384667
0.007000191,-0.000137639
0.006000191,-0.0001367194
0.005000191,-0.0001359836
0.004000191,-0.000135156
0.003000191,-0.0001342976
0.002000191,-0.0001334699
0.001000191,-0.0001326729
1.907349E-07,-0.000129822
0.0009998092,-0.0001275842
0.001999809,-0.0001257756
0.002999809,-0.0001240896
0.003999809,-0.0001225875
0.004999809,-0.0001211467
0.005999809,-0.0001197672
0.006999809,-0.0001183878
0.007999809,-0.0001171922
0.00899981,-0.0001159354
0.009999809,-0.0001146785
0.01099981,-0.000113575
0.01199981,-0.0001124101
0.01299981,-0.0001113372
0.01399981,-0.0001102642
0.01499981,-0.000109222
0.01599981,-0.0001081797
0.01699981,-0.0001071988
0.01799981,-0.0001062178
0.01899981,-0.0001052675
0.01999981,-0.0001042865
0.02099981,-0.0001033363
0.02199981,-0.0001024473
0.02299981,-0.0001014663
0.02399981,-0.0001006386
0.02499981,-9.965767E-05
0.02599981,-9.873803E-05
0.02699981,-9.797165E-05
0.02799981,-9.711332E-05
0.02899981,-9.628564E-05
0.02999981,-9.554992E-05
0.03099981,-9.472224E-05
0.03199981,-9.386391E-05
0.03299981,-9.315884E-05
0.03399981,-9.236182E-05
0.03499981,-9.162611E-05
0.03599981,-9.09517E-05
0.03699981,-9.018533E-05
0.03799981,-8.941896E-05
0.03899981,-8.874455E-05
0.03999981,-8.800883E-05
0.04099981,-8.730377E-05
0.04199981,-8.662937E-05
0.04299981,-8.589365E-05
0.04399981,-8.512728E-05
0.04499981,-8.451418E-05
0.04599981,-8.380912E-05
0.04699981,-8.307341E-05
0.04799981,-8.242966E-05
0.04899981,-8.17246E-05
0.04999981,-8.101953E-05
0.05099981,-8.037578E-05
0.05199981,-7.967072E-05
0.05299981,-7.902697E-05
0.05399981,-7.838322E-05
0.05499981,-7.770881E-05
0.05599981,-7.712637E-05
0.05699981,-7.651328E-05
0.05799981,-7.580821E-05
0.05899981,-7.525643E-05
0.05999981,-7.455137E-05
0.06099981,-7.396893E-05
0.06199981,-7.344779E-05
0.06299981,-7.28347E-05
0.06399981,-7.219095E-05
0.06499981,-7.166981E-05
0.06599981,-7.108737E-05
0.06699981,-7.050493E-05
0.06799981,-6.99838E-05
0.06899981,-6.934005E-05
0.06999981,-6.872695E-05
0.07099981,-6.820582E-05
0.07199981,-6.765403E-05
0.07299981,-6.704094E-05
0.07399981,-6.65198E-05
0.07499981,-6.596802E-05
0.07599981,-6.532426E-05
0.07699981,-6.486444E-05
0.07799981,-6.425134E-05
0.07899981,-6.369956E-05
0.07999981,-6.320909E-05
0.08099981,-6.262664E-05
0.08199981,-6.198289E-05
0.08299981,-6.152307E-05
0.08399981,-6.094063E-05
0.08499981,-6.035818E-05
0.08599981,-5.986771E-05
0.08699981,-5.931592E-05
0.08799981,-5.876413E-05
0.08899981,-5.8243E-05
0.08999981,-5.772187E-05
0.09099981,-5.720073E-05
0.09199981,-5.66183E-05
0.09299981,-5.615847E-05
0.09399981,-5.557603E-05
0.09499981,-5.505489E-05
0.09599981,-5.453377E-05
0.09699981,-5.404329E-05
0.09799981,-5.34915E-05
0.09899981,-5.300103E-05
0.09999981,-5.244924E-05
0.1009998,-5.195876E-05
0.1019998,-5.143763E-05
0.1029998,-5.09165E-05
0.1039998,-5.045668E-05
0.1049998,-4.987423E-05
0.1059998,-4.938375E-05
0.1069998,-4.895459E-05
0.1079998,-4.846411E-05
0.1089998,-4.800429E-05
0.1099998,-4.757512E-05
0.1109998,-4.705399E-05
0.1119998,-4.656351E-05
0.1129998,-4.610369E-05
0.1139998,-4.558256E-05
0.1149998,-4.518405E-05
0.1159998,-4.466291E-05
0.1169998,-4.420309E-05
0.1179998,-4.377393E-05
0.1189998,-4.325279E-05
0.1199998,-4.273166E-05
0.1209998,-4.224118E-05
0.1219998,-4.178136E-05
0.1229998,-4.135219E-05
0.1239998,-4.080041E-05
0.1249998,-4.040189E-05
0.1259998,-3.985011E-05
0.1269998,-3.942094E-05
0.1279998,-3.896112E-05
0.1289998,-3.853195E-05
0.1299998,-3.804147E-05
0.1309998,-3.758165E-05
0.1319998,-3.709117E-05
0.1329998,-3.6662E-05
0.1339998,-3.614087E-05
0.1349998,-3.577301E-05
0.1359998,-3.531319E-05
0.1369998,-3.491468E-05
0.1379998,-3.445486E-05
0.1389998,-3.405634E-05
0.1399998,-3.356587E-05
0.1409998,-3.31367E-05
0.1419998,-3.273819E-05
0.1429998,-3.227836E-05
0.1439998,-3.187985E-05
0.1449998,-3.145068E-05
0.1459998,-3.099086E-05
0.1469998,-3.059235E-05
0.1479998,-3.019383E-05
0.1489998,-2.973401E-05
0.1499998,-2.93355E-05
0.1509998,-2.887568E-05
0.1519998,-2.850782E-05
0.1529998,-2.810931E-05
0.1539998,-2.755752E-05
0.1549998,-2.718966E-05
0.1559998,-2.679115E-05
0.1569998,-2.639264E-05
0.1579998,-2.593282E-05
0.1589998,-2.55343E-05
0.1599998,-2.510513E-05
0.1609998,-2.470662E-05
0.1619998,-2.421614E-05
0.1629998,-2.384829E-05
0.1639998,-2.341912E-05
0.1649998,-2.298995E-05
0.1659998,-2.259144E-05
0.1669998,-2.213162E-05
0.1679998,-2.176376E-05
0.1689998,-2.133459E-05
0.1699998,-2.090542E-05
0.1709998,-2.056822E-05
0.1719998,-2.01084E-05
0.1729998,-1.967923E-05
0.1739998,-1.931137E-05
0.1749998,-1.88822E-05
0.1759998,-1.8545E-05
0.1769998,-1.817714E-05
0.1779998,-1.777863E-05
0.1789998,-1.741077E-05
0.1799998,-1.69816E-05
0.1809998,-1.661375E-05
0.1819998,-1.621523E-05
0.1829998,-1.578607E-05
0.1839998,-1.538755E-05
0.1849998,-1.505035E-05
0.1859998,-1.462118E-05
0.1869998,-1.419202E-05
0.1879998,-1.376285E-05
0.1889998,-1.333368E-05
0.1899998,-1.328875E-05
0.1909998,-1.284119E-05
0.1919998,-1.242429E-05
0.1929998,-1.205336E-05
0.1939998,-1.166098E-05
0.1949998,-1.123181E-05
0.1959998,-1.079958E-05
0.1969998,-1.040413E-05
0.1979998,-9.987225E-06
0.1989998,-9.567254E-06
0.1999998,-9.174873E-06
0.2009998,-8.782491E-06
0.2019998,-8.380913E-06
0.2029998,-7.979334E-06
0.2039998,-7.531774E-06
0.2049998,-7.09341E-06
0.2059998,-6.71329E-06
0.2069998,-6.281057E-06
0.2079998,-5.95305E-06
0.2089998,-5.545341E-06
0.2099998,-5.116173E-06
0.2109998,-4.720726E-06
0.2119998,-4.248642E-06
0.2129998,-3.850129E-06
0.2139998,-3.479206E-06
0.2149998,-3.034711E-06
0.2159998,-2.64846E-06
0.2169998,-2.207031E-06
0.2179998,-1.802387E-06
0.2189998,-1.351761E-06
0.2199998,-9.042006E-07
0.2209998,-5.516701E-07
0.2219998,-1.194371E-07
0.2229998,4.170224E-07
0.2239998,7.695529E-07
0.2249998,1.204851E-06
0.2259998,1.670805E-06
0.2269998,2.109169E-06
0.2279998,2.578188E-06
0.2289998,2.961373E-06
0.2299998,3.313903E-06
0.2309998,3.776791E-06
0.2319998,4.215155E-06
0.2329998,4.549293E-06
0.2339998,5.045901E-06
0.2349998,5.481199E-06
0.2359998,5.888909E-06
0.2369998,6.305814E-06
0.2379998,6.710458E-06
0.2389998,7.161083E-06
0.2399998,7.587186E-06
0.2409998,8.022485E-06
0.2419998,8.40567E-06
0.2429998,8.890016E-06
0.2439998,9.325315E-06
0.2449998,9.748352E-06
0.2459998,1.018058E-05
0.2469998,1.067106E-05
0.2479998,1.106038E-05
0.2489998,1.148035E-05
0.2499998,1.192178E-05
0.2509998,1.234788E-05
0.2519998,1.28261E-05
0.2529998,1.327366E-05
0.2539998,1.365071E-05
0.2549998,1.417184E-05
0.2559998,1.460407E-05
0.2569998,1.508536E-05
0.2579998,1.560955E-05
0.2589998,1.604485E-05
0.2599998,1.656598E-05
0.2609998,1.707179E-05
0.2619998,1.750096E-05
0.2629998,1.795771E-05
0.2639998,1.840527E-05
0.2649998,1.887123E-05
0.2659998,1.932492E-05
0.2669998,1.9797E-05
0.2679998,2.020778E-05
0.2689998,2.065534E-05
0.2699998,2.116727E-05
0.2709998,2.158112E-05
0.2719998,2.203787E-05
0.2729998,2.252528E-05
0.2739998,2.297591E-05
0.2749998,2.336522E-05
0.2759998,2.39354E-05
0.2769998,2.430326E-05
0.2779998,2.476002E-05
0.2789998,2.52413E-05
0.2799998,2.611908E-05
0.2809998,2.651759E-05
0.2819998,2.700807E-05
0.2829998,2.749855E-05
0.2839998,2.801968E-05
0.2849998,2.84795E-05
0.2859998,2.903129E-05
0.2869998,2.952177E-05
0.2879998,2.998159E-05
0.2889998,3.053337E-05
0.2899998,3.09932E-05
0.2909998,3.148367E-05
0.2919998,3.194349E-05
0.2929998,3.234201E-05
0.2939998,3.283249E-05
0.2949998,3.332296E-05
0.2959998,3.381344E-05
0.2969998,3.427326E-05
0.2979998,3.470243E-05
0.2989998,3.525422E-05
0.2999998,3.5806E-05
0.3009998,3.638844E-05
0.3019998,3.681761E-05
0.3029998,3.733874E-05
0.3039998,3.785988E-05
0.3049998,3.825839E-05
0.3059998,3.877952E-05
0.3069998,3.920869E-05
0.3079998,3.969917E-05
0.3089998,4.025095E-05
0.3099998,4.077208E-05
0.3109998,4.138518E-05
0.3119998,4.187566E-05
0.3129998,4.236614E-05
0.3139998,4.285661E-05
0.3149998,4.331644E-05
0.3159998,4.383757E-05
0.3169998,4.432804E-05
0.3179998,4.481852E-05
0.3189998,4.533965E-05
0.3199998,4.589144E-05
0.3209998,4.641257E-05
0.3219998,4.696436E-05
0.3229998,4.757746E-05
0.3239998,4.806793E-05
0.3249998,4.861972E-05
0.3259998,4.914085E-05
0.3269998,4.963133E-05
0.3279998,5.009115E-05
0.3289998,5.061228E-05
0.3299998,5.113342E-05
0.3309998,5.156258E-05
0.3319998,5.211437E-05
0.3329998,5.26355E-05
0.3339998,5.315664E-05
0.3349998,5.380038E-05
0.3359998,5.435217E-05
0.3369998,5.490396E-05
0.3379998,5.545575E-05
0.3389998,5.597688E-05
0.3399998,5.649801E-05
0.3409998,5.701914E-05
0.3419998,5.754027E-05
0.3429998,5.806141E-05
0.3439998,5.852123E-05
0.3449998,5.913433E-05
0.3459998,5.956349E-05
0.3469998,6.017659E-05
0.3479998,6.082034E-05
0.3489998,6.137213E-05
0.3499998,6.198522E-05
0.3509998,6.250635E-05
0.3519998,6.302749E-05
0.3529998,6.364059E-05
0.3539998,6.413106E-05
0.3549998,6.465219E-05
0.3559998,6.523464E-05
0.3569998,6.578642E-05
0.3579998,6.630756E-05
0.3589998,6.685934E-05
0.3599998,6.741113E-05
0.3609998,6.793225E-05
0.3619998,6.84534E-05
0.3629998,6.900517E-05
0.3639998,6.958762E-05
0.3649998,7.013941E-05
0.3659998,7.06912E-05
0.3669998,7.130429E-05
0.3679998,7.191739E-05
0.3689998,7.246917E-05
0.3699998,7.308227E-05
0.3709998,7.363406E-05
0.3719998,7.42165E-05
0.3729998,7.476829E-05
0.3739998,7.538139E-05
0.3749998,7.599447E-05
0.3759998,7.657692E-05
0.3769998,7.712871E-05
0.3779998,7.77418E-05
0.3789998,7.829359E-05
0.3799998,7.890669E-05
0.3809998,7.945847E-05
0.3819998,8.007157E-05
0.3829998,8.068467E-05
0.3839998,8.12058E-05
0.3849998,8.175759E-05
0.3859998,8.234003E-05
0.3869998,8.292247E-05
0.3879998,8.356622E-05
0.3889998,8.420997E-05
0.3899998,8.476176E-05
0.3909998,8.537486E-05
0.3919998,8.592664E-05
0.3929998,8.647843E-05
0.3939998,8.712218E-05
0.3949998,8.770462E-05
0.3959998,8.831772E-05
0.3969998,8.893081E-05
0.3979998,8.951325E-05
0.3989998,9.009569E-05
0.3999998,9.07088E-05
0.4009998,9.129124E-05
0.4019998,9.187368E-05
0.4029998,9.242546E-05
0.4039998,9.306922E-05
0.4049998,9.368231E-05
0.4059998,9.429541E-05
0.4069998,9.500048E-05
0.4079998,9.567488E-05
0.4089998,9.625732E-05
0.4099998,9.687041E-05
0.4109998,9.751417E-05
0.4119998,9.809661E-05
0.4129998,9.870971E-05
0.4139998,9.93228E-05
0.4149998,9.996655E-05
0.4159998,0.000100457
0.4169998,0.0001011314
0.4179998,0.0001018058
0.4189998,0.000102235
0.4199998,0.0001030014
0.4209998,0.0001035838
0.4219998,0.0001041356
0.4229998,0.000104902
0.4239998,0.0001054538
0.4249998,0.0001060975
0.4259998,0.0001068945
0.4269998,0.000107477
0.4279998,0.000108182
0.4289998,0.0001088258
0.4299998,0.0001094389
0.4309998,0.0001101133
0.4319998,0.0001107264
0.4329998,0.0001113701
0.4339998,0.0001120139
0.4349998,0.0001126576
0.4359998,0.0001132707
0.4369998,0.0001138838
0.4379998,0.0001145276
0.4389998,0.0001152327
0.4399998,0.0001158764
0.4409998,0.0001166121
0.4419998,0.0001174091
0.4429998,0.0001180835
0.4439998,0.000118758
0.4449998,0.0001194017
0.4459998,0.0001200148
0.4469998,0.0001206892
0.4479998,0.0001213636
0.4489998,0.0001220074
0.4499998,0.0001227431
0.4509998,0.0001233255
0.4519998,0.0001241532
0.4529998,0.0001249196
0.4539998,0.0001256859
0.4549998,0.0001264217
0.4559998,0.0001270348
0.4569998,0.0001277705
0.4579998,0.0001285062
0.4589998,0.0001291806
0.4599998,0.0001298857
0.4609998,0.0001306214
0.4619998,0.0001313264
0.4629998,0.0001320622
0.4639998,0.0001329205
0.4649998,0.0001337482
0.4659998,0.0001344532
0.4669998,0.0001352196
0.4679998,0.0001360473
0.4689998,0.0001367217
0.4699998,0.0001375494
0.4709998,0.0001383464
0.4719998,0.0001390208
0.4729998,0.0001398178
0.4739998,0.0001407068
0.4749998,0.0001413812
0.4759998,0.0001422702
0.4769998,0.0001432205
0.4779998,0.0001440482
0.4789998,0.0001449372
0.4799998,0.0001458262
0.4809998,0.0001465925
0.4819998,0.0001474815
0.4829998,0.0001483092
0.4839998,0.0001492902
0.4849998,0.0001501178
0.4859998,0.0001508536
0.4869998,0.0001518652
0.4879998,0.0001527542
0.4889998,0.0001535205
0.4899998,0.0001546854
0.4909998,0.0001555131
0.4919998,0.0001564021
0.4929998,0.0001575363
0.4939998,0.0001584253
0.4949998,0.0001595289
0.4959998,0.0001606325
0.4969998,0.0001615521
0.4979998,0.000162533
0.4989998,0.0001636673
0.4999998,0.0001646176
0.5009998,0.0001656905
0.5019998,0.0001667941
0.5029998,0.0001678057
0.5039998,0.0001688786
0.5049998,0.0001701661
0.5059998,0.0001712697
0.5069998,0.0001724039
0.5079998,0.0001738753
0.5089998,0.0001749176
0.5099998,0.0001760825
0.5109998,0.0001774313
0.5119998,0.0001788108
0.5129998,0.0001800063
0.5139998,0.0001813858
0.5149998,0.000182612
0.5159998,0.0001839301
0.5169998,0.0001853402
0.5179998,0.000186873
0.5189998,0.0001883138
0.5199998,0.0001899998
0.5209998,0.0001914099
0.5219998,0.000192912
0.5229998,0.0001944447
0.5239998,0.000196192
0.5249998,0.0001976941
0.5259998,0.0001994108
0.5269998,0.0002013727
0.5279998,0.0002029361
0.5289998,0.0002050513
0.5299998,0.0002070132
0.5309998,0.0002087605
0.5319998,0.000210937
0.5329998,0.0002129602
0.5339998,0.0002149528
0.5349998,0.0002172213
0.5359998,0.0002195204
0.5369998,0.0002217275
0.5379998,0.0002243638
0.5389998,0.0002268162
0.5399998,0.0002297284
0.5409998,0.0002323341
0.5419998,0.0002350317
0.5429998,0.0002380972
0.5439998,0.0002411014
0.5449998,0.0002441362
0.5459998,0.0002477228
0.5469998,0.0002510642
0.5479998,0.0002548041
0.5489998,0.0002586359
0.5499998,0.000262713
0.5509998,0.0002668821
0.5519998,0.0002712964
0.5529998,0.0002762011
0.5539998,0.0002811059
0.5549998,0.0002863173
0.5559998,0.0002922949
0.5569998,0.0003013486
0.5579998,0.0003074796
0.5589998,0.0003142237
0.5599998,0.0003212743
0.5609998,0.0003286314
0.5619998,0.0003369082
0.5629998,0.0003454916
0.5639998,0.0003549946
0.5649998,0.0003648041
0.5659998,0.0003752268
0.5669998,0.0003868756
0.5679998,0.0003991375
0.5689998,0.000411706
0.5699998,0.0004258072
0.5709998,0.0004411346
0.5719998,0.0004573817
0.5729998,0.0004748549
0.5739998,0.0004935544
0.5749998,0.00051348
0.5759998,0.0005349384
0.5769998,0.0005582361
0.5779998,0.0005830665
0.5789998,0.0006094296
0.5799998,0.0006388583
0.5809998,0.0006685934
0.5819998,0.0007013941
0.5829998,0.0007369537
0.5839998,0.0007740461
0.5849998,0.0008142039
0.5859998,0.0008568141
0.5869998,0.0009021832
0.5879998,0.0009515375
0.5889998,0.001002425
0.5899998,0.00105791
0.5909998,0.001116767
0.5919998,0.00117869
0.5929998,0.001245824
0.5939998,0.00131541
0.5949998,0.001389288
0.5959998,0.001468684
0.5969998,0.001550839
0.5979998,0.001637899
0.5989998,0.001731703
0.5999998,0.001827346
0.6009998,0.001929426
0.6019998,0.002037945
0.6029998,0.002149222
0.6039998,0.002268162
0.6049998,0.002391395
0.6059998,0.002519839
0.6069998,0.002655026
0.6079998,0.002795732
0.6089998,0.002942262
0.6099998,0.003120778
0.6109998,0.003277118
0.6119998,0.003439588
0.6129998,0.00360819
0.6139998,0.003789053
0.6149998,0.003969917
0.6159998,0.004156911
0.6169998,0.004353102
0.6179998,0.004555424
0.6189998,0.004757746
0.6199998,0.004972329
0.6209998,0.005189979
0.6219998,0.005413759
0.6229998,0.005646735
0.6239998,0.005879712
0.6249998,0.00611882
0.6259998,0.006367124
0.6269998,0.006618494
0.6279998,0.006875994
0.6289998,0.007139625
0.6299998,0.007409388
0.6309998,0.00767915
0.6319998,0.007958109
0.6329998,0.008240134
0.6339998,0.008525223
0.6349998,0.008816444
0.6359998,0.009116862
0.6369998,0.009414214
0.6379998,0.009720762
0.6389998,0.01003038
0.6399998,0.01033692
0.6409998,0.01065573
0.6419998,0.01097761
0.6429998,0.01129948
0.6439998,0.01163056
0.6449998,0.01196163
0.6459998,0.01229577
0.6469998,0.0126391
0.6479998,0.0129763
0.6489998,0.01331964
0.6499998,0.01367217
0.6509998,0.01402163
0.6519998,0.0143711
0.6529998,0.01472976
0.6539998,0.01508842
0.6549998,0.01544402
0.6559998,0.01581187
0.6569998,0.01617973
0.6579998,0.01654146
0.6589998,0.01691545
0.6599998,0.01729557
0.6609998,0.01765729
0.6619998,0.01804355
0.6629998,0.0184206
0.6639998,0.01879152
0.6649998,0.01918084
0.6659998,0.01957016
0.6669998,0.01994721
0.6679998,0.02033653
0.6689998,0.02072278
0.6699998,0.02110903
0.6709998,0.02150141
0.6719998,0.02189379
0.6729998,0.02228924
0.6739998,0.02268162
0.6749998,0.02308014
0.6759998,0.02348171
0.6769998,0.02387103
0.6779998,0.02427567
0.6789998,0.02467725
0.6799998,0.02507883
0.6809998,0.02548347
0.6819998,0.02589118
0.6829998,0.02628356
0.6839998,0.02670047
0.6849998,0.02710205
0.6859998,0.02750669
0.6869998,0.02792053
0.6879998,0.02832824
0.6889998,0.02873289
0.6899998,0.02914979
0.6909998,0.02956363
0.6919998,0.02998054
0.6929998,0.03111582
0.6939998,0.03154498
0.6949998,0.0319435
0.6959998,0.03237266
0.6969998,0.03280183
0.6979998,0.033231
0.6989998,0.03362951
0.6999998,0.03381344
0.6990003,0.03347624
0.6980003,0.03313904
0.6970003,0.03277118
0.6960003,0.03246463
0.6950003,0.03209677
0.6940003,0.03175957
0.6930003,0.03142237
0.6920003,0.03105451
0.6910003,0.0307173
0.6900003,0.03034945
0.6890003,0.02998159
0.6880003,0.02964438
0.6870003,0.02930718
0.6860003,0.02893933
0.6850003,0.02860212
0.6840003,0.02826492
0.6830003,0.02789706
0.6820003,0.02755986
0.6810003,0.027192
0.6800003,0.0268548
0.6790003,0.02651759
0.6780003,0.02614973
0.6770003,0.02581253
0.6760003,0.02547533
0.6750003,0.02510747
0.6740003,0.02477027
0.6730003,0.02443307
0.6720003,0.02406521
0.6710003,0.023728
0.6700003,0.0233908
0.6690003,0.0230536
0.6680003,0.02271639
0.6670003,0.02237919
0.6660003,0.02204199
0.6650003,0.02170478
0.6640003,0.02136758
0.6630003,0.02103038
0.6620003,0.02069318
0.6610003,0.02035597
0.6600003,0.02004942
0.6590003,0.01971222
0.6580003,0.01937502
0.6570003,0.01906847
0.6560003,0.01873127
0.6550003,0.01842472
0.6540003,0.01811817
0.6530003,0.01778097
0.6520003,0.01744376
0.6510003,0.01713721
0.6500003,0.01683067
0.6490003,0.01652412
0.6480003,0.01621757
0.6470003,0.01588037
0.6460003,0.01557382
0.6450003,0.01526727
0.6440003,0.01496072
0.6430003,0.01468483
0.6420003,0.01437828
0.6410003,0.01407173
0.6400003,0.01376519
0.6390003,0.01345864
0.6380003,0.01318274
0.6370003,0.01242758
0.6360003,0.01213943
0.6350003,0.01186353
0.6340003,0.01158151
0.6330003,0.01129948
0.6320003,0.01102972
0.6310003,0.01075689
0.6300003,0.01048407
0.6290003,0.01022043
0.6280003,0.009956804
0.6270003,0.009693173
0.6260003,0.009435672
0.6250003,0.009181237
0.6240003,0.008929867
0.6230003,0.008678498
0.6220003,0.008430193
0.6210003,0.008184955
0.6200003,0.007945848
0.6190003,0.007712871
0.6180003,0.007476829
0.6170003,0.007243852
0.6160003,0.007020072
0.6150003,0.006793226
0.6140003,0.006569446
0.6130003,0.006354862
0.6120003,0.006140279
0.6110003,0.005931825
0.6100003,0.005726438
0.6090003,0.005524116
0.6080003,0.00532486
0.6070003,0.005128669
0.6060003,0.004941675
0.6050003,0.00475468
0.6040003,0.004570751
0.6030003,0.004392953
0.6020003,0.004218221
0.6010003,0.004046554
0.6000003,0.003884083
0.5990003,0.003718547
0.5980003,0.003562207
0.5970003,0.003408933
0.5960003,0.003258725
0.5950003,0.003114647
0.5940003,0.002973635
0.5930003,0.002835688
0.5920003,0.002703872
0.5910003,0.002575122
0.5900003,0.002452503
0.5890003,0.002332949
0.5880003,0.002216461
0.5870003,0.002106103
0.5860003,0.001998811
0.5850003,0.00189765
0.5840003,0.001799555
0.5830003,0.00170146
0.5820003,0.001612561
0.5810003,0.001526727
0.5800003,0.001440894
0.5790003,0.001361191
0.5780003,0.001284554
0.5770003,0.001184821
0.5760003,0.001116154
0.5750003,0.001050553
0.5740003,0.0009880167
0.5730003,0.0009291595
0.5720003,0.0008727546
0.5710003,0.0008197217
0.5700003,0.0007691413
0.5690003,0.0007216263
0.5680003,0.0006771768
0.5670003,0.0006345666
0.5660003,0.0005947153
0.5650003,0.0005573165
0.5640003,0.0005217568
0.5630003,0.0004889562
0.5620003,0.0004579948
0.5610003,0.0004288727
0.5600003,0.0004018965
0.5590003,0.000376453
0.5580003,0.0003525422
0.5570003,0.0003304707
0.5560003,0.0003096254
0.5550003,0.0002900063
0.5540003,0.0002722265
0.5530003,0.0002550599
0.5520003,0.000240039
0.5510003,0.0002250181
0.5500003,0.0002112234
0.5490003,0.0001989615
0.5480003,0.0001870061
0.5470003,0.0001765835
0.5460003,0.0001667739
0.5450003,0.0001569644
0.5440003,0.000148381
0.5430003,0.0001401042
0.5420003,0.0001327471
0.5410003,0.000126003
0.5400003,0.0001160297
0.5390003,0.0001102666
0.5380003,0.0001049633
0.5370003,9.969066E-05
0.5360003,9.530702E-05
0.5350003,9.07088E-05
0.5340003,8.66317E-05
0.5330003,8.298378E-05
0.5320003,7.909062E-05
0.5310003,7.596382E-05
0.5300003,7.302096E-05
0.5290003,6.992483E-05
0.5280003,6.741113E-05
0.5270003,6.486678E-05
0.5260003,6.253702E-05
0.5250003,6.054445E-05
0.5240003,5.849057E-05
0.5230003,5.674325E-05
0.5220003,5.505723E-05
0.5210003,5.327925E-05
0.5200003,5.189979E-05
0.5190003,5.024443E-05
0.5180003,4.892627E-05
0.5170003,4.766942E-05
0.5160003,4.632061E-05
0.5150003,4.524769E-05
0.5140003,4.417477E-05
0.5130003,4.313251E-05
0.5120003,4.227417E-05
0.5110003,4.138518E-05
0.5100003,4.046554E-05
0.5090003,3.969917E-05
0.5080003,3.874887E-05
0.5070003,3.795184E-05
0.5060003,3.73694E-05
0.5050003,3.644975E-05
0.5040003,3.589797E-05
0.5030003,3.525422E-05
0.5020003,3.457981E-05
0.5010003,3.408933E-05
0.5000003,3.350689E-05
0.4990003,3.298576E-05
0.4980003,3.237266E-05
0.4970003,3.182088E-05
0.4960003,3.129974E-05
0.4950003,3.059468E-05
0.4940003,3.019617E-05
0.4930003,2.970569E-05
0.4920003,2.906194E-05
0.4910003,2.866343E-05
0.4900003,2.823426E-05
0.4890003,2.774378E-05
0.4880003,2.737593E-05
0.4870003,2.694676E-05
0.4860003,2.645628E-05
0.4850003,2.605777E-05
0.4840003,2.556729E-05
0.4830003,2.513812E-05
0.4820003,2.461699E-05
0.4810003,2.415717E-05
0.4800003,2.375866E-05
0.4790003,2.326818E-05
0.4780003,2.280836E-05
0.4770003,2.234853E-05
0.4760003,2.198068E-05
0.4750003,2.170478E-05
0.4740003,2.118365E-05
0.4730003,2.081579E-05
0.4720003,2.038663E-05
0.4710003,1.99268E-05
0.4700003,1.937502E-05
0.4690003,1.897651E-05
0.4680003,1.845537E-05
0.4670003,1.80262E-05
0.4660003,1.765835E-05
0.4650003,1.722918E-05
0.4640003,1.692263E-05
0.4630003,1.643215E-05
0.4620003,1.594168E-05
0.4610003,1.548186E-05
0.4600003,1.493007E-05
0.4590003,1.443959E-05
0.4580003,1.404108E-05
0.4570003,1.358126E-05
0.4560003,1.32134E-05
0.4550003,1.281488E-05
0.4540003,1.229375E-05
0.4530003,1.186458E-05
0.4520003,1.128214E-05
0.4510003,1.041969E-05
0.4500003,9.953739E-06
0.4490003,9.481654E-06
0.4480003,9.073945E-06
0.4470003,8.62945E-06
0.4460003,8.252396E-06
0.4450003,7.682216E-06
0.4440003,7.139625E-06
0.4430003,6.670607E-06
0.4420003,6.177064E-06
0.4410003,5.542509E-06
0.4400003,5.147062E-06
0.4390003,4.616733E-06
0.4380003,4.169173E-06
0.4370003,3.767595E-06
0.4360003,3.221939E-06
0.4350003,2.75292E-06
0.4340003,2.268574E-06
0.4330003,1.643215E-06
0.4320003,1.192589E-06
0.4310003,6.5613E-07
0.4300003,2.770608E-08
0.4290003,-4.321163E-07
0.4280003,-9.655103E-07
0.4270003,-1.385481E-06
0.4260003,-1.8545E-06
0.4250003,-2.344977E-06
0.4240003,-2.859978E-06
0.4230003,-3.387242E-06
0.4220003,-3.969683E-06
0.4210003,-4.490815E-06
0.4200003,-5.036471E-06
0.4190003,-5.60052E-06
0.4180003,-6.149241E-06
0.4170003,-6.728617E-06
0.4160003,-7.252815E-06
0.4150003,-7.755554E-06
0.4140003,-8.249097E-06
0.4130003,-8.721181E-06
0.4120003,-9.233117E-06
0.4110003,-9.803296E-06
0.4100003,-1.035815E-05
0.4090003,-1.092526E-05
0.4080003,-1.141881E-05
0.4070003,-1.198286E-05
0.4060003,-1.25653E-05
0.4050003,-1.316E-05
0.4040003,-1.372098E-05
0.4030003,-1.426664E-05
0.4020003,-1.474179E-05
0.4010003,-1.525679E-05
0.4000003,-1.575646E-05
0.3990003,-1.624694E-05
0.3980003,-1.680179E-05
0.3970003,-1.733825E-05
0.3960003,-1.792683E-05
0.3950003,-1.854299E-05
0.3940003,-1.902733E-05
0.3930003,-1.95546E-05
0.3920003,-2.018609E-05
0.3910003,-2.078079E-05
0.3900003,-2.130499E-05
0.3890003,-2.185984E-05
0.3880003,-2.238097E-05
0.3870003,-2.288678E-05
0.3860003,-2.342017E-05
0.3850003,-2.393824E-05
0.3840003,-2.441645E-05
0.3830003,-2.500809E-05
0.3820003,-2.561199E-05
0.3810003,-2.593282E-05
0.3800003,-2.64846E-05
0.3790003,-2.697508E-05
0.3780003,-2.755752E-05
0.3770003,-2.817062E-05
0.3760003,-2.863044E-05
0.3750003,-2.921288E-05
0.3740003,-2.982598E-05
0.3730003,-3.037777E-05
0.3720003,-3.096021E-05
0.3710003,-3.157331E-05
0.3700003,-3.203312E-05
0.3690003,-3.264622E-05
0.3680003,-3.319801E-05
0.3670003,-3.374979E-05
0.3660003,-3.430158E-05
0.3650003,-3.485337E-05
0.3640003,-3.53745E-05
0.3630003,-3.586498E-05
0.3620003,-3.641676E-05
0.3610003,-3.699921E-05
0.3600003,-3.748968E-05
0.3590003,-3.810278E-05
0.3580003,-3.871588E-05
0.3570003,-3.923701E-05
0.3560003,-3.985011E-05
0.3550003,-4.034058E-05
0.3540003,-4.089237E-05
0.3530003,-4.150547E-05
0.3520003,-4.205725E-05
0.3510003,-4.267035E-05
0.3500003,-4.322214E-05
0.3490003,-4.368196E-05
0.3480003,-4.438702E-05
0.3470003,-4.493881E-05
0.3460003,-4.55519E-05
0.3450003,-4.607304E-05
0.3440003,-4.659417E-05
0.3430003,-4.717661E-05
0.3420003,-4.785102E-05
0.3410003,-4.837215E-05
0.3400003,-4.895459E-05
0.3390003,-4.953703E-05
0.3380003,-5.008882E-05
0.3370003,-5.064061E-05
0.3360003,-5.116174E-05
0.3350003,-5.177483E-05
0.3340003,-5.235727E-05
0.3330003,-5.287841E-05
0.3320003,-5.343019E-05
0.3310003,-5.404329E-05
0.3300003,-5.456442E-05
0.3290003,-5.508555E-05
0.3280003,-5.563734E-05
0.3270003,-5.618912E-05
0.3260003,-5.683288E-05
0.3250003,-5.732335E-05
0.3240003,-5.778318E-05
0.3230003,-5.842693E-05
0.3220003,-5.888675E-05
0.3210003,-5.949985E-05
0.3200003,-6.005164E-05
0.3190003,-6.060342E-05
0.3180003,-6.112456E-05
0.3170003,-6.17683E-05
0.3160003,-6.232009E-05
0.3150003,-6.284122E-05
0.3140003,-6.345432E-05
0.3130003,-6.403676E-05
0.3120003,-6.452724E-05
0.3110003,-6.514033E-05
0.3100003,-6.572278E-05
0.3090003,-6.624391E-05
0.3080003,-6.682635E-05
0.3070003,-6.750075E-05
0.3060003,-6.802189E-05
0.3050003,-6.857367E-05
0.3040003,-6.915612E-05
0.3030003,-6.964659E-05
0.3020003,-7.019839E-05
0.3010003,-7.071951E-05
0.3000003,-7.114868E-05
0.2990003,-7.176178E-05
0.2980003,-7.234422E-05
0.2970003,-7.28347E-05
0.2960003,-7.332517E-05
0.2950003,-7.403023E-05
0.2940003,-7.452071E-05
0.2930003,-7.510315E-05
0.2920003,-7.57469E-05
0.2910003,-7.620673E-05
0.2900003,-7.675852E-05
0.2890003,-7.737162E-05
0.2880003,-7.777012E-05
0.2870003,-7.822995E-05
0.2860003,-7.884304E-05
0.2850003,-7.930287E-05
0.2840003,-7.991596E-05
0.2830003,-8.046775E-05
0.2820003,-8.095823E-05
0.2810003,-8.151001E-05
0.2800003,-8.20618E-05
0.2790003,-8.267489E-05
0.2780003,-8.322668E-05
0.2770003,-8.377847E-05
0.2760003,-8.433026E-05
0.2750003,-8.482073E-05
0.2740003,-8.534187E-05
0.2730003,-8.592431E-05
0.2720003,-8.635347E-05
0.2710003,-8.684395E-05
0.2700003,-8.742639E-05
0.2690003,-8.785557E-05
0.2680003,-8.840735E-05
0.2670003,-8.895914E-05
0.2660003,-8.948027E-05
0.2650003,-9.006271E-05
0.2640003,-9.064515E-05
0.2630003,-9.113563E-05
0.2620003,-9.162611E-05
0.2610003,-9.214724E-05
0.2600003,-9.276033E-05
0.2590003,-9.331212E-05
0.2580003,-9.383325E-05
0.2570003,-9.4477E-05
0.2560003,-9.496748E-05
0.2550003,-9.548861E-05
0.2540003,-9.607105E-05
0.2530003,-9.643891E-05
0.2520003,-9.692939E-05
0.2510003,-9.745052E-05
0.2500003,-9.80023E-05
0.2490003,-9.85541E-05
0.2480003,-9.910588E-05
0.2470003,-9.965767E-05
0.2460003,-0.0001001788
0.2450003,-0.0001008226
0.2440003,-0.0001013437
0.2430003,-0.0001018035
0.2420003,-0.000102202
0.2410003,-0.0001028151
0.2400003,-0.0001032136
0.2390003,-0.0001038267
0.2380003,-0.0001044398
0.2370003,-0.000104869
0.2360003,-0.0001055741
0.2350003,-0.0001060952
0.2340003,-0.0001065244
0.2330003,-0.0001070148
0.2320003,-0.0001074747
0.2310003,-0.0001079958
0.2300003,-0.0001085782
0.2290003,-0.00010913
0.2280003,-0.0001096511
0.2270003,-0.0001102336
0.2260003,-0.0001107547
0.2250003,-0.0001112145
0.2240003,-0.0001116437
0.2230003,-0.0001122568
0.2220003,-0.0001127473
0.2210003,-0.0001132378
0.2200003,-0.0001138202
0.2190003,-0.0001144333
0.2180003,-0.0001149851
0.2170003,-0.0001155369
0.2160003,-0.0001159967
0.2150003,-0.0001164259
0.2140003,-0.0001168857
0.2130003,-0.0001174375
0.2120003,-0.0001179893
0.2110003,-0.0001185104
0.2100003,-0.0001190928
0.2090003,-0.0001195833
0.2080003,-0.0001201351
0.2070003,-0.0001207175
0.2060003,-0.0001212387
0.2050003,-0.0001216985
0.2040003,-0.0001222196
0.2030003,-0.0001226488
0.2020003,-0.0001231086
0.2010003,-0.0001236911
0.2000003,-0.0001241815
0.1990003,-0.0001247027
0.1980003,-0.0001252851
0.1970003,-0.0001258675
0.1960003,-0.0001263887
0.1950003,-0.0001269098
0.1940003,-0.0001274309
0.1930003,-0.0001278908
0.1920003,-0.000128228
0.1910003,-0.0001287491
0.1900003,-0.0001293315
0.1890003,-0.0001297914
0.1880003,-0.0001303738
0.1870003,-0.0001308949
0.1860003,-0.0001314161
0.1850003,-0.0001319679
0.1840003,-0.0001324583
0.1830003,-0.0001329488
0.1820003,-0.0001335006
0.1810003,-0.0001338991
0.1800003,-0.000134267
0.1790003,-0.0001347881
0.1780003,-0.0001353399
0.1770003,-0.0001357997
0.1760003,-0.0001363515
0.1750003,-0.000136842
0.1740003,-0.0001373325
0.1730003,-0.0001379455
0.1720003,-0.000138436
0.1710003,-0.0001388652
0.1700003,-0.0001394476
0.1690003,-0.0001399688
0.1680003,-0.0001403366
0.1670003,-0.0001408578
0.1660003,-0.0001413176
0.1650003,-0.0001416855
0.1640003,-0.0001422679
0.1630003,-0.0001428197
0.1620003,-0.0001432182
0.1610003,-0.0001437087
0.1600003,-0.0001442298
0.1590003,-0.0001446896
0.1580003,-0.0001452108
0.1570003,-0.0001457319
0.1560003,-0.0001462837
0.1550003,-0.0001467741
0.1540003,-0.000147234
0.1530003,-0.0001476018
0.1520003,-0.0001480923
0.1510003,-0.0001485521
0.1500003,-0.0001490426
0.1490003,-0.0001494411
0.1480003,-0.0001499316
0.1470003,-0.0001504221
0.1460003,-0.0001507593
0.1450003,-0.0001513724
0.1440003,-0.0001518628
0.1430003,-0.0001522614
0.1420003,-0.0001527212
0.1410003,-0.000153273
0.1400003,-0.0001536408
0.1390003,-0.0001541313
0.1380003,-0.0001546524
0.1370003,-0.0001551123
0.1360003,-0.0001555414
0.1350003,-0.0001560932
0.1340003,-0.0001565837
0.1330003,-0.0001569515
0.1320003,-0.0001575033
0.1310003,-0.0001578712
0.1300003,-0.000158331
0.1290003,-0.0001587602
0.1280003,-0.0001590667
0.1270003,-0.0001595572
0.1260003,-0.0001600477
0.1250003,-0.0001604462
0.1240003,-0.000160998
0.1230003,-0.0001614271
0.1220003,-0.0001618563
0.1210003,-0.0001623774
0.1200003,-0.0001628066
0.1190003,-0.0001632358
0.1180003,-0.0001636036
0.1170003,-0.0001640022
0.1160003,-0.000164462
0.1150003,-0.0001647992
0.1140003,-0.0001652897
0.1130003,-0.0001658108
0.1120003,-0.000166148
0.1110003,-0.0001666691
0.1100003,-0.0001671596
0.1090003,-0.0001675275
0.1080003,-0.0001680486
0.1070003,-0.0001684471
0.1060003,-0.0001686923
0.1050003,-0.0001690909
0.1040003,-0.0001694281
0.1030003,-0.0001698879
0.1020003,-0.0001703171
0.1010003,-0.0001707769
0.1000003,-0.0001710834
0.09900028,-0.0001715739
0.09800029,-0.0001720031
0.09700029,-0.0001724629
0.09600028,-0.0001728001
0.09500029,-0.0001733212
0.09400029,-0.0001735665
0.09300029,-0.000173873
0.09200028,-0.0001743022
0.09100029,-0.0001746394
0.09000029,-0.0001750379
0.08900028,-0.0001754977
0.08800028,-0.0001758656
0.08700029,-0.0001762028
0.08600029,-0.0001766933
0.08500028,-0.0001769691
0.08400029,-0.0001772757
0.08300029,-0.0001776129
0.08200029,-0.0001779194
0.08100028,-0.0001782873
0.08000029,-0.0001786858
0.07900029,-0.0001790537
0.07800028,-0.0001793602
0.07700028,-0.0001796974
0.07600029,-0.0001800346
0.07500029,-0.0001804025
0.07400028,-0.0001807397
0.07300029,-0.0001810769
0.07200029,-0.0001811995
0.07100029,-0.0001815367
0.07000028,-0.0001818739
0.06900029,-0.0001820885
0.06800029,-0.000182395
0.06700028,-0.0001827629
0.06600028,-0.0001830695
0.06500029,-0.0001833453
0.06400029,-0.0001836826
0.06300028,-0.0001839584
0.06200029,-0.0001840811
0.06100029,-0.0001844796
0.06000029,-0.0001846635
0.05900029,-0.0001848474
0.05800029,-0.0001851233
0.05700029,-0.0001853379
0.05600028,-0.0001853686
0.05500029,-0.0001856751
0.05400028,-0.0001858284
0.05300029,-0.000185951
0.05200029,-0.0001862269
0.05100029,-0.0001864108
0.05000029,-0.0001864415
0.04900029,-0.0001866867
0.04800029,-0.00018684
0.04700029,-0.000186932
0.04600029,-0.0001871159
0.04500028,-0.0001872079
0.04400029,-0.0001872998
0.04300028,-0.0001873305
0.04200029,-0.0001874531
0.04100028,-0.0001876064
0.04000029,-0.000187637
0.03900029,-0.000187637
0.03800029,-0.0001876677
0.03700029,-0.0001876064
0.03600029,-0.0001875757
0.03500029,-0.0001874837
0.03400028,-0.0001873918
0.03300029,-0.0001873305
0.03200028,-0.0001872385
0.03100029,-0.0001871159
0.03000029,-0.0001869933
0.02900029,-0.000186932
0.02800029,-0.0001866561
0.02700029,-0.0001866254
0.02600029,-0.0001863495
0.02500029,-0.0001860736
0.02400029,-0.000185859
0.02300029,-0.0001855832
0.02200029,-0.0001851846
0.02100029,-0.0001850927
0.02000029,-0.0001846635
0.01900029,-0.000184173
0.01800029,-0.0001839278
0.01700029,-0.0001834986
0.01600029,-0.0001829775
0.01500029,-0.000182487
0.01400029,-0.0001820578
0.01300029,-0.0001814141
0.01200029,-0.0001809849
0.01100029,-0.0001803718
0.01000029,-0.0001795748
0.009000286,-0.0001789924
0.008000286,-0.0001783486
0.007000286,-0.0001775822
0.006000286,-0.0001768465
0.005000286,-0.0001761721
0.004000286,-0.0001752218
0.003000286,-0.0001744248
0.002000286,-0.0001735358
0.001000286,-0.0001725548
2.861023E-07,-0.0001693361
0.0009997139,-0.0001666998
0.001999714,-0.0001642474
0.002999714,-0.0001619789
0.003999714,-0.0001598024
0.004999714,-0.0001576259
0.005999714,-0.000155664
0.006999714,-0.0001536408
0.007999714,-0.0001518628
0.008999714,-0.0001500849
0.009999714,-0.0001483069
0.01099971,-0.0001466209
0.01199971,-0.0001449655
0.01299971,-0.0001434021
0.01399971,-0.0001419307
0.01499971,-0.0001404286
0.01599971,-0.0001389265
0.01699971,-0.000137547
0.01799971,-0.0001361676
0.01899971,-0.0001347881
0.01999971,-0.0001334699
0.02099971,-0.0001322131
0.02199971,-0.0001308949
0.02299971,-0.0001296381
0.02399971,-0.0001284426
0.02499971,-0.0001271244
0.02599971,-0.0001260208
0.02699971,-0.000124764
0.02799971,-0.0001235071
0.02899971,-0.0001224036
0.02999971,-0.0001213306
0.03099971,-0.0001202577
0.03199971,-0.0001192155
0.03299971,-0.0001181425
0.03399972,-0.0001170083
0.03499971,-0.0001161193
0.03599972,-0.0001150771
0.03699971,-0.0001140348
0.03799972,-0.0001131765
0.03899971,-0.0001121648
0.03999971,-0.0001111839
0.04099971,-0.0001101416
0.04199971,-0.00010913
0.04299971,-0.0001081491
0.04399971,-0.0001071988
0.04499971,-0.0001063098
0.04599971,-0.0001054514
0.04699972,-0.0001045318
0.04799971,-0.0001036735
0.04899972,-0.0001028458
0.04999971,-0.0001018955
0.05099971,-0.0001010984
0.05199971,-0.0001002095
0.05299971,-9.928981E-05
0.05399971,-9.849279E-05
0.05499971,-9.76038E-05
0.05599971,-9.665349E-05
0.05699971,-9.579516E-05
0.05799972,-9.496748E-05
0.05899971,-9.41398E-05
0.05999972,-9.331212E-05
0.06099971,-9.25764E-05
0.06199971,-9.171807E-05
0.06299971,-9.092104E-05
0.06399971,-9.021599E-05
0.06499971,-8.932699E-05
0.06599972,-8.859127E-05
0.06699971,-8.788622E-05
0.06799971,-8.705854E-05
0.06899972,-8.623085E-05
0.06999972,-8.55871E-05
0.07099971,-8.479008E-05
0.07199971,-8.399305E-05
0.07299972,-8.331865E-05
0.07399971,-8.249097E-05
0.07499971,-8.175525E-05
0.07599971,-8.108085E-05
0.07699972,-8.031447E-05
0.07799971,-7.960942E-05
0.07899971,-7.890436E-05
0.07999972,-7.813798E-05
0.08099972,-7.749423E-05
0.08199971,-7.669721E-05
0.08299971,-7.605345E-05
0.08399972,-7.534839E-05
0.08499971,-7.461268E-05
0.08599971,-7.390762E-05
0.08699971,-7.320255E-05
0.08799972,-7.252815E-05
0.08899971,-7.182309E-05
0.08999971,-7.108737E-05
0.09099972,-7.047428E-05
0.09199972,-6.976922E-05
0.09299971,-6.90335E-05
0.09399971,-6.845106E-05
0.09499972,-6.765403E-05
0.09599971,-6.697963E-05
0.09699971,-6.642783E-05
0.09799971,-6.569213E-05
0.09899972,-6.504837E-05
0.09999971,-6.443528E-05
0.1009997,-6.376087E-05
0.1019997,-6.308646E-05
0.1029997,-6.241206E-05
0.1039997,-6.182961E-05
0.1049997,-6.118586E-05
0.1059997,-6.057277E-05
0.1069997,-5.992902E-05
0.1079997,-5.925461E-05
0.1089997,-5.867217E-05
0.1099997,-5.802842E-05
0.1109997,-5.738466E-05
0.1119997,-5.680222E-05
0.1129997,-5.621978E-05
0.1139997,-5.554538E-05
0.1149997,-5.493228E-05
0.1159997,-5.434984E-05
0.1169997,-5.373674E-05
0.1179997,-5.31543E-05
0.1189997,-5.247989E-05
0.1199997,-5.189745E-05
0.1209997,-5.131501E-05
0.1219997,-5.073257E-05
0.1229997,-5.015012E-05
0.1239997,-4.956769E-05
0.1249997,-4.90159E-05
0.1259997,-4.843346E-05
0.1269997,-4.785102E-05
0.1279997,-4.732988E-05
0.1289997,-4.671679E-05
0.1299997,-4.619566E-05
0.1309997,-4.567452E-05
0.1319997,-4.512274E-05
0.1329997,-4.454029E-05
0.1339997,-4.404982E-05
0.1349997,-4.349803E-05
0.1359997,-4.29769E-05
0.1369997,-4.239445E-05
0.1379997,-4.187332E-05
0.1389997,-4.138285E-05
0.1399997,-4.080041E-05
0.1409997,-4.030993E-05
0.1419997,-3.97888E-05
0.1429997,-3.926766E-05
0.1439997,-3.868522E-05
0.1449997,-3.825605E-05
0.1459997,-3.770427E-05
0.1469997,-3.721379E-05
0.1479997,-3.660069E-05
0.1489997,-3.620218E-05
0.1499997,-3.561974E-05
0.1509997,-3.509861E-05
0.1519997,-3.463879E-05
0.1529997,-3.411765E-05
0.1539997,-3.353521E-05
0.1549997,-3.304473E-05
0.1559997,-3.25236E-05
0.1569997,-3.203312E-05
0.1579997,-3.151199E-05
0.1589997,-3.099086E-05
0.1599997,-3.050039E-05
0.1609997,-3.004056E-05
0.1619997,-2.958074E-05
0.1629997,-2.909026E-05
0.1639997,-2.859978E-05
0.1649997,-2.813996E-05
0.1659997,-2.761883E-05
0.1669997,-2.712835E-05
0.1679997,-2.666853E-05
0.1689997,-2.620871E-05
0.1699997,-2.568758E-05
0.1709997,-2.528906E-05
0.1719997,-2.473728E-05
0.1729997,-2.430811E-05
0.1739997,-2.387894E-05
0.1749997,-2.335781E-05
0.1759997,-2.292864E-05
0.1769997,-2.243817E-05
0.1779997,-2.191703E-05
0.1789997,-2.145721E-05
0.1799997,-2.093608E-05
0.1809997,-2.035364E-05
0.1819997,-1.992447E-05
0.1829997,-1.940334E-05
0.1839997,-1.891286E-05
0.1849997,-1.848369E-05
0.1859997,-1.799321E-05
0.1869997,-1.747208E-05
0.1879997,-1.707357E-05
0.1889997,-1.652178E-05
0.1899997,-1.609262E-05
0.1909997,-1.560214E-05
0.1919997,-1.517297E-05
0.1929997,-1.462118E-05
0.1939997,-1.416136E-05
0.1949997,-1.367088E-05
0.1959997,-1.349107E-05
0.1969997,-1.301286E-05
0.1979997,-1.253771E-05
0.1989997,-1.201044E-05
0.1999997,-1.158741E-05
0.2009997,-1.110306E-05
0.2019997,-1.065857E-05
0.2029997,-1.018648E-05
0.2039997,-9.63776E-06
0.2049997,-9.147283E-06
0.2059997,-8.678265E-06
0.2069997,-8.184722E-06
0.2079997,-7.721834E-06
0.2089997,-7.240553E-06
0.2099997,-6.722486E-06
0.2109997,-6.235075E-06
0.2119997,-5.784449E-06
0.2129997,-5.251055E-06
0.2139997,-4.77897E-06
0.2149997,-4.313017E-06
0.2159997,-3.794951E-06
0.2169997,-3.319801E-06
0.2179997,-2.780276E-06
0.2189997,-2.338846E-06
0.2199997,-1.790125E-06
0.2209997,-1.333368E-06
0.2219997,-8.061051E-07
0.2229997,-3.309554E-07
0.2239997,1.717838E-07
0.2249997,6.438681E-07
0.2259997,1.177262E-06
0.2269997,1.670805E-06
0.2279997,2.188871E-06
0.2289997,2.703872E-06
0.2299997,3.142236E-06
0.2309997,3.663368E-06
0.2319997,4.21209E-06
0.2329997,4.668846E-06
0.2339997,5.180782E-06
0.2349997,5.631408E-06
0.2359997,6.235308E-06
0.2369997,6.664476E-06
0.2379997,7.130429E-06
0.2389997,7.627037E-06
0.2399997,8.151234E-06
0.2409997,8.580402E-06
0.2419997,9.126058E-06
0.2429997,9.650255E-06
0.2439997,1.024496E-05
0.2449997,1.071398E-05
0.2459997,1.129029E-05
0.2469997,1.18666E-05
0.2479997,1.233868E-05
0.2489997,1.28874E-05
0.2499997,1.339934E-05
0.2509997,1.390208E-05
0.2519997,1.449985E-05
0.2529997,1.493515E-05
0.2539997,1.546854E-05
0.2549997,1.600194E-05
0.2559997,1.650161E-05
0.2569997,1.701048E-05
0.2579997,1.756226E-05
0.2589997,1.804048E-05
0.2599997,1.860146E-05
0.2609997,1.909194E-05
0.2619997,1.960081E-05
0.2629997,2.014647E-05
0.2639997,2.068906E-05
0.2649997,2.121326E-05
0.2659997,2.179263E-05
0.2669997,2.23107E-05
0.2679997,2.286555E-05
0.2689997,2.345412E-05
0.2699997,2.398752E-05
0.2709997,2.457609E-05
0.2719997,2.517693E-05
0.2729997,2.605777E-05
0.2739997,2.660956E-05
0.2749997,2.716134E-05
0.2759997,2.78051E-05
0.2769997,2.826491E-05
0.2779997,2.878605E-05
0.2789997,2.936849E-05
0.2799997,2.992028E-05
0.2809997,3.050272E-05
0.2819997,3.10545E-05
0.2829997,3.157564E-05
0.2839997,3.209677E-05
0.2849997,3.274052E-05
0.2859997,3.329231E-05
0.2869997,3.381344E-05
0.2879997,3.442654E-05
0.2889997,3.494767E-05
0.2899997,3.549946E-05
0.2909997,3.605124E-05
0.2919997,3.663368E-05
0.2929997,3.721613E-05
0.2939997,3.773726E-05
0.2949997,3.83197E-05
0.2959997,3.887149E-05
0.2969997,3.945393E-05
0.2979997,4.009768E-05
0.2989997,4.061881E-05
0.2999997,4.126256E-05
0.3009997,4.190631E-05
0.3019997,4.248875E-05
0.3029997,4.310185E-05
0.3039997,4.37456E-05
0.3049997,4.426674E-05
0.3059997,4.484918E-05
0.3069997,4.552358E-05
0.3079997,4.607537E-05
0.3089997,4.668847E-05
0.3099997,4.724025E-05
0.3109997,4.782269E-05
0.3119997,4.840514E-05
0.3129997,4.898758E-05
0.3139997,4.963133E-05
0.3149997,5.009115E-05
0.3159997,5.076556E-05
0.3169997,5.128669E-05
0.3179997,5.193044E-05
0.3189997,5.254354E-05
0.3199997,5.315664E-05
0.3209997,5.376973E-05
0.3219997,5.447479E-05
0.3229997,5.505723E-05
0.3239997,5.567033E-05
0.3249997,5.637539E-05
0.3259997,5.698849E-05
0.3269997,5.760158E-05
0.3279997,5.821468E-05
0.3289997,5.882777E-05
0.3299997,5.947153E-05
0.3309997,6.008463E-05
0.3319997,6.069772E-05
0.3329997,6.131082E-05
0.3339997,6.189326E-05
0.3349997,6.253702E-05
0.3359997,6.315011E-05
0.3369997,6.382452E-05
0.3379997,6.446827E-05
0.3389997,6.49894E-05
0.3399997,6.563315E-05
0.3409997,6.624625E-05
0.3419997,6.682868E-05
0.3429997,6.753375E-05
0.3439997,6.814684E-05
0.3449997,6.869863E-05
0.3459997,6.940369E-05
0.3469997,7.001679E-05
0.3479997,7.07525E-05
0.3489997,7.139625E-05
0.3499997,7.207066E-05
0.3509997,7.274507E-05
0.3519997,7.341948E-05
0.3529997,7.406323E-05
0.3539997,7.467632E-05
0.3549997,7.532007E-05
0.3559997,7.596382E-05
0.3569997,7.657692E-05
0.3579997,7.728198E-05
0.3589997,7.783377E-05
0.3599997,7.847752E-05
0.3609997,7.918258E-05
0.3619997,7.976502E-05
0.3629997,8.037812E-05
0.3639997,8.12058E-05
0.3649997,8.172693E-05
0.3659997,8.240134E-05
0.3669997,8.319836E-05
0.3679997,8.384211E-05
0.3689997,8.451652E-05
0.3699997,8.522158E-05
0.3709997,8.586534E-05
0.3719997,8.647843E-05
0.3729997,8.727545E-05
0.3739997,8.779659E-05
0.3749997,8.850165E-05
0.3759997,8.917606E-05
0.3769997,8.985046E-05
0.3779997,9.055552E-05
0.3789997,9.110731E-05
0.3799997,9.190433E-05
0.3809997,9.251742E-05
0.3819997,9.316118E-05
0.3829997,9.386624E-05
0.3839997,9.441803E-05
0.3849997,9.515374E-05
0.3859997,9.585881E-05
0.3869997,9.64719E-05
0.3879997,9.717696E-05
0.3889997,9.788202E-05
0.3899997,9.852578E-05
0.3909997,9.93228E-05
0.3919997,0.0001000279
0.3929997,0.0001007023
0.3939997,0.000101438
0.3949997,0.000102143
0.3959997,0.0001027868
0.3969997,0.0001035838
0.3979997,0.0001042276
0.3989997,0.0001049939
0.3999997,0.0001056683
0.4009997,0.0001063734
0.4019997,0.0001070478
0.4029997,0.0001077222
0.4039997,0.0001085192
0.4049997,0.0001091323
0.4059997,0.0001098374
0.4069997,0.0001106651
0.4079997,0.0001112782
0.4089997,0.0001119526
0.4099997,0.0001127189
0.4109997,0.000113424
0.4119997,0.0001141291
0.4129997,0.0001148035
0.4139997,0.0001155698
0.4149997,0.0001162443
0.4159997,0.0001170106
0.4169997,0.0001177157
0.4179997,0.0001184514
0.4189997,0.0001191258
0.4199997,0.0001198615
0.4209997,0.0001205972
0.4219997,0.0001212717
0.4229997,0.000122038
0.4239997,0.0001226818
0.4249997,0.0001234175
0.4259997,0.0001242452
0.4269997,0.0001248583
0.4279997,0.000125594
0.4289997,0.000126391
0.4299997,0.0001270041
0.4309997,0.0001277705
0.4319997,0.0001285675
0.4329997,0.0001292419
0.4339997,0.0001300083
0.4349997,0.0001307133
0.4359997,0.0001314797
0.4369997,0.0001322461
0.4379997,0.0001330738
0.4389997,0.0001338095
0.4399997,0.0001346065
0.4409997,0.0001354035
0.4419997,0.0001362006
0.4429997,0.0001369363
0.4439997,0.000137764
0.4449997,0.0001385303
0.4459997,0.000139266
0.4469997,0.0001400937
0.4479997,0.0001406761
0.4489997,0.0001414732
0.4499997,0.0001422702
0.4509997,0.0001430059
0.4519997,0.0001438029
0.4529997,0.0001446306
0.4539997,0.0001453663
0.4549997,0.000146194
0.4559997,0.0001470217
0.4569997,0.0001478494
0.4579997,0.0001486158
0.4589997,0.0001494434
0.4599997,0.0001503324
0.4609997,0.0001510375
0.4619997,0.0001519571
0.4629997,0.0001527848
0.4639997,0.0001534899
0.4649997,0.0001543789
0.4659997,0.0001553292
0.4669997,0.0001560649
0.4679997,0.0001569845
0.4689997,0.0001578735
0.4699997,0.0001585479
0.4709997,0.0001595289
0.4719997,0.0001603872
0.4729997,0.0001611842
0.4739997,0.0001621652
0.4749997,0.0001630542
0.4759997,0.0001639125
0.4769997,0.0001647709
0.4779997,0.0001656598
0.4789997,0.0001665795
0.4799997,0.0001675298
0.4809997,0.000168572
0.4819997,0.000169461
0.4829997,0.0001703807
0.4839997,0.0001713923
0.4849997,0.0001721893
0.4859997,0.0001731703
0.4869997,0.0001742738
0.4879997,0.0001751322
0.4889997,0.0001761438
0.4899997,0.0001772474
0.4909997,0.000178075
0.4919997,0.0001791786
0.4929997,0.0001802209
0.4939997,0.0001811099
0.4949997,0.0001822748
0.4959997,0.000183317
0.4969997,0.000184298
0.4979997,0.0001854322
0.4989997,0.0001865971
0.4999997,0.0001877313
0.5009997,0.0001886816
0.5019997,0.0001898771
0.5029997,0.0001910114
0.5039997,0.0001920536
0.5049997,0.0001932798
0.5059997,0.0001944754
0.5069997,0.0001956403
0.5079997,0.0001969584
0.5089997,0.000198154
0.5099997,0.0001992882
0.5109997,0.0002006063
0.5119997,0.0002018939
0.5129997,0.0002030894
0.5139997,0.0002045302
0.5149997,0.000205879
0.5159997,0.0002072278
0.5169997,0.0002085459
0.5179997,0.0002101093
0.5189997,0.0002114275
0.5199997,0.0002128376
0.5209997,0.0002145849
0.5219997,0.0002159644
0.5229997,0.0002175585
0.5239997,0.0002194284
0.5249997,0.0002208692
0.5259997,0.0002224939
0.5269997,0.0002243332
0.5279997,0.0002259272
0.5289997,0.0002276133
0.5299997,0.0002296978
0.5309997,0.0002314145
0.5319997,0.0002331924
0.5329997,0.0002353076
0.5339997,0.0002371162
0.5349997,0.0002392314
0.5359997,0.0002414386
0.5369997,0.0002434618
0.5379997,0.0002458222
0.5389997,0.000248152
0.5399997,0.0002506657
0.5409997,0.0002530874
0.5419997,0.0002557237
0.5429997,0.0002586053
0.5439997,0.0002612109
0.5449997,0.0002641845
0.5459997,0.0002673726
0.5469997,0.0002701622
0.5479997,0.0002737488
0.5489997,0.0002771821
0.5499997,0.0002804622
0.5509997,0.0002846312
0.5519997,0.0002883405
0.5529997,0.0002922949
0.5539997,0.0002998159
0.5549997,0.0003041076
0.5559997,0.0003090123
0.5569997,0.0003139171
0.5579997,0.000319435
0.5589997,0.0003249529
0.5599997,0.0003310838
0.5609997,0.0003375213
0.5619997,0.0003439588
0.5629997,0.000351316
0.5639997,0.0003592863
0.5649997,0.00036695
0.5659997,0.0003755333
0.5669997,0.0003853429
0.5679997,0.0003948459
0.5689997,0.0004055751
0.5699997,0.0004172239
0.5709997,0.0004285662
0.5719997,0.0004420543
0.5729997,0.0004555424
0.5739997,0.0004702567
0.5749997,0.0004861972
0.5759997,0.0005033639
0.5769997,0.0005214503
0.5779997,0.0005410694
0.5789997,0.0005616081
0.5799997,0.0005842927
0.5809997,0.0006078969
0.5819997,0.0006336469
0.5829997,0.0006615429
0.5839997,0.0006903584
0.5849997,0.0007216263
0.5859997,0.0007553466
0.5869997,0.0007905997
0.5879997,0.0008292248
0.5889997,0.0008690761
0.5899997,0.0009119928
0.5909997,0.0009582816
0.5919997,0.001007023
0.5929997,0.001058523
0.5939997,0.001114008
0.5949997,0.001172252
0.5959997,0.001234175
0.5969997,0.00129947
0.5979997,0.001369056
0.5989997,0.001442015
0.5999997,0.001518958
0.6009997,0.00160142
0.6019997,0.00168756
0.6029997,0.001777685
0.6039997,0.001874248
0.6049997,0.001973263
0.6059997,0.002077489
0.6069997,0.002188766
0.6079997,0.002303722
0.6089997,0.002423889
0.6099997,0.0025508
0.6109997,0.002681696
0.6119997,0.002819949
0.6129997,0.002963107
0.6139997,0.003139171
0.6149997,0.003292445
0.6159997,0.00345185
0.6169997,0.003617386
0.6179997,0.003789053
0.6189997,0.003969917
0.6199997,0.004153845
0.6209997,0.00434084
0.6219997,0.004540097
0.6229997,0.004742418
0.6239997,0.004947806
0.6249997,0.005162389
0.6259997,0.005383104
0.6269997,0.005603819
0.6279997,0.005839861
0.6289997,0.006072837
0.6299997,0.006311945
0.6309997,0.006563315
0.6319997,0.006814685
0.6329997,0.007072185
0.6339997,0.007335817
0.6349997,0.007602513
0.6359997,0.007875342
0.6369997,0.0081543
0.6379997,0.008436324
0.6389997,0.008721415
0.6399997,0.00900957
0.6409997,0.009309988
0.6419997,0.009607339
0.6429997,0.009910822
0.6439997,0.01022043
0.6449997,0.01053005
0.6459997,0.01084579
0.6469997,0.01117073
0.6479997,0.01148954
0.6489997,0.01182062
0.6499997,0.01214862
0.6509997,0.01248276
0.6519997,0.01281996
0.6529997,0.01316023
0.6539997,0.0135097
0.6549997,0.01384997
0.6559997,0.01419637
0.6569997,0.01455503
0.6579997,0.01490449
0.6589997,0.01526009
0.6599997,0.01562488
0.6609997,0.01598048
0.6619997,0.01634527
0.6629997,0.01671313
0.6639997,0.01707792
0.6649997,0.01745191
0.6659997,0.01782896
0.6669997,0.01819682
0.6679997,0.01857694
0.6689997,0.01894786
0.6699997,0.01932798
0.6709997,0.01971423
0.6719997,0.02009436
0.6729997,0.02047448
0.6739997,0.02086379
0.6749997,0.02125004
0.6759997,0.02163936
0.6769997,0.02203174
0.6779997,0.02242719
0.6789997,0.02281344
0.6799997,0.02320888
0.6809997,0.02360433
0.6819997,0.02399365
0.6829997,0.02439523
0.6839997,0.0247968
0.6849997,0.02518612
0.6859997,0.0255969
0.6869997,0.0260046
0.6879997,0.02640312
0.6889997,0.02681083
0.6899997,0.02721854
0.6909997,0.02762011
0.6919997,0.02802783
0.6929997,0.02844779
0.6939997,0.0288555
0.6949997,0.02926322
0.6959997,0.02968012
0.6969997,0.03009396
0.6979997,0.03123844
0.6989997,0.03163695
0.6999997,0.03179022
0.6990004,0.03148368
0.6980004,0.03114647
0.6970004,0.03080927
0.6960004,0.03047206
0.6950004,0.03013486
0.6940004,0.02979766
0.6930004,0.0294298
0.6920004,0.0290926
0.6910004,0.02878605
0.6900004,0.02841819
0.6890004,0.02808099
0.6880004,0.02774378
0.6870004,0.02740658
0.6860004,0.02706938
0.6850004,0.02673218
0.6840004,0.02636432
0.6830004,0.02602712
0.6820004,0.02568991
0.6810004,0.02535271
0.6800004,0.02501551
0.6790004,0.0246783
0.6780004,0.0243411
0.6770004,0.0240039
0.6760004,0.02366669
0.6750004,0.02332949
0.6740004,0.02299229
0.6730004,0.02265508
0.6720004,0.02231788
0.6710004,0.02198068
0.6700004,0.02167413
0.6690004,0.02133693
0.6680004,0.02099972
0.6670004,0.02066252
0.6660004,0.02032532
0.6650004,0.02001877
0.6640004,0.01968157
0.6630004,0.01937502
0.6620004,0.01903781
0.6610004,0.01873127
0.6600004,0.01842472
0.6590004,0.01811817
0.6580004,0.01778097
0.6570004,0.01747442
0.6560004,0.01716787
0.6550004,0.01686132
0.6540004,0.01655477
0.6530004,0.01624822
0.6520004,0.01594168
0.6510004,0.01563513
0.6500004,0.01532858
0.6490004,0.01502203
0.6480004,0.01471548
0.6470004,0.01440894
0.6460004,0.01410239
0.6450004,0.01382649
0.6440004,0.01351995
0.6430004,0.01324405
0.6420004,0.01249502
0.6410004,0.012213
0.6400004,0.01193711
0.6390004,0.01166121
0.6380004,0.01138532
0.6370004,0.01111862
0.6360004,0.01084579
0.6350004,0.0105791
0.6340004,0.01031546
0.6330004,0.0100549
0.6320004,0.009794333
0.6310004,0.009539898
0.6300004,0.009288529
0.6290004,0.009037159
0.6280004,0.008788855
0.6270004,0.008546682
0.6260004,0.008301443
0.6250004,0.008065402
0.6240004,0.007832425
0.6230004,0.007596382
0.6220004,0.007369536
0.6210004,0.007142691
0.6200004,0.00691891
0.6190004,0.006701262
0.6180004,0.006483613
0.6170004,0.00627516
0.6160004,0.006063641
0.6150004,0.005858254
0.6140004,0.005655932
0.6130004,0.005459741
0.6120004,0.00526355
0.6110004,0.005073491
0.6100004,0.004889561
0.6090004,0.004708698
0.6080004,0.0045309
0.6070004,0.004353102
0.6060004,0.0041845
0.6050004,0.004018964
0.6040004,0.003856494
0.6030004,0.003697089
0.6020004,0.003543815
0.6010004,0.003393606
0.6000004,0.003249528
0.5990004,0.00310545
0.5980004,0.002967504
0.5970004,0.002835688
0.5960004,0.002706938
0.5950004,0.002581253
0.5940004,0.002458634
0.5930004,0.002342145
0.5920004,0.002228722
0.5910004,0.002118365
0.5900004,0.002017204
0.5890004,0.001916043
0.5880004,0.001817948
0.5870004,0.001725983
0.5860004,0.001637084
0.5850004,0.001551251
0.5840004,0.001468483
0.5830004,0.00138878
0.5820004,0.001315209
0.5810004,0.001216395
0.5800004,0.001148341
0.5790004,0.001083966
0.5780004,0.001022044
0.5770004,0.0009631864
0.5760004,0.0009077011
0.5750004,0.0008543617
0.5740004,0.0008050074
0.5730004,0.0007581055
0.5720004,0.0007127364
0.5710004,0.0006710459
0.5700004,0.0006311946
0.5690004,0.0005931826
0.5680004,0.0005585426
0.5670004,0.0005248223
0.5660004,0.0004935544
0.5650004,0.0004644323
0.5640004,0.000436843
0.5630004,0.0004107864
0.5620004,0.0003868756
0.5610004,0.000364191
0.5600004,0.0003430392
0.5590004,0.0003234201
0.5580004,0.0003050272
0.5570004,0.0002875539
0.5560004,0.0002713069
0.5550004,0.0002565926
0.5540004,0.0002424914
0.5530004,0.0002293098
0.5520004,0.0002173544
0.5510004,0.0002057056
0.5500004,0.0001952829
0.5490004,0.0001857799
0.5480004,0.0001759704
0.5470004,0.0001680001
0.5460004,0.0001600299
0.5450004,0.0001523662
0.5440004,0.0001456221
0.5430004,0.0001391846
0.5420004,0.0001330536
0.5410004,0.0001278423
0.5400004,0.0001190645
0.5390004,0.0001144969
0.5380004,0.0001099907
0.5370004,0.000105699
0.5360004,0.0001019898
0.5350004,9.80353E-05
0.5340004,9.45713E-05
0.5330004,9.141386E-05
0.5320004,8.825641E-05
0.5310004,8.537486E-05
0.5300004,8.289181E-05
0.5290004,8.037812E-05
0.5280004,7.80177E-05
0.5270004,7.587186E-05
0.5260004,7.369537E-05
0.5250004,7.170281E-05
0.5240004,6.992483E-05
0.5230004,6.814684E-05
0.5220004,6.658345E-05
0.5210004,6.49894E-05
0.5200004,6.348731E-05
0.5190004,6.195457E-05
0.5180004,6.063641E-05
0.5170004,5.931826E-05
0.5160004,5.790814E-05
0.5150004,5.67739E-05
0.5140004,5.554771E-05
0.5130004,5.438283E-05
0.5120004,5.330991E-05
0.5110004,5.22983E-05
0.5100004,5.128669E-05
0.5090004,5.048966E-05
0.5080004,4.941675E-05
0.5070004,4.861972E-05
0.5060004,4.782269E-05
0.5050004,4.693371E-05
0.5040004,4.613668E-05
0.5030004,4.537031E-05
0.5020004,4.463459E-05
0.5010004,4.380691E-05
0.5000004,4.297923E-05
0.4990004,4.230483E-05
0.4980004,4.153846E-05
0.4970004,4.077208E-05
0.4960004,4.006703E-05
0.4950004,3.930065E-05
0.4940004,3.859559E-05
0.4930004,3.79825E-05
0.4920004,3.718547E-05
0.4910004,3.660303E-05
0.4900004,3.586731E-05
0.4890004,3.51929E-05
0.4880004,3.464112E-05
0.4870004,3.396671E-05
0.4860004,3.332296E-05
0.4850004,3.264856E-05
0.4840004,3.203546E-05
0.4830004,3.151433E-05
0.4820004,3.083992E-05
0.4810004,3.013486E-05
0.4800004,2.961373E-05
0.4790004,2.890867E-05
0.4780004,2.832623E-05
0.4770004,2.768247E-05
0.4760004,2.706938E-05
0.4750004,2.648694E-05
0.4740004,2.587384E-05
0.4730004,2.519943E-05
0.4720004,2.461699E-05
0.4710004,2.403455E-05
0.4700004,2.336014E-05
0.4690004,2.280836E-05
0.4680004,2.21033E-05
0.4670004,2.155151E-05
0.4660004,2.093841E-05
0.4650004,2.029466E-05
0.4640004,1.974287E-05
0.4630004,1.909912E-05
0.4620004,1.851668E-05
0.4610004,1.787293E-05
0.4600004,1.729049E-05
0.4590004,1.667739E-05
0.4580004,1.60643E-05
0.4570004,1.542054E-05
0.4560004,1.486876E-05
0.4550004,1.425566E-05
0.4540004,1.358126E-05
0.4530004,1.299881E-05
0.4520004,1.235506E-05
0.4510004,1.171131E-05
0.4500004,1.109821E-05
0.4490004,1.009168E-05
0.4480004,9.463261E-06
0.4470004,8.837903E-06
0.4460004,8.175759E-06
0.4450004,7.433912E-06
0.4440004,6.820816E-06
0.4430004,6.140278E-06
0.4420004,5.511854E-06
0.4410004,4.779204E-06
0.4400004,4.264203E-06
0.4390004,3.473309E-06
0.4380004,2.84795E-06
0.4370004,2.222592E-06
0.4360004,1.523662E-06
0.4350004,9.16696E-07
0.4340004,2.913376E-07
0.4330004,-3.432173E-07
0.4320004,-9.471173E-07
0.4310004,-1.661375E-06
0.4300004,-2.271406E-06
0.4290004,-2.93355E-06
0.4280004,-3.617153E-06
0.4270004,-4.300755E-06
0.4260004,-4.923048E-06
0.4250004,-5.560668E-06
0.4240004,-6.219747E-06
0.4230004,-6.967725E-06
0.4220004,-7.571625E-06
0.4210004,-8.233769E-06
0.4200004,-8.917372E-06
0.4190004,-9.558057E-06
0.4180004,-1.02202E-05
0.4170004,-1.093753E-05
0.4160004,-1.15169E-05
0.4150004,-1.224036E-05
0.4140004,-1.289024E-05
0.4130004,-1.353399E-05
0.4120004,-1.426357E-05
0.4110004,-1.491959E-05
0.4100004,-1.562465E-05
0.4090004,-1.632971E-05
0.4080004,-1.692748E-05
0.4070004,-1.760188E-05
0.4060004,-1.831001E-05
0.4050004,-1.893537E-05
0.4040004,-1.963736E-05
0.4030004,-2.033323E-05
0.4020004,-2.099537E-05
0.4010004,-2.166671E-05
0.4000004,-2.236564E-05
0.3990004,-2.302472E-05
0.3980004,-2.371752E-05
0.3970004,-2.440725E-05
0.3960004,-2.507859E-05
0.3950004,-2.547299E-05
0.3940004,-2.617805E-05
0.3930004,-2.688312E-05
0.3920004,-2.752687E-05
0.3910004,-2.823193E-05
0.3900004,-2.887568E-05
0.3890004,-2.955008E-05
0.3880004,-3.02858E-05
0.3870004,-3.092955E-05
0.3860004,-3.166527E-05
0.3850004,-3.233967E-05
0.3840004,-3.295277E-05
0.3830004,-3.368848E-05
0.3820004,-3.436289E-05
0.3810004,-3.500664E-05
0.3800004,-3.577301E-05
0.3790004,-3.644742E-05
0.3780004,-3.709117E-05
0.3770004,-3.782689E-05
0.3760004,-3.847064E-05
0.3750004,-3.91757E-05
0.3740004,-3.988076E-05
0.3730004,-4.058582E-05
0.3720004,-4.132153E-05
0.3710004,-4.205725E-05
0.3700004,-4.267035E-05
0.3690004,-4.334476E-05
0.3680004,-4.401916E-05
0.3670004,-4.472422E-05
0.3660004,-4.542928E-05
0.3650004,-4.613434E-05
0.3640004,-4.683941E-05
0.3630004,-4.751381E-05
0.3620004,-4.818822E-05
0.3610004,-4.883197E-05
0.3600004,-4.950637E-05
0.3590004,-5.027275E-05
0.3580004,-5.09165E-05
0.3570004,-5.162156E-05
0.3560004,-5.232662E-05
0.3550004,-5.303168E-05
0.3540004,-5.367543E-05
0.3530004,-5.434984E-05
0.3520004,-5.505489E-05
0.3510004,-5.575996E-05
0.3500004,-5.640371E-05
0.3490004,-5.713943E-05
0.3480004,-5.787514E-05
0.3470004,-5.854955E-05
0.3460004,-5.925461E-05
0.3450004,-5.992902E-05
0.3440004,-6.060342E-05
0.3430004,-6.130848E-05
0.3420004,-6.20442E-05
0.3410004,-6.268795E-05
0.3400004,-6.336236E-05
0.3390004,-6.409807E-05
0.3380004,-6.477248E-05
0.3370004,-6.547754E-05
0.3360004,-6.609064E-05
0.3350004,-6.67957E-05
0.3340004,-6.750075E-05
0.3330004,-6.823648E-05
0.3320004,-6.897219E-05
0.3310004,-6.964659E-05
0.3300004,-7.041297E-05
0.3290004,-7.111803E-05
0.3280004,-7.173113E-05
0.3270004,-7.246684E-05
0.3260004,-7.314124E-05
0.3250004,-7.381565E-05
0.3240004,-7.458202E-05
0.3230004,-7.519512E-05
0.3220004,-7.583887E-05
0.3210004,-7.657459E-05
0.3200004,-7.73103E-05
0.3190004,-7.795405E-05
0.3180004,-7.865911E-05
0.3170004,-7.936417E-05
0.3160004,-7.997728E-05
0.3150004,-8.065168E-05
0.3140004,-8.132608E-05
0.3130004,-8.196984E-05
0.3120004,-8.264424E-05
0.3110004,-8.341061E-05
0.3100004,-8.40237E-05
0.3090004,-8.466746E-05
0.3080004,-8.537252E-05
0.3070004,-8.601627E-05
0.3060004,-8.672133E-05
0.3050004,-8.742639E-05
0.3040004,-8.803949E-05
0.3030004,-8.87139E-05
0.3020004,-8.944961E-05
0.3010004,-9.006271E-05
0.3000004,-9.085974E-05
0.2990004,-9.147283E-05
0.2980004,-9.211658E-05
0.2970004,-9.28523E-05
0.2960004,-9.352671E-05
0.2950004,-9.426242E-05
0.2940004,-9.493683E-05
0.2930004,-9.561123E-05
0.2920004,-9.622433E-05
0.2910004,-9.692939E-05
0.2900004,-9.769576E-05
0.2890004,-9.824755E-05
0.2880004,-9.892196E-05
0.2870004,-9.962702E-05
0.2860004,-0.0001001788
0.2850004,-0.0001008532
0.2840004,-0.0001016196
0.2830004,-0.0001022327
0.2820004,-0.0001028151
0.2810004,-0.0001035202
0.2800004,-0.0001041333
0.2790004,-0.0001048077
0.2780004,-0.0001056047
0.2770004,-0.0001061565
0.2760004,-0.0001068309
0.2750004,-0.000107536
0.2740004,-0.0001081491
0.2730004,-0.0001087928
0.2720004,-0.0001094366
0.2710004,-0.0001101416
0.2700004,-0.0001107854
0.2690004,-0.0001114598
0.2680004,-0.0001121955
0.2670004,-0.0001127779
0.2660004,-0.0001134217
0.2650004,-0.0001141267
0.2640004,-0.0001147705
0.2630004,-0.0001155675
0.2620004,-0.0001162113
0.2610004,-0.0001168244
0.2600004,-0.0001175294
0.2590004,-0.0001181119
0.2580004,-0.0001187863
0.2570004,-0.000119522
0.2560004,-0.0001201044
0.2550004,-0.0001207175
0.2540004,-0.0001213919
0.2530004,-0.000122005
0.2520004,-0.0001226181
0.2510004,-0.0001232619
0.2500004,-0.0001239056
0.2490004,-0.0001245494
0.2480004,-0.0001251931
0.2470004,-0.0001258675
0.2460004,-0.0001265113
0.2450004,-0.0001271857
0.2440004,-0.0001279214
0.2430004,-0.0001285652
0.2420004,-0.0001291783
0.2410004,-0.0001298527
0.2400004,-0.0001304045
0.2390004,-0.0001310176
0.2380004,-0.0001317226
0.2370004,-0.0001322437
0.2360004,-0.0001329182
0.2350004,-0.0001336232
0.2340004,-0.000134175
0.2330004,-0.0001347575
0.2320004,-0.0001354625
0.2310004,-0.0001361676
0.2300004,-0.0001366887
0.2290004,-0.000137547
0.2280004,-0.0001380988
0.2270004,-0.0001386813
0.2260004,-0.0001394476
0.2250004,-0.0001400914
0.2240004,-0.0001405512
0.2230004,-0.0001412869
0.2220004,-0.0001418694
0.2210004,-0.0001424518
0.2200004,-0.0001430956
0.2190004,-0.0001437087
0.2180004,-0.0001441991
0.2170004,-0.0001448429
0.2160004,-0.0001455786
0.2150004,-0.0001461304
0.2140004,-0.0001466822
0.2130004,-0.0001473259
0.2120004,-0.0001479084
0.2110004,-0.0001485828
0.2100004,-0.0001492265
0.2090004,-0.0001498703
0.2080004,-0.0001504834
0.2070004,-0.0001511578
0.2060004,-0.0001517709
0.2050004,-0.0001523227
0.2040004,-0.0001529664
0.2030004,-0.0001535182
0.2020004,-0.000154162
0.2010004,-0.0001547751
0.2000004,-0.0001552655
0.1990004,-0.0001558786
0.1980004,-0.0001564304
0.1970004,-0.0001570435
0.1960004,-0.0001575953
0.1950004,-0.0001582697
0.1940004,-0.0001588521
0.1930004,-0.0001593733
0.1920004,-0.0001599557
0.1910004,-0.0001605688
0.1900004,-0.0001610899
0.1890004,-0.0001617031
0.1880004,-0.0001621935
0.1870004,-0.0001628986
0.1860004,-0.000163481
0.1850004,-0.0001640022
0.1840004,-0.0001644926
0.1830004,-0.000165167
0.1820004,-0.0001657495
0.1810004,-0.0001663013
0.1800004,-0.0001669144
0.1790004,-0.0001675275
0.1780004,-0.0001680486
0.1770004,-0.000168631
0.1760004,-0.0001691828
0.1750004,-0.0001697959
0.1740004,-0.0001703477
0.1730004,-0.0001709608
0.1720004,-0.0001714819
0.1710004,-0.0001719417
0.1700004,-0.0001725855
0.1690004,-0.0001731373
0.1680004,-0.0001736278
0.1670004,-0.0001743022
0.1660004,-0.0001747927
0.1650004,-0.0001752218
0.1640004,-0.0001758962
0.1630004,-0.0001764174
0.1620004,-0.0001768772
0.1610004,-0.0001774903
0.1600004,-0.0001779807
0.1590004,-0.0001785019
0.1580004,-0.0001790843
0.1570004,-0.0001795748
0.1560004,-0.0001800959
0.1550004,-0.0001806784
0.1540004,-0.0001811382
0.1530004,-0.0001816593
0.1520004,-0.0001821192
0.1510004,-0.0001826709
0.1500004,-0.0001832534
0.1490004,-0.0001837439
0.1480004,-0.0001842957
0.1470004,-0.0001847248
0.1460004,-0.0001852153
0.1450004,-0.0001858284
0.1440004,-0.0001862576
0.1430004,-0.0001867787
0.1420004,-0.0001873918
0.1410004,-0.0001877903
0.1400004,-0.0001883421
0.1390004,-0.0001888939
0.1380004,-0.0001893843
0.1370004,-0.0001898748
0.1360004,-0.000190396
0.1350004,-0.0001908558
0.1340004,-0.0001913769
0.1330004,-0.0001918674
0.1320004,-0.0001924498
0.1310004,-0.0001928177
0.1300004,-0.0001933695
0.1290004,-0.0001939213
0.1280004,-0.0001942891
0.1270004,-0.000194749
0.1260004,-0.000195362
0.1250004,-0.0001956686
0.1240004,-0.000196251
0.1230004,-0.0001968335
0.1220004,-0.0001970787
0.1210004,-0.0001976612
0.1200004,-0.000198121
0.1190004,-0.0001985808
0.1180004,-0.0001991019
0.1170004,-0.0001995617
0.1160004,-0.0001999603
0.1150004,-0.000200512
0.1140004,-0.0002010638
0.1130004,-0.0002013704
0.1120004,-0.0002017689
0.1110004,-0.000202382
0.1100004,-0.0002027805
0.1090004,-0.000203179
0.1080004,-0.0002037001
0.1070004,-0.0002041293
0.1060004,-0.0002045278
0.1050004,-0.0002050796
0.1040004,-0.0002055394
0.1030004,-0.0002058766
0.1020004,-0.0002063365
0.1010004,-0.0002067963
0.1000004,-0.0002072561
0.09900038,-0.0002077466
0.09800038,-0.0002081758
0.09700038,-0.0002084516
0.09600038,-0.0002089728
0.09500038,-0.0002093713
0.09400038,-0.0002097085
0.09300038,-0.000210199
0.09200038,-0.0002106588
0.09100038,-0.0002109653
0.09000038,-0.0002113638
0.08900038,-0.000211885
0.08800038,-0.0002121915
0.08700038,-0.0002124674
0.08600038,-0.0002131418
0.08500038,-0.0002132031
0.08400038,-0.0002136936
0.08300038,-0.0002142454
0.08200038,-0.0002143987
0.08100038,-0.0002148278
0.08000038,-0.000215257
0.07900038,-0.0002155023
0.07800038,-0.0002159008
0.07700038,-0.0002163606
0.07600038,-0.0002165139
0.07500038,-0.0002169124
0.07400038,-0.0002172802
0.07300038,-0.0002175561
0.07200038,-0.000217832
0.07100038,-0.0002183531
0.07000038,-0.0002185064
0.06900038,-0.000218813
0.06800038,-0.0002192728
0.06700038,-0.0002194261
0.06600038,-0.0002197633
0.06500039,-0.0002201924
0.06400038,-0.0002203457
0.06300038,-0.0002207442
0.06200038,-0.0002210508
0.06100038,-0.0002212347
0.06000038,-0.0002214799
0.05900038,-0.0002217252
0.05800038,-0.0002220317
0.05700038,-0.0002222156
0.05600038,-0.0002225222
0.05500038,-0.0002227061
0.05400038,-0.0002228901
0.05300038,-0.0002231353
0.05200038,-0.0002234112
0.05100038,-0.0002234725
0.05000038,-0.0002236258
0.04900038,-0.000223871
0.04800038,-0.000223963
0.04700038,-0.0002241469
0.04600038,-0.0002242695
0.04500038,-0.0002243309
0.04400038,-0.0002245148
0.04300038,-0.0002246987
0.04200038,-0.000224668
0.04100038,-0.0002247293
0.04000038,-0.0002246987
0.03900038,-0.0002248826
0.03800038,-0.0002248826
0.03700038,-0.0002248826
0.03600038,-0.0002249133
0.03500038,-0.0002248213
0.03400038,-0.0002246987
0.03300038,-0.0002247907
0.03200038,-0.0002245761
0.03100038,-0.0002244228
0.03000038,-0.0002244228
0.02900038,-0.0002242389
0.02800038,-0.0002239936
0.02700038,-0.0002239323
0.02600038,-0.0002236564
0.02500038,-0.0002233192
0.02400038,-0.000223166
0.02300038,-0.0002229207
0.02200038,-0.0002224302
0.02100038,-0.0002222463
0.02000038,-0.0002219704
0.01900038,-0.0002214799
0.01800038,-0.0002212654
0.01700038,-0.0002208055
0.01600038,-0.0002202537
0.01500038,-0.0002198552
0.01400038,-0.0002192421
0.01300038,-0.0002186291
0.01200038,-0.0002183225
0.01100038,-0.0002174642
0.01000038,-0.0002168204
0.009000381,-0.000216146
0.008000381,-0.0002152877
0.007000382,-0.0002145213
0.006000381,-0.0002137856
0.005000381,-0.0002128353
0.004000382,-0.0002119769
0.003000381,-0.000211088
0.002000381,-0.000210015
0.001000381,-0.0002090341
3.814697E-07,-0.0002056314
0.0009996186,-0.0002025966
0.001999618,-0.0001997763
0.002999618,-0.00019714
0.003999618,-0.0001945957
0.004999619,-0.0001920513
0.005999619,-0.0001896602
0.006999618,-0.0001873305
0.007999619,-0.0001849394
0.008999619,-0.0001827629
0.009999619,-0.0001806784
0.01099962,-0.0001785325
0.01199962,-0.0001764787
0.01299962,-0.0001745781
0.01399962,-0.0001725855
0.01499962,-0.0001706542
0.01599962,-0.0001689989
0.01699962,-0.0001671596
0.01799962,-0.0001652897
0.01899962,-0.0001636649
0.01999962,-0.000161887
0.02099962,-0.0001602009
0.02199962,-0.0001586682
0.02299962,-0.0001569822
0.02399962,-0.0001553881
0.02499962,-0.0001540087
0.02599962,-0.0001525372
0.02699962,-0.0001509125
0.02799962,-0.0001495024
0.02899962,-0.000148031
0.02999962,-0.0001465289
0.03099962,-0.0001452108
0.03199962,-0.0001438619
0.03299962,-0.0001423598
0.03399962,-0.000141103
0.03499962,-0.0001397542
0.03599962,-0.0001383747
0.03699962,-0.0001371792
0.03799962,-0.000135861
0.03899962,-0.0001345429
0.03999962,-0.0001333473
0.04099962,-0.0001320905
0.04199962,-0.0001307723
0.04299962,-0.0001296994
0.04399962,-0.0001285039
0.04499962,-0.0001272777
0.04599962,-0.0001262047
0.04699962,-0.0001249786
0.04799962,-0.0001238137
0.04899962,-0.0001227101
0.04999962,-0.0001216372
0.05099962,-0.000120319
0.05199962,-0.0001192768
0.05299962,-0.0001181732
0.05399962,-0.0001168857
0.05499962,-0.0001158434
0.05599962,-0.0001147398
0.05699962,-0.0001136363
0.05799962,-0.000112594
0.05899962,-0.0001115211
0.05999962,-0.0001103256
0.06099962,-0.0001093446
0.06199962,-0.000108425
0.06299962,-0.0001073214
0.06399962,-0.0001062791
0.06499962,-0.0001052982
0.06599962,-0.0001042865
0.06699962,-0.0001033056
0.06799962,-0.0001022633
0.06899962,-0.0001012824
0.06999962,-0.0001002708
0.07099961,-9.92285E-05
0.07199962,-9.827821E-05
0.07299962,-9.726659E-05
0.07399962,-9.625498E-05
0.07499962,-9.530468E-05
0.07599962,-9.426242E-05
0.07699962,-9.331212E-05
0.07799962,-9.242314E-05
0.07899962,-9.138087E-05
0.07999962,-9.049188E-05
0.08099962,-8.954158E-05
0.08199961,-8.859127E-05
0.08299962,-8.770229E-05
0.08399962,-8.678265E-05
0.08499962,-8.580169E-05
0.08599962,-8.497401E-05
0.08699962,-8.408502E-05
0.08799962,-8.313472E-05
0.08899962,-8.230704E-05
0.08999962,-8.154067E-05
0.09099962,-8.071299E-05
0.09199962,-7.979335E-05
0.09299962,-7.902697E-05
0.09399962,-7.813798E-05
0.09499962,-7.73103E-05
0.09599962,-7.654393E-05
0.09699962,-7.56856E-05
0.09799962,-7.482726E-05
0.09899962,-7.403023E-05
0.09999962,-7.320255E-05
0.1009996,-7.234422E-05
0.1019996,-7.160851E-05
0.1029996,-7.081147E-05
0.1039996,-7.001445E-05
0.1049996,-6.927874E-05
0.1059996,-6.848171E-05
0.1069996,-6.771534E-05
0.1079996,-6.694897E-05
0.1089996,-6.61826E-05
0.1099996,-6.544688E-05
0.1109996,-6.477248E-05
0.1119996,-6.409807E-05
0.1129996,-6.342367E-05
0.1139996,-6.268795E-05
0.1149996,-6.20442E-05
0.1159996,-6.130848E-05
0.1169996,-6.063408E-05
0.1179996,-5.999033E-05
0.1189996,-5.928526E-05
0.1199996,-5.861086E-05
0.1209996,-5.793645E-05
0.1219996,-5.720073E-05
0.1229996,-5.66183E-05
0.1239996,-5.591323E-05
0.1249996,-5.526948E-05
0.1259996,-5.459508E-05
0.1269996,-5.395133E-05
0.1279996,-5.324627E-05
0.1289996,-5.266382E-05
0.1299996,-5.202007E-05
0.1309996,-5.137632E-05
0.1319996,-5.067126E-05
0.1329996,-5.005816E-05
0.1339996,-4.941441E-05
0.1349996,-4.880131E-05
0.1359996,-4.821887E-05
0.1369996,-4.757512E-05
0.1379996,-4.696202E-05
0.1389996,-4.631827E-05
0.1399996,-4.573583E-05
0.1409996,-4.509208E-05
0.1419996,-4.454029E-05
0.1429996,-4.389654E-05
0.1439996,-4.33141E-05
0.1449996,-4.276231E-05
0.1459996,-4.221053E-05
0.1469996,-4.165874E-05
0.1479996,-4.104565E-05
0.1489996,-4.04632E-05
0.1499996,-3.994207E-05
0.1509996,-3.932897E-05
0.1519996,-3.871588E-05
0.1529996,-3.819475E-05
0.1539996,-3.764296E-05
0.1549996,-3.702986E-05
0.1559996,-3.647808E-05
0.1569996,-3.589563E-05
0.1579996,-3.534384E-05
0.1589996,-3.482271E-05
0.1599996,-3.420962E-05
0.1609996,-3.365783E-05
0.1619996,-3.307539E-05
0.1629996,-3.25236E-05
0.1639996,-3.194116E-05
0.1649996,-3.142003E-05
0.1659996,-3.080693E-05
0.1669996,-3.022449E-05
0.1679996,-2.96727E-05
0.1689996,-2.909026E-05
0.1699996,-2.844651E-05
0.1709996,-2.795603E-05
0.1719996,-2.731228E-05
0.1729996,-2.68218E-05
0.1739996,-2.627002E-05
0.1749996,-2.562626E-05
0.1759996,-2.510513E-05
0.1769996,-2.461466E-05
0.1779996,-2.397091E-05
0.1789996,-2.341912E-05
0.1799996,-2.289799E-05
0.1809996,-2.228489E-05
0.1819996,-2.17331E-05
0.1829996,-2.118132E-05
0.1839996,-2.062953E-05
0.1849996,-2.004709E-05
0.1859996,-1.943399E-05
0.1869996,-1.88822E-05
0.1879996,-1.836107E-05
0.1889996,-1.774798E-05
0.1899996,-1.716554E-05
0.1909996,-1.66444E-05
0.1919996,-1.606196E-05
0.1929996,-1.544886E-05
0.1939996,-1.489708E-05
0.1949996,-1.434529E-05
0.1959996,-1.408271E-05
0.1969996,-1.357691E-05
0.1979996,-1.295155E-05
0.1989996,-1.235071E-05
0.1999996,-1.182652E-05
0.2009996,-1.127779E-05
0.2019996,-1.067696E-05
0.2029996,-1.012824E-05
0.2039996,-9.515141E-06
0.2049996,-8.87752E-06
0.2059996,-8.390109E-06
0.2069996,-7.773947E-06
0.2079996,-7.212964E-06
0.2089996,-6.624391E-06
0.2099996,-6.032753E-06
0.2109996,-5.487097E-06
0.2119996,-4.886262E-06
0.2129996,-4.294624E-06
0.2139996,-3.745903E-06
0.2149996,-3.154265E-06
0.2159996,-2.58102E-06
0.2169996,-2.001643E-06
0.2179996,-1.391612E-06
0.2189996,-8.398255E-07
0.2199996,-1.592884E-07
0.2209996,4.108914E-07
0.2219996,9.872022E-07
0.2229996,1.569644E-06
0.2239996,2.173544E-06
0.2249996,2.783575E-06
0.2259996,3.369082E-06
0.2269996,3.951524E-06
0.2279996,4.576882E-06
0.2289996,5.174651E-06
0.2299996,5.757093E-06
0.2309996,6.434565E-06
0.2319996,6.992482E-06
0.2329996,7.602513E-06
0.2339996,8.261592E-06
0.2349996,8.840969E-06
0.2359996,9.469392E-06
0.2369996,1.010088E-05
0.2379996,1.067413E-05
0.2389996,1.131481E-05
0.2399996,1.197389E-05
0.2409996,1.25594E-05
0.2419996,1.320008E-05
0.2429996,1.382544E-05
0.2439996,1.449372E-05
0.2449996,1.508536E-05
0.2459996,1.57383E-05
0.2469996,1.635446E-05
0.2479996,1.698595E-05
0.2489996,1.763584E-05
0.2499996,1.829492E-05
0.2509996,1.894786E-05
0.2519996,1.959775E-05
0.2529996,2.021084E-05
0.2539996,2.085459E-05
0.2549996,2.155966E-05
0.2559996,2.215742E-05
0.2569996,2.285635E-05
0.2579996,2.356142E-05
0.2589996,2.414999E-05
0.2599996,2.483359E-05
0.2609996,2.587384E-05
0.2619996,2.642563E-05
0.2629996,2.7192E-05
0.2639996,2.789706E-05
0.2649996,2.851016E-05
0.2659996,2.921522E-05
0.2669996,2.988962E-05
0.2679996,3.053337E-05
0.2689996,3.126909E-05
0.2699996,3.188219E-05
0.2709996,3.258725E-05
0.2719996,3.3231E-05
0.2729996,3.393606E-05
0.2739996,3.461046E-05
0.2749996,3.522356E-05
0.2759996,3.595928E-05
0.2769996,3.660303E-05
0.2779996,3.730809E-05
0.2789996,3.795184E-05
0.2799996,3.862625E-05
0.2809996,3.933131E-05
0.2819996,3.997506E-05
0.2829996,4.064947E-05
0.2839996,4.135453E-05
0.2849996,4.21209E-05
0.2859996,4.276465E-05
0.2869996,4.350036E-05
0.2879996,4.426674E-05
0.2889996,4.506376E-05
0.2899996,4.573816E-05
0.2909996,4.638192E-05
0.2919996,4.711764E-05
0.2929996,4.782269E-05
0.2939996,4.84971E-05
0.2949996,4.923281E-05
0.2959996,4.987657E-05
0.2969996,5.048966E-05
0.2979996,5.128669E-05
0.2989996,5.199175E-05
0.2999996,5.275812E-05
0.3009996,5.355515E-05
0.3019996,5.429086E-05
0.3029996,5.502658E-05
0.3039996,5.573164E-05
0.3049996,5.64367E-05
0.3059996,5.717242E-05
0.3069996,5.796944E-05
0.3079996,5.86745E-05
0.3089996,5.934891E-05
0.3099996,6.014594E-05
0.3109996,6.078968E-05
0.3119996,6.149475E-05
0.3129996,6.223046E-05
0.3139996,6.296618E-05
0.3149996,6.367124E-05
0.3159996,6.452957E-05
0.3169996,6.520398E-05
0.3179996,6.600101E-05
0.3189996,6.685934E-05
0.3199996,6.759506E-05
0.3209996,6.833077E-05
0.3219996,6.915845E-05
0.3229996,6.983286E-05
0.3239996,7.062989E-05
0.3249996,7.139625E-05
0.3259996,7.213197E-05
0.3269996,7.283704E-05
0.3279996,7.360341E-05
0.3289996,7.440043E-05
0.3299996,7.513614E-05
0.3309996,7.590251E-05
0.3319996,7.67302E-05
0.3329996,7.74046E-05
0.3339996,7.820163E-05
0.3349996,7.905996E-05
0.3359996,7.973437E-05
0.3369996,8.053139E-05
0.3379996,8.129777E-05
0.3389996,8.209479E-05
0.3399996,8.289181E-05
0.3409996,8.368884E-05
0.3419996,8.436324E-05
0.3429996,8.512961E-05
0.3439996,8.59573E-05
0.3449996,8.66317E-05
0.3459996,8.745938E-05
0.3469996,8.825641E-05
0.3479996,8.896147E-05
0.3489996,8.972784E-05
0.3499996,9.055552E-05
0.3509996,9.132189E-05
0.3519996,9.211891E-05
0.3529996,9.29466E-05
0.3539996,9.368231E-05
0.3549996,9.438737E-05
0.3559996,9.533767E-05
0.3569996,9.604274E-05
0.3579996,9.690107E-05
0.3589996,9.779006E-05
0.3599996,9.852578E-05
0.3609996,9.926149E-05
0.3619996,0.0001001505
0.3629996,0.0001008555
0.3639996,0.0001016832
0.3649996,0.0001025722
0.3659996,0.0001033079
0.3669996,0.0001041356
0.3679996,0.0001050246
0.3689996,0.0001057296
0.3699996,0.000106588
0.3709996,0.0001074463
0.3719996,0.0001082433
0.3729996,0.0001089791
0.3739996,0.0001097761
0.3749996,0.0001105425
0.3759996,0.0001113701
0.3769996,0.0001121672
0.3779996,0.0001129335
0.3789996,0.0001136999
0.3799996,0.0001145889
0.3809996,0.0001153246
0.3819996,0.0001160603
0.3829996,0.0001170413
0.3839996,0.000117777
0.3849996,0.0001184821
0.3859996,0.0001195243
0.3869996,0.0001202294
0.3879996,0.0001210571
0.3889996,0.0001219767
0.3899996,0.0001227124
0.3909996,0.0001236014
0.3919996,0.0001244598
0.3929996,0.0001252874
0.3939996,0.0001261458
0.3949996,0.0001269121
0.3959996,0.0001277705
0.3969996,0.0001285675
0.3979996,0.0001293952
0.3989996,0.0001302535
0.3999996,0.0001310505
0.4009996,0.0001318476
0.4019996,0.0001327672
0.4029996,0.0001335336
0.4039996,0.0001344226
0.4049996,0.0001352809
0.4059996,0.0001360779
0.4069996,0.0001369363
0.4079996,0.0001377333
0.4089996,0.000138561
0.4099996,0.0001394193
0.4109996,0.0001402776
0.4119996,0.000141044
0.4129996,0.0001419023
0.4139996,0.000142822
0.4149996,0.0001435884
0.4159996,0.000144416
0.4169996,0.000145305
0.4179996,0.0001461327
0.4189996,0.000146991
0.4199996,0.00014788
0.4209996,0.0001486158
0.4219996,0.0001495047
0.4229996,0.0001503937
0.4239996,0.0001511907
0.4249996,0.0001520184
0.4259996,0.0001529687
0.4269996,0.0001537658
0.4279996,0.0001545628
0.4289996,0.0001555744
0.4299996,0.0001563408
0.4309996,0.0001571685
0.4319996,0.0001581494
0.4329996,0.0001588545
0.4339996,0.0001598048
0.4349996,0.0001606938
0.4359996,0.0001616134
0.4369996,0.0001623798
0.4379996,0.0001632994
0.4389996,0.0001641271
0.4399996,0.0001649241
0.4409996,0.0001658744
0.4419996,0.0001667634
0.4429996,0.0001674685
0.4439996,0.0001683881
0.4449996,0.0001692771
0.4459996,0.0001700741
0.4469996,0.0001710551
0.4479996,0.0001719441
0.4489996,0.0001727718
0.4499996,0.0001737527
0.4509996,0.0001745804
0.4519996,0.0001754694
0.4529996,0.0001763584
0.4539996,0.000177278
0.4549996,0.000178167
0.4559996,0.000179148
0.4569996,0.0001800983
0.4579996,0.0001809566
0.4589996,0.0001818456
0.4599996,0.0001828265
0.4609996,0.0001837462
0.4619996,0.0001846352
0.4629996,0.0001857388
0.4639996,0.0001865358
0.4649996,0.0001874861
0.4659996,0.0001884977
0.4669996,0.000189356
0.4679996,0.000190337
0.4689996,0.0001913179
0.4699996,0.0001920843
0.4709996,0.0001931266
0.4719996,0.0001942301
0.4729996,0.0001950272
0.4739996,0.0001959775
0.4749996,0.0001969584
0.4759996,0.00019797
0.4769996,0.0001988897
0.4779996,0.0001999626
0.4789996,0.0002008209
0.4799996,0.0002017712
0.4809996,0.0002028442
0.4819996,0.0002037638
0.4829996,0.0002047448
0.4839996,0.0002058483
0.4849996,0.0002068599
0.4859996,0.0002076876
0.4869996,0.0002089445
0.4879996,0.0002098948
0.4889996,0.0002109677
0.4899996,0.0002121632
0.4909996,0.0002130829
0.4919996,0.0002141865
0.4929996,0.000215382
0.4939996,0.0002163323
0.4949996,0.0002174665
0.4959996,0.0002186007
0.4969996,0.0002197656
0.4979996,0.0002208079
0.4989996,0.0002220341
0.4999996,0.0002232603
0.5009996,0.0002242719
0.5019996,0.0002254981
0.5029996,0.0002267856
0.5039996,0.0002278278
0.5049996,0.0002292073
0.5059996,0.0002304028
0.5069996,0.0002314451
0.5079996,0.0002327939
0.5089996,0.0002341121
0.5099996,0.0002352157
0.5109996,0.0002365951
0.5119996,0.0002380359
0.5129996,0.0002390168
0.5139996,0.0002406109
0.5149996,0.0002419597
0.5159996,0.0002432472
0.5169996,0.0002447186
0.5179996,0.0002461594
0.5189996,0.0002475082
0.5199996,0.0002490103
0.5209996,0.0002504511
0.5219996,0.0002518612
0.5229996,0.000253394
0.5239996,0.0002551413
0.5249996,0.000256674
0.5259996,0.0002581761
0.5269996,0.0002599541
0.5279996,0.0002615481
0.5289996,0.0002632342
0.5299996,0.0002652881
0.5309996,0.0002667901
0.5319996,0.0002688133
0.5329996,0.0002706833
0.5339996,0.0002724306
0.5349996,0.0002746378
0.5359996,0.0002765997
0.5369996,0.0002785309
0.5379996,0.00028083
0.5389996,0.0002829146
0.5399996,0.0002854283
0.5409996,0.0002878193
0.5419996,0.0002901491
0.5429996,0.0002927241
0.5439996,0.0002985897
0.5449996,0.0003007355
0.5459996,0.000303801
0.5469996,0.0003065599
0.5479996,0.0003096254
0.5489996,0.0003123844
0.5499996,0.0003160629
0.5509996,0.000319435
0.5519996,0.000322807
0.5529996,0.0003264856
0.5539996,0.0003304707
0.5549996,0.0003344558
0.5559996,0.0003387475
0.5569996,0.0003433457
0.5579996,0.0003476374
0.5589996,0.0003528487
0.5599996,0.0003580601
0.5609996,0.0003632714
0.5619996,0.0003690958
0.5629996,0.0003755333
0.5639996,0.0003822774
0.5649996,0.0003890214
0.5659996,0.0003966852
0.5669996,0.0004043488
0.5679996,0.0004126257
0.5689996,0.0004218221
0.5699996,0.0004310186
0.5709996,0.0004411346
0.5719996,0.0004524769
0.5729996,0.0004635127
0.5739996,0.0004757746
0.5749996,0.0004895693
0.5759996,0.0005030574
0.5769996,0.0005177717
0.5779996,0.0005346319
0.5789996,0.0005511855
0.5799996,0.0005698849
0.5809996,0.0005898106
0.5819996,0.0006103493
0.5829996,0.0006330339
0.5839996,0.0006569446
0.5849996,0.0006820816
0.5859996,0.0007096709
0.5869996,0.0007390995
0.5879996,0.0007703675
0.5889996,0.0008025551
0.5899996,0.0008381146
0.5909996,0.0008758201
0.5919996,0.0009150583
0.5929996,0.000957975
0.5939996,0.001003344
0.5949996,0.001050859
0.5959996,0.001102359
0.5969996,0.001156005
0.5979996,0.001212717
0.5989996,0.001274333
0.5999996,0.001337788
0.6009996,0.001405535
0.6019996,0.001477881
0.6029996,0.001552985
0.6039996,0.001632994
0.6049996,0.001716375
0.6059996,0.001805581
0.6069996,0.001898159
0.6079996,0.001995947
0.6089996,0.002099561
0.6099996,0.002205933
0.6109996,0.002318743
0.6119996,0.002437684
0.6129996,0.002559383
0.6139996,0.002689973
0.6149996,0.002825467
0.6159996,0.002964333
0.6169996,0.003139171
0.6179996,0.003289379
0.6189996,0.003442654
0.6199996,0.003605124
0.6209996,0.003776791
0.6219996,0.003948458
0.6229996,0.004129322
0.6239996,0.004316316
0.6249996,0.004509442
0.6259996,0.004708698
0.6269996,0.004911019
0.6279996,0.005119473
0.6289996,0.005337122
0.6299996,0.005557837
0.6309996,0.005784682
0.6319996,0.006017659
0.6329996,0.006259832
0.6339996,0.006502005
0.6349996,0.006750309
0.6359996,0.007004744
0.6369996,0.007259179
0.6379996,0.007525877
0.6389996,0.007795639
0.6399996,0.008065402
0.6409996,0.008344361
0.6419996,0.00862945
0.6429996,0.008914541
0.6439996,0.00920576
0.6449996,0.009503113
0.6459996,0.00980353
0.6469996,0.01010701
0.6479996,0.01041663
0.6489996,0.01072931
0.6499996,0.01104505
0.6509996,0.01136386
0.6519996,0.0116888
0.6529996,0.01201374
0.6539996,0.01234788
0.6549996,0.01267895
0.6559996,0.01301615
0.6569996,0.01335642
0.6579996,0.01369976
0.6589996,0.01404616
0.6599996,0.01439256
0.6609996,0.01474202
0.6619996,0.01509762
0.6629996,0.01545321
0.6639996,0.01580881
0.6649996,0.0161736
0.6659996,0.01653533
0.6669996,0.01690012
0.6679996,0.01726798
0.6689996,0.01763277
0.6699996,0.01800676
0.6709996,0.01838381
0.6719996,0.01875167
0.6729996,0.01912873
0.6739996,0.01950885
0.6749996,0.0198859
0.6759996,0.02027215
0.6769996,0.02065227
0.6779996,0.02103239
0.6789996,0.02142477
0.6799996,0.02181103
0.6809996,0.02220034
0.6819996,0.02258966
0.6829996,0.02297897
0.6839996,0.02337749
0.6849996,0.02376987
0.6859996,0.02416532
0.6869996,0.02456383
0.6879996,0.02495928
0.6889996,0.02535779
0.6899996,0.02575324
0.6909996,0.02615481
0.6919996,0.02655946
0.6929996,0.0269641
0.6939996,0.02736568
0.6949996,0.02777646
0.6959996,0.02818723
0.6969996,0.02859187
0.6979996,0.02901185
0.6989996,0.02941955
0.6999996,0.02956976
0.6990005,0.02925708
0.6980005,0.02893214
0.6970005,0.0286072
0.6960005,0.02828226
0.6950005,0.02795119
0.6940005,0.02762625
0.6930005,0.02729824
0.6920004,0.02696717
0.6910005,0.02664529
0.6900005,0.02631729
0.6890005,0.02598315
0.6880005,0.02565821
0.6870005,0.0253302
0.6860005,0.024993
0.6850005,0.02466499
0.6840005,0.02433698
0.6830005,0.02400591
0.6820005,0.0236779
0.6810005,0.02335296
0.6800005,0.02302189
0.6790005,0.02269388
0.6780005,0.02237201
0.6770005,0.02204094
0.6760005,0.02171599
0.6750005,0.02139718
0.6740005,0.02107531
0.6730005,0.02075343
0.6720005,0.02043769
0.6710005,0.02011581
0.6700005,0.019797
0.6690005,0.01948126
0.6680005,0.01916245
0.6670005,0.01884977
0.6660005,0.01853096
0.6650005,0.01821828
0.6640005,0.01790866
0.6630005,0.01759599
0.6620005,0.01728944
0.6610005,0.01698289
0.6600005,0.01667634
0.6590005,0.01637286
0.6580005,0.01606631
0.6570005,0.01576896
0.6560005,0.01546854
0.6550004,0.01516812
0.6540005,0.01487384
0.6530005,0.01457955
0.6520005,0.01428526
0.6510005,0.01399711
0.6500005,0.01370895
0.6490005,0.0134208
0.6480005,0.01313571
0.6470005,0.01285368
0.6460005,0.01257473
0.6450005,0.0122927
0.6440005,0.01201987
0.6430005,0.01174398
0.6420005,0.01146809
0.6410004,0.01120752
0.6400005,0.01094082
0.6390005,0.01067106
0.6380005,0.01041663
0.6370005,0.01015606
0.6360005,0.009895494
0.6350005,0.009644125
0.6340005,0.009392755
0.6330005,0.009141386
0.6320005,0.008896147
0.6310005,0.008653974
0.6300005,0.0084118
0.6290005,0.008175759
0.6280005,0.007942782
0.6270005,0.007712871
0.6260005,0.007482959
0.6250005,0.007256114
0.6240005,0.007038464
0.6230005,0.006814685
0.6220005,0.006603166
0.6210005,0.006394713
0.6200005,0.006183195
0.6190005,0.005980873
0.6180004,0.005778552
0.6170005,0.005582361
0.6160005,0.005389235
0.6150005,0.005199175
0.6140005,0.005009115
0.6130005,0.004828252
0.6120005,0.004650454
0.6110005,0.004475721
0.6100005,0.004304054
0.6090005,0.004138518
0.6080005,0.003976048
0.6070005,0.003816642
0.6060005,0.003663369
0.6050005,0.003510094
0.6040004,0.003366017
0.6030005,0.003225004
0.6020005,0.003083992
0.6010005,0.002949111
0.6000005,0.002820361
0.5990005,0.00269161
0.5980005,0.002568991
0.5970005,0.002452503
0.5960005,0.00233908
0.5950005,0.002225657
0.5940005,0.002121431
0.5930005,0.002017204
0.5920005,0.001919109
0.5910005,0.001824079
0.5900005,0.00173518
0.5890005,0.001646281
0.5880005,0.001563513
0.5870005,0.00148381
0.5860005,0.001407173
0.5850005,0.001330536
0.5840005,0.001263096
0.5830005,0.001167654
0.5820005,0.001104505
0.5810004,0.001044115
0.5800005,0.0009855644
0.5790005,0.0009313053
0.5780005,0.0008794987
0.5770005,0.0008295313
0.5760005,0.0007832425
0.5750005,0.0007390995
0.5740005,0.000697409
0.5730005,0.0006581708
0.5720005,0.0006210785
0.5710005,0.0005861319
0.5700005,0.0005530248
0.5690005,0.0005217568
0.5680005,0.0004932479
0.5670004,0.0004650454
0.5660005,0.0004396019
0.5650005,0.0004153846
0.5640005,0.0003923935
0.5630005,0.0003712417
0.5620005,0.000351316
0.5610005,0.0003326166
0.5600005,0.0003157564
0.5590005,0.0002992028
0.5580005,0.0002838754
0.5570005,0.0002697741
0.5560005,0.000256286
0.5550005,0.0002437175
0.5540005,0.0002323753
0.5530005,0.0002216461
0.5520005,0.00021153
0.5510005,0.0002014139
0.5500005,0.0001931371
0.5490005,0.0001848603
0.5480005,0.00017689
0.5470005,0.000170146
0.5460005,0.0001634019
0.5450005,0.0001569644
0.5440005,0.0001514465
0.5430005,0.0001456221
0.5420005,0.0001404108
0.5410005,0.0001358126
0.5400005,0.0001312143
0.5390005,0.0001269227
0.5380005,0.0001199841
0.5370005,0.0001162136
0.5360005,0.0001127803
0.5350005,0.0001092856
0.5340005,0.0001061895
0.5330005,0.0001032466
0.5320005,0.0001004877
0.5310005,9.77594E-05
0.5300004,9.515374E-05
0.5290005,9.285464E-05
0.5280005,9.064749E-05
0.5270005,8.837903E-05
0.5260005,8.632516E-05
0.5250005,8.436324E-05
0.5240005,8.237069E-05
0.5230005,8.074597E-05
0.5220005,7.8968E-05
0.5210005,7.728198E-05
0.5200005,7.593317E-05
0.5190005,7.430847E-05
0.5180005,7.271441E-05
0.5170005,7.154953E-05
0.5160004,7.010875E-05
0.5150005,6.872928E-05
0.5140005,6.762571E-05
0.5130005,6.62769E-05
0.5120005,6.502005E-05
0.5110005,6.385517E-05
0.5100005,6.281291E-05
0.5090005,6.155606E-05
0.5080005,6.042183E-05
0.5070005,5.944087E-05
0.5060005,5.827599E-05
0.5050005,5.729503E-05
0.5040005,5.640604E-05
0.5030005,5.517985E-05
0.5020005,5.429086E-05
0.5010005,5.343253E-05
0.5000005,5.232896E-05
0.4990005,5.147062E-05
0.4980005,5.061228E-05
0.4970005,4.963133E-05
0.4960005,4.892627E-05
0.4950005,4.803728E-05
0.4940005,4.705632E-05
0.4930005,4.632061E-05
0.4920005,4.543162E-05
0.4910005,4.451197E-05
0.4900005,4.37456E-05
0.4890005,4.288727E-05
0.4880005,4.205959E-05
0.4870005,4.11706E-05
0.4860005,4.037357E-05
0.4850005,3.951524E-05
0.4840005,3.868755E-05
0.4830005,3.795184E-05
0.4820005,3.700154E-05
0.4810005,3.623517E-05
0.4800005,3.54688E-05
0.4790005,3.461046E-05
0.4780005,3.381344E-05
0.4770005,3.307773E-05
0.4760005,3.218873E-05
0.4750005,3.136105E-05
0.4740005,3.065599E-05
0.4730005,2.973635E-05
0.4720005,2.896998E-05
0.4710005,2.820361E-05
0.4700005,2.731462E-05
0.4690005,2.660956E-05
0.4680005,2.572057E-05
0.4670005,2.492354E-05
0.4660005,2.415717E-05
0.4650005,2.332949E-05
0.4640005,2.253246E-05
0.4630005,2.173544E-05
0.4620005,2.08771E-05
0.4610005,2.008008E-05
0.4600005,1.928305E-05
0.4590005,1.854734E-05
0.4580005,1.771966E-05
0.4570005,1.686132E-05
0.4560005,1.609495E-05
0.4550005,1.523662E-05
0.4540005,1.45009E-05
0.4530005,1.367322E-05
0.4520005,1.284554E-05
0.4510005,1.201786E-05
0.4500005,1.122083E-05
0.4490005,1.045446E-05
0.4480005,9.230284E-06
0.4470005,8.384211E-06
0.4460005,7.599448E-06
0.4450005,6.872929E-06
0.4440005,6.011528E-06
0.4430005,5.214503E-06
0.4420005,4.359233E-06
0.4410005,3.562207E-06
0.4400005,2.725331E-06
0.4390005,1.89152E-06
0.4380005,1.079167E-06
0.4370005,2.974685E-07
0.4360005,-5.63932E-07
0.4350005,-1.339499E-06
0.4340005,-2.176376E-06
0.4330005,-3.019383E-06
0.4320005,-3.804147E-06
0.4310005,-4.653285E-06
0.4300005,-5.50549E-06
0.4290005,-6.317842E-06
0.4280005,-7.133261E-06
0.4270005,-7.939483E-06
0.4260005,-8.849931E-06
0.4250005,-9.659218E-06
0.4240005,-1.048997E-05
0.4230005,-1.130538E-05
0.4220005,-1.216985E-05
0.4210005,-1.297914E-05
0.4200005,-1.386506E-05
0.4190005,-1.466209E-05
0.4180005,-1.548364E-05
0.4170005,-1.636036E-05
0.4160005,-1.719418E-05
0.4150005,-1.804331E-05
0.4140005,-1.887712E-05
0.4130005,-1.975385E-05
0.4120005,-2.056621E-05
0.4110005,-2.140615E-05
0.4100005,-2.222156E-05
0.4090005,-2.306457E-05
0.4080005,-2.393517E-05
0.4070005,-2.471993E-05
0.4060005,-2.558134E-05
0.4050005,-2.617805E-05
0.4040005,-2.700573E-05
0.4030005,-2.786407E-05
0.4020005,-2.863044E-05
0.4010005,-2.955008E-05
0.4000005,-3.031645E-05
0.3990005,-3.117479E-05
0.3980005,-3.209443E-05
0.3970005,-3.286081E-05
0.3960005,-3.374979E-05
0.3950005,-3.454682E-05
0.3940005,-3.540516E-05
0.3930005,-3.626349E-05
0.3920005,-3.702986E-05
0.3910005,-3.794951E-05
0.3900005,-3.874653E-05
0.3890005,-3.960487E-05
0.3880005,-4.049386E-05
0.3870005,-4.129088E-05
0.3860005,-4.208791E-05
0.3850005,-4.294624E-05
0.3840005,-4.377393E-05
0.3830005,-4.466291E-05
0.3820005,-4.552125E-05
0.3810005,-4.637958E-05
0.3800005,-4.714595E-05
0.3790005,-4.803494E-05
0.3780005,-4.883197E-05
0.3770005,-4.96903E-05
0.3760005,-5.054864E-05
0.3750005,-5.143763E-05
0.3740005,-5.223465E-05
0.3730005,-5.31543E-05
0.3720005,-5.395133E-05
0.3710005,-5.484031E-05
0.3700005,-5.5668E-05
0.3690005,-5.655699E-05
0.3680005,-5.732335E-05
0.3670005,-5.8243E-05
0.3660005,-5.910133E-05
0.3650005,-5.995967E-05
0.3640005,-6.087931E-05
0.3630005,-6.179896E-05
0.3620005,-6.259599E-05
0.3610005,-6.351563E-05
0.3600005,-6.443528E-05
0.3590005,-6.520165E-05
0.3580005,-6.609064E-05
0.3570005,-6.694897E-05
0.3560005,-6.771534E-05
0.3550005,-6.854302E-05
0.3540005,-6.946267E-05
0.3530005,-7.02597E-05
0.3520005,-7.111803E-05
0.3510005,-7.191506E-05
0.3500005,-7.277339E-05
0.3490005,-7.363172E-05
0.3480005,-7.452071E-05
0.3470005,-7.547101E-05
0.3460005,-7.62987E-05
0.3450005,-7.724899E-05
0.3440005,-7.801536E-05
0.3430005,-7.890436E-05
0.3420005,-7.9824E-05
0.3410005,-8.055971E-05
0.3400005,-8.147936E-05
0.3390005,-8.233769E-05
0.3380005,-8.313472E-05
0.3370005,-8.40237E-05
0.3360005,-8.482073E-05
0.3350005,-8.570973E-05
0.3340005,-8.653741E-05
0.3330005,-8.742639E-05
0.3320005,-8.834604E-05
0.3310005,-8.923503E-05
0.3300005,-9.009337E-05
0.3290005,-9.104366E-05
0.3280005,-9.184069E-05
0.3270005,-9.276033E-05
0.3260005,-9.361867E-05
0.3250005,-9.441569E-05
0.3240005,-9.524338E-05
0.3230005,-9.616302E-05
0.3220005,-9.696004E-05
0.3210005,-9.781838E-05
0.3200005,-9.873803E-05
0.3190005,-9.95657E-05
0.3180005,-0.0001003934
0.3170005,-0.0001012824
0.3160005,-0.0001021101
0.3150005,-0.0001029684
0.3140005,-0.0001038267
0.3130005,-0.0001047157
0.3120005,-0.0001055434
0.3110005,-0.0001064937
0.3100005,-0.0001072907
0.3090005,-0.0001080877
0.3080005,-0.0001090381
0.3070005,-0.0001098657
0.3060005,-0.0001107854
0.3050005,-0.000111705
0.3040005,-0.0001125634
0.3030005,-0.000113391
0.3020005,-0.0001143107
0.3010005,-0.0001151997
0.3000005,-0.0001159967
0.2990005,-0.000116947
0.2980005,-0.000117744
0.2970005,-0.000118541
0.2960005,-0.0001194607
0.2950005,-0.0001202577
0.2940005,-0.0001210547
0.2930005,-0.0001219744
0.2920005,-0.000122894
0.2910005,-0.0001236297
0.2900005,-0.0001244881
0.2890005,-0.0001254077
0.2880005,-0.0001261128
0.2870005,-0.0001271244
0.2860005,-0.0001280134
0.2850005,-0.0001287184
0.2840005,-0.0001296687
0.2830005,-0.0001304964
0.2820005,-0.0001313548
0.2810005,-0.0001322744
0.2800005,-0.0001331634
0.2790005,-0.0001339298
0.2780005,-0.0001348494
0.2770005,-0.0001357384
0.2760005,-0.0001365967
0.2750005,-0.0001374244
0.2740005,-0.0001383134
0.2730005,-0.0001391104
0.2720005,-0.0001399688
0.2710005,-0.0001409191
0.2700005,-0.0001416548
0.2690005,-0.0001425438
0.2680005,-0.0001433408
0.2670005,-0.0001442911
0.2660005,-0.0001449962
0.2650005,-0.0001459771
0.2640005,-0.0001467128
0.2630005,-0.0001475712
0.2620005,-0.0001484908
0.2610005,-0.0001492265
0.2600005,-0.0001502075
0.2590005,-0.0001511578
0.2580005,-0.0001519241
0.2570005,-0.0001526599
0.2560005,-0.0001536102
0.2550005,-0.0001544685
0.2540005,-0.0001552655
0.2530005,-0.0001561545
0.2520005,-0.0001570742
0.2510005,-0.0001578712
0.2500005,-0.0001587295
0.2490005,-0.0001596798
0.2480005,-0.0001604155
0.2470005,-0.0001612739
0.2460005,-0.0001621629
0.2450005,-0.0001629905
0.2440005,-0.0001638795
0.2430005,-0.0001647072
0.2420005,-0.0001655349
0.2410005,-0.0001663013
0.2400005,-0.0001673129
0.2390005,-0.0001680486
0.2380005,-0.0001688763
0.2370005,-0.0001697346
0.2360005,-0.0001705316
0.2350005,-0.0001712674
0.2340005,-0.0001721563
0.2330005,-0.000172984
0.2320005,-0.0001738117
0.2310005,-0.0001747007
0.2300005,-0.0001754977
0.2290005,-0.0001763254
0.2280005,-0.0001772757
0.2270005,-0.0001780114
0.2260005,-0.0001788697
0.2250005,-0.0001797894
0.2240005,-0.0001805864
0.2230005,-0.0001813834
0.2220005,-0.0001823031
0.2210005,-0.0001830695
0.2200005,-0.0001838052
0.2190005,-0.0001847555
0.2180005,-0.0001856138
0.2170005,-0.0001863495
0.2160005,-0.0001872079
0.2150005,-0.0001881582
0.2140005,-0.0001888019
0.2130005,-0.0001896602
0.2120005,-0.0001906105
0.2110005,-0.0001913463
0.2100005,-0.0001921126
0.2090005,-0.0001930629
0.2080005,-0.0001938293
0.2070005,-0.0001946876
0.2060005,-0.0001955153
0.2050005,-0.0001963123
0.2040005,-0.0001971094
0.2030005,-0.000197937
0.2020005,-0.000198826
0.2010005,-0.0001995311
0.2000005,-0.0002003588
0.1990005,-0.0002012478
0.1980005,-0.0002020448
0.1970005,-0.0002027805
0.1960005,-0.0002037614
0.1950005,-0.0002044972
0.1940005,-0.0002052022
0.1930005,-0.0002060912
0.1920005,-0.0002068269
0.1910005,-0.0002075933
0.1900005,-0.0002085129
0.1890005,-0.000209218
0.1880005,-0.0002098924
0.1870005,-0.0002107507
0.1860005,-0.0002114865
0.1850005,-0.0002122528
0.1840005,-0.0002131418
0.1830005,-0.0002138162
0.1820005,-0.0002145213
0.1810005,-0.0002153796
0.1800005,-0.0002159927
0.1790005,-0.0002167284
0.1780005,-0.0002174948
0.1770005,-0.0002183225
0.1760005,-0.0002189662
0.1750005,-0.0002197633
0.1740005,-0.0002205603
0.1730005,-0.000221204
0.1720005,-0.0002219398
0.1710005,-0.0002228287
0.1700005,-0.0002234419
0.1690005,-0.0002242082
0.1680005,-0.0002249133
0.1670005,-0.000225649
0.1660005,-0.0002262314
0.1650005,-0.0002270591
0.1640005,-0.0002277642
0.1630005,-0.0002284079
0.1620005,-0.0002292356
0.1610005,-0.0002298487
0.1600005,-0.0002304005
0.1590005,-0.0002312588
0.1580005,-0.0002318719
0.1570005,-0.0002325463
0.1560005,-0.0002333434
0.1550005,-0.0002339565
0.1540005,-0.0002345695
0.1530005,-0.0002352746
0.1520005,-0.000235949
0.1510005,-0.0002364395
0.1500005,-0.0002372978
0.1490005,-0.0002379109
0.1480005,-0.0002384014
0.1470005,-0.0002391984
0.1460005,-0.0002397809
0.1450005,-0.0002403633
0.1440005,-0.0002410684
0.1430005,-0.0002415589
0.1420005,-0.0002422026
0.1410005,-0.0002429077
0.1400005,-0.0002434288
0.1390005,-0.0002439499
0.1380005,-0.0002446243
0.1370005,-0.0002450842
0.1360005,-0.0002456359
0.1350005,-0.0002463103
0.1340005,-0.0002467395
0.1330005,-0.0002471687
0.1320005,-0.0002479044
0.1310005,-0.0002483336
0.1300005,-0.000248916
0.1290005,-0.0002495291
0.1280005,-0.0002500502
0.1270005,-0.0002504794
0.1260005,-0.0002510925
0.1250005,-0.000251583
0.1240005,-0.0002520428
0.1230005,-0.0002525946
0.1220005,-0.0002532077
0.1210005,-0.0002536369
0.1200005,-0.0002541886
0.1190005,-0.0002545872
0.1180005,-0.0002551389
0.1170005,-0.0002557214
0.1160005,-0.0002561199
0.1150005,-0.0002565184
0.1140005,-0.0002570395
0.1130005,-0.0002576526
0.1120005,-0.0002578979
0.1110005,-0.0002582044
0.1100005,-0.0002587562
0.1090005,-0.0002591547
0.1080005,-0.0002595226
0.1070005,-0.0002601663
0.1060005,-0.0002604116
0.1050005,-0.0002608408
0.1040005,-0.0002613312
0.1030005,-0.0002618523
0.1020005,-0.0002622202
0.1010005,-0.0002626187
0.1000005,-0.0002630785
0.09900048,-0.0002631705
0.09800047,-0.0002636916
0.09700048,-0.0002640595
0.09600048,-0.0002642434
0.09500048,-0.0002647952
0.09400047,-0.0002651937
0.09300048,-0.000265439
0.09200048,-0.0002659601
0.09100047,-0.0002662053
0.09000048,-0.0002664812
0.08900048,-0.000267125
0.08800048,-0.0002673089
0.08700047,-0.0002675848
0.08600048,-0.0002681366
0.08500048,-0.0002683205
0.08400048,-0.0002686884
0.08300047,-0.0002691482
0.08200048,-0.0002692708
0.08100048,-0.0002695467
0.08000048,-0.0002699452
0.07900048,-0.0002700985
0.07800048,-0.0002702824
0.07700048,-0.0002707423
0.07600047,-0.0002710181
0.07500048,-0.0002710795
0.07400048,-0.0002715393
0.07300048,-0.0002718765
0.07200047,-0.0002718765
0.07100048,-0.000272183
0.07000048,-0.0002725815
0.06900048,-0.0002726735
0.06800048,-0.000273072
0.06700048,-0.0002733172
0.06600048,-0.0002733172
0.06500047,-0.0002735931
0.06400048,-0.0002738384
0.06300048,-0.0002741143
0.06200048,-0.0002742982
0.06100048,-0.0002745128
0.06000048,-0.0002748194
0.05900048,-0.0002749113
0.05800048,-0.0002751872
0.05700048,-0.0002752792
0.05600048,-0.0002753098
0.05500048,-0.000275647
0.05400048,-0.0002755551
0.05300048,-0.0002756777
0.05200048,-0.0002760149
0.05100048,-0.0002758616
0.05000048,-0.0002761681
0.04900048,-0.0002763521
0.04800048,-0.0002761681
0.04700048,-0.0002765973
0.04600048,-0.0002766586
0.04500048,-0.0002765053
0.04400048,-0.0002768426
0.04300048,-0.0002769039
0.04200048,-0.0002765973
0.04100048,-0.0002767506
0.04000048,-0.0002768426
0.03900048,-0.0002765053
0.03800048,-0.0002766586
0.03700048,-0.000276536
0.03600048,-0.0002762601
0.03500048,-0.0002762294
0.03400048,-0.0002762601
0.03300048,-0.0002760455
0.03200048,-0.0002758616
0.03100048,-0.000275739
0.03000048,-0.0002755244
0.02900048,-0.0002752178
0.02800048,-0.0002751565
0.02700048,-0.0002748806
0.02600048,-0.0002746047
0.02500048,-0.0002743595
0.02400048,-0.0002739303
0.02300048,-0.0002735012
0.02200048,-0.000273256
0.02100048,-0.0002727961
0.02000048,-0.0002723363
0.01900048,-0.0002719378
0.01800048,-0.0002713247
0.01700048,-0.0002708342
0.01600048,-0.0002702211
0.01500048,-0.0002696387
0.01400048,-0.0002689949
0.01300048,-0.0002682592
0.01200048,-0.0002676767
0.01100048,-0.0002668797
0.01000048,-0.0002660827
0.009000476,-0.000265255
0.008000477,-0.000264458
0.007000477,-0.0002633544
0.006000477,-0.0002627107
0.005000477,-0.0002616991
0.004000477,-0.0002603809
0.003000477,-0.0002595839
0.002000477,-0.0002583577
0.001000477,-0.0002570089
