EXPID. 1027
[电化学]: CV : -0.8 >> -0.8 >> -1.5 >> -0.8(V) @ 0.01(V/s) X 10(Seg)
起始电位 (V),-0.8
上限电位 (V),-0.8
下限电位 (V),-1.5
终止电位 (V),-0.8
扫速 (V/s),0.01
电解液 信息:
KOH,1
-0.8,-0.09735856
-0.801,-0.08108085
-0.802,-0.07228291
-0.803,-0.06670374
-0.804,-0.0626573
-0.805,-0.05946919
-0.806,-0.05677157
-0.807,-0.05428853
-0.808,-0.05195877
-0.809,-0.04993555
-0.81,-0.04809625
-0.811,-0.04637958
-0.812,-0.04469357
-0.813,-0.04309952
-0.814,-0.04150547
-0.815,-0.03991142
-0.816,-0.03840933
-0.817,-0.03690724
-0.818,-0.03546647
-0.819,-0.03405635
-0.82,-0.03270753
-0.821,-0.03138937
-0.822,-0.03013253
-0.823,-0.02893699
-0.824,-0.02780276
-0.825,-0.02669919
-0.826,-0.02568758
-0.827,-0.02467597
-0.828,-0.02375632
-0.829,-0.02286733
-0.83,-0.022009
-0.831,-0.02124263
-0.832,-0.02047626
-0.833,-0.01970989
-0.834,-0.01903548
-0.835,-0.01839173
-0.836,-0.01774798
-0.837,-0.01713488
-0.838,-0.01655244
-0.839,-0.01600065
-0.84,-0.01558786
-0.841,-0.01507899
-0.842,-0.01459158
-0.843,-0.01411336
-0.844,-0.01364435
-0.845,-0.01319985
-0.846,-0.01277375
-0.847,-0.01235071
-0.848,-0.01194607
-0.849,-0.01155369
-0.85,-0.01117357
-0.851,-0.01080571
-0.852,-0.01046238
-0.853,-0.01012824
-0.854,-0.009809428
-0.855,-0.009518206
-0.856,-0.009230051
-0.857,-0.008960289
-0.858,-0.00871505
-0.859,-0.008466746
-0.86,-0.008239901
-0.861,-0.008025317
-0.862,-0.007813798
-0.863,-0.007623739
-0.864,-0.007439809
-0.865,-0.007258946
-0.866,-0.00709341
-0.867,-0.006934005
-0.868,-0.006777665
-0.869,-0.006636653
-0.87,-0.006501772
-0.871,-0.00636689
-0.872,-0.006247337
-0.873,-0.006124718
-0.874,-0.006017426
-0.875,-0.00591933
-0.876,-0.005812038
-0.877,-0.005717008
-0.878,-0.00563424
-0.879,-0.005542276
-0.88,-0.005462573
-0.881,-0.005392067
-0.882,-0.005312365
-0.883,-0.005247989
-0.884,-0.00518668
-0.885,-0.005116174
-0.886,-0.00505793
-0.887,-0.005008881
-0.888,-0.004950637
-0.889,-0.004898524
-0.89,-0.004855608
-0.891,-0.004809625
-0.892,-0.004766709
-0.893,-0.004729923
-0.894,-0.004687006
-0.895,-0.004656351
-0.896,-0.004628762
-0.897,-0.004595041
-0.898,-0.004573583
-0.899,-0.004552125
-0.9,-0.004524535
-0.901,-0.004506143
-0.902,-0.00448775
-0.903,-0.004466291
-0.904,-0.004454029
-0.905,-0.004438702
-0.906,-0.00442644
-0.907,-0.004420309
-0.908,-0.004411113
-0.909,-0.004401916
-0.91,-0.004398851
-0.911,-0.00439272
-0.912,-0.004389654
-0.913,-0.004389654
-0.914,-0.004389654
-0.915,-0.004386589
-0.916,-0.00439272
-0.917,-0.004395785
-0.918,-0.004395785
-0.919,-0.004401916
-0.92,-0.004408047
-0.921,-0.004414178
-0.922,-0.004423374
-0.923,-0.004432571
-0.924,-0.004441767
-0.925,-0.004447898
-0.926,-0.00446016
-0.927,-0.004469357
-0.928,-0.004478553
-0.929,-0.004496946
-0.93,-0.004506143
-0.931,-0.004515339
-0.932,-0.004533732
-0.933,-0.004542928
-0.934,-0.004561321
-0.935,-0.004579714
-0.936,-0.004585845
-0.937,-0.004607304
-0.938,-0.004622631
-0.939,-0.004637958
-0.94,-0.004656351
-0.941,-0.004671679
-0.942,-0.004687006
-0.943,-0.004708464
-0.944,-0.004720726
-0.945,-0.004742185
-0.946,-0.004760577
-0.947,-0.00477284
-0.948,-0.004794298
-0.949,-0.004815756
-0.95,-0.004831084
-0.951,-0.004852542
-0.952,-0.004870935
-0.953,-0.004886262
-0.954,-0.004907721
-0.955,-0.004923048
-0.956,-0.004941441
-0.957,-0.0049629
-0.958,-0.004978227
-0.959,-0.004993554
-0.96,-0.005015012
-0.961,-0.005036471
-0.962,-0.005048733
-0.963,-0.005067126
-0.964,-0.005085519
-0.965,-0.005100846
-0.966,-0.005119239
-0.967,-0.005137632
-0.968,-0.005152959
-0.969,-0.005171353
-0.97,-0.00518668
-0.971,-0.005202007
-0.972,-0.0052204
-0.973,-0.005238793
-0.974,-0.005251055
-0.975,-0.005269447
-0.976,-0.005287841
-0.977,-0.005300103
-0.978,-0.00531543
-0.979,-0.005336888
-0.98,-0.00534915
-0.981,-0.005364478
-0.982,-0.00538287
-0.983,-0.005395133
-0.984,-0.005407395
-0.985,-0.005425788
-0.986,-0.005438049
-0.987,-0.005453377
-0.988,-0.005468704
-0.989,-0.0054779
-0.99,-0.005496293
-0.991,-0.005511621
-0.992,-0.005520817
-0.993,-0.005536145
-0.994,-0.005551472
-0.995,-0.005560669
-0.996,-0.00557293
-0.997,-0.005591323
-0.998,-0.005600519
-0.999,-0.005612782
-1,-0.005628109
-1.001,-0.005637306
-1.002,-0.005649568
-1.003,-0.005664895
-1.004,-0.005677157
-1.005,-0.005683288
-1.006,-0.005698615
-1.007,-0.005710877
-1.008,-0.005720073
-1.009,-0.005732335
-1.01,-0.005744598
-1.011,-0.005753794
-1.012,-0.005766056
-1.013,-0.005778318
-1.014,-0.005784449
-1.015,-0.00579671
-1.016,-0.005805907
-1.017,-0.005812038
-1.018,-0.0058243
-1.019,-0.005833496
-1.02,-0.005842693
-1.021,-0.005851889
-1.022,-0.005861086
-1.023,-0.005864152
-1.024,-0.005879479
-1.025,-0.00588561
-1.026,-0.005891741
-1.027,-0.005900937
-1.028,-0.005910133
-1.029,-0.005910133
-1.03,-0.005925461
-1.031,-0.005931592
-1.032,-0.005931592
-1.033,-0.005943854
-1.034,-0.005946919
-1.035,-0.005949985
-1.036,-0.005962247
-1.037,-0.005968377
-1.038,-0.005968377
-1.039,-0.005977574
-1.04,-0.00598064
-1.041,-0.005983705
-1.042,-0.005989837
-1.043,-0.005995967
-1.044,-0.005999033
-1.045,-0.006002098
-1.046,-0.006008229
-1.047,-0.006011295
-1.048,-0.006011295
-1.049,-0.006020491
-1.05,-0.006020491
-1.051,-0.006020491
-1.052,-0.006026622
-1.053,-0.006026622
-1.054,-0.006026622
-1.055,-0.006032753
-1.056,-0.006032753
-1.057,-0.006032753
-1.058,-0.006035818
-1.059,-0.006035818
-1.06,-0.006035818
-1.061,-0.006035818
-1.062,-0.006038884
-1.063,-0.006035818
-1.064,-0.006035818
-1.065,-0.006035818
-1.066,-0.006032753
-1.067,-0.006035818
-1.068,-0.006035818
-1.069,-0.006032753
-1.07,-0.006032753
-1.071,-0.006032753
-1.072,-0.006026622
-1.073,-0.006026622
-1.074,-0.006026622
-1.075,-0.006023556
-1.076,-0.006023556
-1.077,-0.006023556
-1.078,-0.006020491
-1.079,-0.006017426
-1.08,-0.006017426
-1.081,-0.006011295
-1.082,-0.006011295
-1.083,-0.006011295
-1.084,-0.006005164
-1.085,-0.006005164
-1.086,-0.006002098
-1.087,-0.005999033
-1.088,-0.005995967
-1.089,-0.005992902
-1.09,-0.005989837
-1.091,-0.00598064
-1.092,-0.005986771
-1.093,-0.00598064
-1.094,-0.005974509
-1.095,-0.005977574
-1.096,-0.005959181
-1.097,-0.005962247
-1.098,-0.005959181
-1.099,-0.005946919
-1.1,-0.005949985
-1.101,-0.005943854
-1.102,-0.005934658
-1.103,-0.005934658
-1.104,-0.005925461
-1.105,-0.005916264
-1.106,-0.005916264
-1.107,-0.005907068
-1.108,-0.005900937
-1.109,-0.005900937
-1.11,-0.005891741
-1.111,-0.005882544
-1.112,-0.005876414
-1.113,-0.005873348
-1.114,-0.005861086
-1.115,-0.005854954
-1.116,-0.005851889
-1.117,-0.005836562
-1.118,-0.005833496
-1.119,-0.005830431
-1.12,-0.005818169
-1.121,-0.005815104
-1.122,-0.005808973
-1.123,-0.005793645
-1.124,-0.005793645
-1.125,-0.005784449
-1.126,-0.005772187
-1.127,-0.005769121
-1.128,-0.005762991
-1.129,-0.005750729
-1.13,-0.005744598
-1.131,-0.005738466
-1.132,-0.005726204
-1.133,-0.005720073
-1.134,-0.005710877
-1.135,-0.005701681
-1.136,-0.00569555
-1.137,-0.005689419
-1.138,-0.005677157
-1.139,-0.005671026
-1.14,-0.005664895
-1.141,-0.005652633
-1.142,-0.005643437
-1.143,-0.005637306
-1.144,-0.005628109
-1.145,-0.005618913
-1.146,-0.005612782
-1.147,-0.005603585
-1.148,-0.005591323
-1.149,-0.005585192
-1.15,-0.005579061
-1.151,-0.0055668
-1.152,-0.005560669
-1.153,-0.005551472
-1.154,-0.005542276
-1.155,-0.005536145
-1.156,-0.005526948
-1.157,-0.005514686
-1.158,-0.005511621
-1.159,-0.005502424
-1.16,-0.005490162
-1.161,-0.005484032
-1.162,-0.005474835
-1.163,-0.005465638
-1.164,-0.005459507
-1.165,-0.005453377
-1.166,-0.005441115
-1.167,-0.005431918
-1.168,-0.005428853
-1.169,-0.005413526
-1.17,-0.005407395
-1.171,-0.005401264
-1.172,-0.005389001
-1.173,-0.00538287
-1.174,-0.005373674
-1.175,-0.005361412
-1.176,-0.005355281
-1.177,-0.005352216
-1.178,-0.005336888
-1.179,-0.005327692
-1.18,-0.005324626
-1.181,-0.005309299
-1.182,-0.005303168
-1.183,-0.005297037
-1.184,-0.005284776
-1.185,-0.005275579
-1.186,-0.005269447
-1.187,-0.00525412
-1.188,-0.005251055
-1.189,-0.005241858
-1.19,-0.005229597
-1.191,-0.005217335
-1.192,-0.005211203
-1.193,-0.005202007
-1.194,-0.005189745
-1.195,-0.005183614
-1.196,-0.005174418
-1.197,-0.005162156
-1.198,-0.005156024
-1.199,-0.005149893
-1.2,-0.005134566
-1.201,-0.005128435
-1.202,-0.005119239
-1.203,-0.005106977
-1.204,-0.005100846
-1.205,-0.005094715
-1.206,-0.005082454
-1.207,-0.005070191
-1.208,-0.005073257
-1.209,-0.005054864
-1.21,-0.005048733
-1.211,-0.005045668
-1.212,-0.005024209
-1.213,-0.005024209
-1.214,-0.005015012
-1.215,-0.004999685
-1.216,-0.004999685
-1.217,-0.004987423
-1.218,-0.004972096
-1.219,-0.004975162
-1.22,-0.0049629
-1.221,-0.004950637
-1.222,-0.004950637
-1.223,-0.004941441
-1.224,-0.004926114
-1.225,-0.004919983
-1.226,-0.004919983
-1.227,-0.00490159
-1.228,-0.004898524
-1.229,-0.004892393
-1.23,-0.004880131
-1.231,-0.004880131
-1.232,-0.004864804
-1.233,-0.004858673
-1.234,-0.004858673
-1.235,-0.00484028
-1.236,-0.00484028
-1.237,-0.004837214
-1.238,-0.004824953
-1.239,-0.004818822
-1.24,-0.004809625
-1.241,-0.004797364
-1.242,-0.004797364
-1.243,-0.004788167
-1.244,-0.00477897
-1.245,-0.004775905
-1.246,-0.004763643
-1.247,-0.004763643
-1.248,-0.004763643
-1.249,-0.004748316
-1.25,-0.00474525
-1.251,-0.004739119
-1.252,-0.004729923
-1.253,-0.004723792
-1.254,-0.004723792
-1.255,-0.00471153
-1.256,-0.004708464
-1.257,-0.004705399
-1.258,-0.004693137
-1.259,-0.004690072
-1.26,-0.004690072
-1.261,-0.00467781
-1.262,-0.00467781
-1.263,-0.004674744
-1.264,-0.004662482
-1.265,-0.004665548
-1.266,-0.004662482
-1.267,-0.004644089
-1.268,-0.00465022
-1.269,-0.004644089
-1.27,-0.004631828
-1.271,-0.004634893
-1.272,-0.004631828
-1.273,-0.004619565
-1.274,-0.004622631
-1.275,-0.004619565
-1.276,-0.004610369
-1.277,-0.004610369
-1.278,-0.004607304
-1.279,-0.004595041
-1.28,-0.004601172
-1.281,-0.004595041
-1.282,-0.004585845
-1.283,-0.00458891
-1.284,-0.004585845
-1.285,-0.004579714
-1.286,-0.004576649
-1.287,-0.004573583
-1.288,-0.004567452
-1.289,-0.004567452
-1.29,-0.004567452
-1.291,-0.004558256
-1.292,-0.004558256
-1.293,-0.00455519
-1.294,-0.00454906
-1.295,-0.00454906
-1.296,-0.00454906
-1.297,-0.004542928
-1.298,-0.004542928
-1.299,-0.004539863
-1.3,-0.004533732
-1.301,-0.004533732
-1.302,-0.004530666
-1.303,-0.004524535
-1.304,-0.004524535
-1.305,-0.004524535
-1.306,-0.004518405
-1.307,-0.004518405
-1.308,-0.004518405
-1.309,-0.004512274
-1.31,-0.004512274
-1.311,-0.004512274
-1.312,-0.004506143
-1.313,-0.004506143
-1.314,-0.004506143
-1.315,-0.004500012
-1.316,-0.004500012
-1.317,-0.004500012
-1.318,-0.004500012
-1.319,-0.004496946
-1.32,-0.004496946
-1.321,-0.004490815
-1.322,-0.004493881
-1.323,-0.004490815
-1.324,-0.00448775
-1.325,-0.00448775
-1.326,-0.00448775
-1.327,-0.004481619
-1.328,-0.004484684
-1.329,-0.004484684
-1.33,-0.004481619
-1.331,-0.004481619
-1.332,-0.004481619
-1.333,-0.004481619
-1.334,-0.004478553
-1.335,-0.004481619
-1.336,-0.004475488
-1.337,-0.004478553
-1.338,-0.004478553
-1.339,-0.004475488
-1.34,-0.004475488
-1.341,-0.004478553
-1.342,-0.004475488
-1.343,-0.004475488
-1.344,-0.004475488
-1.345,-0.004472422
-1.346,-0.004475488
-1.347,-0.004475488
-1.348,-0.004472422
-1.349,-0.004472422
-1.35,-0.004478553
-1.351,-0.004475488
-1.352,-0.004475488
-1.353,-0.004475488
-1.354,-0.004472422
-1.355,-0.004475488
-1.356,-0.004478553
-1.357,-0.004475488
-1.358,-0.004478553
-1.359,-0.004481619
-1.36,-0.004478553
-1.361,-0.004481619
-1.362,-0.004484684
-1.363,-0.004475488
-1.364,-0.004484684
-1.365,-0.00448775
-1.366,-0.004481619
-1.367,-0.004484684
-1.368,-0.004500012
-1.369,-0.004490815
-1.37,-0.004493881
-1.371,-0.004503077
-1.372,-0.004490815
-1.373,-0.004500012
-1.374,-0.004506143
-1.375,-0.004496946
-1.376,-0.004506143
-1.377,-0.004509208
-1.378,-0.004509208
-1.379,-0.004515339
-1.38,-0.004518405
-1.381,-0.004518405
-1.382,-0.004524535
-1.383,-0.004524535
-1.384,-0.004527601
-1.385,-0.004536797
-1.386,-0.004536797
-1.387,-0.004536797
-1.388,-0.00454906
-1.389,-0.004545994
-1.39,-0.004552125
-1.391,-0.004564387
-1.392,-0.004561321
-1.393,-0.004567452
-1.394,-0.004582779
-1.395,-0.004576649
-1.396,-0.004585845
-1.397,-0.004595041
-1.398,-0.004598107
-1.399,-0.004604238
-1.4,-0.004613434
-1.401,-0.0046165
-1.402,-0.004625696
-1.403,-0.004634893
-1.404,-0.004641024
-1.405,-0.00465022
-1.406,-0.004659417
-1.407,-0.004668613
-1.408,-0.00467781
-1.409,-0.004690072
-1.41,-0.004699268
-1.411,-0.004705399
-1.412,-0.004720726
-1.413,-0.004732988
-1.414,-0.004742185
-1.415,-0.004760577
-1.416,-0.004769774
-1.417,-0.004785101
-1.418,-0.004803495
-1.419,-0.004812691
-1.42,-0.004831084
-1.421,-0.004852542
-1.422,-0.004864804
-1.423,-0.004886262
-1.424,-0.004904655
-1.425,-0.004923048
-1.426,-0.004947572
-1.427,-0.0049629
-1.428,-0.004987423
-1.429,-0.005011947
-1.43,-0.005036471
-1.431,-0.00506406
-1.432,-0.005085519
-1.433,-0.005113108
-1.434,-0.005143763
-1.435,-0.005177483
-1.436,-0.005205072
-1.437,-0.005235727
-1.438,-0.005272513
-1.439,-0.005312365
-1.44,-0.00534915
-1.441,-0.00538287
-1.442,-0.005428853
-1.443,-0.005468704
-1.444,-0.005517752
-1.445,-0.005560669
-1.446,-0.005609716
-1.447,-0.005661829
-1.448,-0.005717008
-1.449,-0.005772187
-1.45,-0.005830431
-1.451,-0.005891741
-1.452,-0.00595305
-1.453,-0.006020491
-1.454,-0.006087931
-1.455,-0.006161503
-1.456,-0.00623814
-1.457,-0.006314777
-1.458,-0.00639448
-1.459,-0.006483379
-1.46,-0.006572278
-1.461,-0.006667308
-1.462,-0.006765403
-1.463,-0.006863499
-1.464,-0.006967725
-1.465,-0.007081148
-1.466,-0.007191505
-1.467,-0.007314125
-1.468,-0.007439809
-1.469,-0.007565494
-1.47,-0.007700375
-1.471,-0.007838323
-1.472,-0.007988531
-1.473,-0.008135674
-1.474,-0.008295079
-1.475,-0.00845755
-1.476,-0.008623085
-1.477,-0.008800884
-1.478,-0.008981747
-1.479,-0.009168741
-1.48,-0.009367998
-1.481,-0.009564188
-1.482,-0.009775707
-1.483,-0.009993357
-1.484,-0.01021407
-1.485,-0.01045011
-1.486,-0.01068922
-1.487,-0.01092833
-1.488,-0.0111889
-1.489,-0.01144946
-1.49,-0.01171309
-1.491,-0.01199818
-1.492,-0.01228634
-1.493,-0.01257143
-1.494,-0.01287798
-1.495,-0.01318759
-1.496,-0.0134972
-1.497,-0.01383441
-1.498,-0.01416241
-1.499,-0.01449962
-1.5,-0.01474485
-1.499,-0.01476938
-1.498,-0.01478777
-1.497,-0.0148123
-1.496,-0.01482149
-1.495,-0.01482762
-1.494,-0.01483375
-1.493,-0.01483069
-1.492,-0.01483069
-1.491,-0.01483069
-1.49,-0.01481843
-1.489,-0.0148031
-1.488,-0.0147939
-1.487,-0.01477551
-1.486,-0.01475712
-1.485,-0.01473872
-1.484,-0.01471113
-1.483,-0.01468355
-1.482,-0.01465902
-1.481,-0.01462837
-1.48,-0.01459465
-1.479,-0.01456093
-1.478,-0.01452108
-1.477,-0.01448122
-1.476,-0.01444444
-1.475,-0.01440152
-1.474,-0.01435554
-1.473,-0.01430956
-1.472,-0.01425744
-1.471,-0.01420533
-1.47,-0.01415628
-1.469,-0.01410417
-1.468,-0.01403979
-1.467,-0.01398462
-1.466,-0.01392944
-1.465,-0.013862
-1.464,-0.01380988
-1.463,-0.01374244
-1.462,-0.01367194
-1.461,-0.01361369
-1.46,-0.01354319
-1.459,-0.01347268
-1.458,-0.01340524
-1.457,-0.01333167
-1.456,-0.0132581
-1.455,-0.01318452
-1.454,-0.01311095
-1.453,-0.01303125
-1.452,-0.01295155
-1.451,-0.01287798
-1.45,-0.01279214
-1.449,-0.01271244
-1.448,-0.01263274
-1.447,-0.0125469
-1.446,-0.0124672
-1.445,-0.0123783
-1.444,-0.01229553
-1.443,-0.01221277
-1.442,-0.01211774
-1.441,-0.01203497
-1.44,-0.01194913
-1.439,-0.0118541
-1.438,-0.01176827
-1.437,-0.01167937
-1.436,-0.01158434
-1.435,-0.01149238
-1.434,-0.01140654
-1.433,-0.01131151
-1.432,-0.01122261
-1.431,-0.01113065
-1.43,-0.01103256
-1.429,-0.01094059
-1.428,-0.01085169
-1.427,-0.0107536
-1.426,-0.01066163
-1.425,-0.01056967
-1.424,-0.01047157
-1.423,-0.01037961
-1.422,-0.01028458
-1.421,-0.01018955
-1.42,-0.01009145
-1.419,-0.01000255
-1.418,-0.009904457
-1.417,-0.009809428
-1.416,-0.009720528
-1.415,-0.009625498
-1.414,-0.009530468
-1.413,-0.009441569
-1.412,-0.009343474
-1.411,-0.009248444
-1.41,-0.009159545
-1.409,-0.009064515
-1.408,-0.008972551
-1.407,-0.008886717
-1.406,-0.008791687
-1.405,-0.008699723
-1.404,-0.008610823
-1.403,-0.008521925
-1.402,-0.008433026
-1.401,-0.008344127
-1.4,-0.008258293
-1.399,-0.008166328
-1.398,-0.008080496
-1.397,-0.007994662
-1.396,-0.007905763
-1.395,-0.007822994
-1.394,-0.007740227
-1.393,-0.007654393
-1.392,-0.007574691
-1.391,-0.007491923
-1.39,-0.007409154
-1.389,-0.007332517
-1.388,-0.007252815
-1.387,-0.007173113
-1.386,-0.00709341
-1.385,-0.007016772
-1.384,-0.006940136
-1.383,-0.006866564
-1.382,-0.006792993
-1.381,-0.006719421
-1.38,-0.006645849
-1.379,-0.006578409
-1.378,-0.006504837
-1.377,-0.006434331
-1.376,-0.00636689
-1.375,-0.006293319
-1.374,-0.006228944
-1.373,-0.006167634
-1.372,-0.006097128
-1.371,-0.006035818
-1.37,-0.005971443
-1.369,-0.005907068
-1.368,-0.005848824
-1.367,-0.005787514
-1.366,-0.005723139
-1.365,-0.005667961
-1.364,-0.00560665
-1.363,-0.005551472
-1.362,-0.005499359
-1.361,-0.005441115
-1.36,-0.005385936
-1.359,-0.005336888
-1.358,-0.00528171
-1.357,-0.005232662
-1.356,-0.005183614
-1.355,-0.005128435
-1.354,-0.005082454
-1.353,-0.005036471
-1.352,-0.004984358
-1.351,-0.004944507
-1.35,-0.004898524
-1.349,-0.004846411
-1.348,-0.004809625
-1.347,-0.004763643
-1.346,-0.004720726
-1.345,-0.004680875
-1.344,-0.004641024
-1.343,-0.004598107
-1.342,-0.004558256
-1.341,-0.004524535
-1.34,-0.004481619
-1.339,-0.004447898
-1.338,-0.004417243
-1.337,-0.004374327
-1.336,-0.004343672
-1.335,-0.004306886
-1.334,-0.004273166
-1.333,-0.004242511
-1.332,-0.004205726
-1.331,-0.004172005
-1.33,-0.004144416
-1.329,-0.004113761
-1.328,-0.004083106
-1.327,-0.004052451
-1.326,-0.004024862
-1.325,-0.003994207
-1.324,-0.003966617
-1.323,-0.003939028
-1.322,-0.003911439
-1.321,-0.003886915
-1.32,-0.003862391
-1.319,-0.003831736
-1.318,-0.003810278
-1.317,-0.003785754
-1.316,-0.003758165
-1.315,-0.003736707
-1.314,-0.003715248
-1.313,-0.003687659
-1.312,-0.003669266
-1.311,-0.003647808
-1.31,-0.003623284
-1.309,-0.003604891
-1.308,-0.003580367
-1.307,-0.003558908
-1.306,-0.003540515
-1.305,-0.003522123
-1.304,-0.003500664
-1.303,-0.003482271
-1.302,-0.003463879
-1.301,-0.003445486
-1.3,-0.003430158
-1.299,-0.003405634
-1.298,-0.003390307
-1.297,-0.003371914
-1.296,-0.003353521
-1.295,-0.003338194
-1.294,-0.003322866
-1.293,-0.003304473
-1.292,-0.003289146
-1.291,-0.003273819
-1.29,-0.003255426
-1.289,-0.003240098
-1.288,-0.003227836
-1.287,-0.003209443
-1.286,-0.003194116
-1.285,-0.003181854
-1.284,-0.003166527
-1.283,-0.003151199
-1.282,-0.003142003
-1.281,-0.003120545
-1.28,-0.003111348
-1.279,-0.003096021
-1.278,-0.003080693
-1.277,-0.003068431
-1.276,-0.003059235
-1.275,-0.003043907
-1.274,-0.003031645
-1.273,-0.003019383
-1.272,-0.003004056
-1.271,-0.002991794
-1.27,-0.002982598
-1.269,-0.002970336
-1.268,-0.002955008
-1.267,-0.002945812
-1.266,-0.00293355
-1.265,-0.002918222
-1.264,-0.002909026
-1.263,-0.00289983
-1.262,-0.002884502
-1.261,-0.002875306
-1.26,-0.00286611
-1.259,-0.002850782
-1.258,-0.002844651
-1.257,-0.002832389
-1.256,-0.002817062
-1.255,-0.002810931
-1.254,-0.002798669
-1.253,-0.002786407
-1.252,-0.002780276
-1.251,-0.002768014
-1.25,-0.002755752
-1.249,-0.002749621
-1.248,-0.002737359
-1.247,-0.002728163
-1.246,-0.002715901
-1.245,-0.002706704
-1.244,-0.002697508
-1.243,-0.002691377
-1.242,-0.002676049
-1.241,-0.002669919
-1.24,-0.002657657
-1.239,-0.002645395
-1.238,-0.002636198
-1.237,-0.002630068
-1.236,-0.002617805
-1.235,-0.002608609
-1.234,-0.002602478
-1.233,-0.002590216
-1.232,-0.00258102
-1.231,-0.002574889
-1.23,-0.002565692
-1.229,-0.00255343
-1.228,-0.002547299
-1.227,-0.002538103
-1.226,-0.002525841
-1.225,-0.00251971
-1.224,-0.002513579
-1.223,-0.002498251
-1.222,-0.002495186
-1.221,-0.00248599
-1.22,-0.002476793
-1.219,-0.002470662
-1.218,-0.0024584
-1.217,-0.002452269
-1.216,-0.002443073
-1.215,-0.002430811
-1.214,-0.00242468
-1.213,-0.002418549
-1.212,-0.002409352
-1.211,-0.002403222
-1.21,-0.002394025
-1.209,-0.002384829
-1.208,-0.002378698
-1.207,-0.002372567
-1.206,-0.002360305
-1.205,-0.002357239
-1.204,-0.002348043
-1.203,-0.002335781
-1.202,-0.002332716
-1.201,-0.002326585
-1.2,-0.002317388
-1.199,-0.002311257
-1.198,-0.002302061
-1.197,-0.002292864
-1.196,-0.002286733
-1.195,-0.002280602
-1.194,-0.00226834
-1.193,-0.002262209
-1.192,-0.002259144
-1.191,-0.002246882
-1.19,-0.002243817
-1.189,-0.002237685
-1.188,-0.002228489
-1.187,-0.002219293
-1.186,-0.002216227
-1.185,-0.002207031
-1.184,-0.0022009
-1.183,-0.002194769
-1.182,-0.002182507
-1.181,-0.002179441
-1.18,-0.00217331
-1.179,-0.002161048
-1.178,-0.002161048
-1.177,-0.002151852
-1.176,-0.002142655
-1.175,-0.00213959
-1.174,-0.002133459
-1.173,-0.002124263
-1.172,-0.002118132
-1.171,-0.002112001
-1.17,-0.00210587
-1.169,-0.002099739
-1.168,-0.002093608
-1.167,-0.002084411
-1.166,-0.002081346
-1.165,-0.002075215
-1.164,-0.002066019
-1.163,-0.002059887
-1.162,-0.002056822
-1.161,-0.002047626
-1.16,-0.002041495
-1.159,-0.002035364
-1.158,-0.002029233
-1.157,-0.002023102
-1.156,-0.002016971
-1.155,-0.00201084
-1.154,-0.002004709
-1.153,-0.001998578
-1.152,-0.001989381
-1.151,-0.001986316
-1.15,-0.001980185
-1.149,-0.001970988
-1.148,-0.001964858
-1.147,-0.001961792
-1.146,-0.001952596
-1.145,-0.001946465
-1.144,-0.001940334
-1.143,-0.001934203
-1.142,-0.001931137
-1.141,-0.001925006
-1.14,-0.00191581
-1.139,-0.001912744
-1.138,-0.001906613
-1.137,-0.001894351
-1.136,-0.001891286
-1.135,-0.001885155
-1.134,-0.001879024
-1.133,-0.001875959
-1.132,-0.001866762
-1.131,-0.001857566
-1.13,-0.001857566
-1.129,-0.001851435
-1.128,-0.001842238
-1.127,-0.001836107
-1.126,-0.001829976
-1.125,-0.00182078
-1.124,-0.001817714
-1.123,-0.001811583
-1.122,-0.001802387
-1.121,-0.001796256
-1.12,-0.001790125
-1.119,-0.001783994
-1.118,-0.001777863
-1.117,-0.001771732
-1.116,-0.001762536
-1.115,-0.00175947
-1.114,-0.001753339
-1.113,-0.001744143
-1.112,-0.001738012
-1.111,-0.001734946
-1.11,-0.00172575
-1.109,-0.001719619
-1.108,-0.001716554
-1.107,-0.001707357
-1.106,-0.001704292
-1.105,-0.001698161
-1.104,-0.001688964
-1.103,-0.001685899
-1.102,-0.001679768
-1.101,-0.001673637
-1.1,-0.001670571
-1.099,-0.001661375
-1.098,-0.001655244
-1.097,-0.001652178
-1.096,-0.001646047
-1.095,-0.001639916
-1.094,-0.001636851
-1.093,-0.001627655
-1.092,-0.001618458
-1.091,-0.001618458
-1.09,-0.001612327
-1.089,-0.001640328
-1.088,-0.001636956
-1.087,-0.001630212
-1.086,-0.001622855
-1.085,-0.001619483
-1.084,-0.001613045
-1.083,-0.001607528
-1.082,-0.001603849
-1.081,-0.001596798
-1.08,-0.001591281
-1.079,-0.001586682
-1.078,-0.001578712
-1.077,-0.001574114
-1.076,-0.001569516
-1.075,-0.001559706
-1.074,-0.00155848
-1.073,-0.001552962
-1.072,-0.001545605
-1.071,-0.001541006
-1.07,-0.001538248
-1.069,-0.001527518
-1.068,-0.001524453
-1.067,-0.001520774
-1.066,-0.001512804
-1.065,-0.001508819
-1.064,-0.001503608
-1.063,-0.001495331
-1.062,-0.001491039
-1.061,-0.001487667
-1.06,-0.001479084
-1.059,-0.001475405
-1.058,-0.001470807
-1.057,-0.00146345
-1.056,-0.001461304
-1.055,-0.001456093
-1.054,-0.001446896
-1.053,-0.001445057
-1.052,-0.001438313
-1.051,-0.001431569
-1.05,-0.00142881
-1.049,-0.001423599
-1.048,-0.001416548
-1.047,-0.001414096
-1.046,-0.001407658
-1.045,-0.001400607
-1.044,-0.001396316
-1.043,-0.001391717
-1.042,-0.00138528
-1.041,-0.001379762
-1.04,-0.001376084
-1.039,-0.001369033
-1.038,-0.001366274
-1.037,-0.001362289
-1.036,-0.00135156
-1.035,-0.00135156
-1.034,-0.001345122
-1.033,-0.001338378
-1.032,-0.0013347
-1.031,-0.001328262
-1.03,-0.001321518
-1.029,-0.001319372
-1.028,-0.001311095
-1.027,-0.001307417
-1.026,-0.001302819
-1.025,-0.001295155
-1.024,-0.00129117
-1.023,-0.001287491
-1.022,-0.001278908
-1.021,-0.001276455
-1.02,-0.00127247
-1.019,-0.001263887
-1.018,-0.001259902
-1.017,-0.00125469
-1.016,-0.00124856
-1.015,-0.001243655
-1.014,-0.001240283
-1.013,-0.001232006
-1.012,-0.001229247
-1.011,-0.001224649
-1.01,-0.001217292
-1.009,-0.001212693
-1.008,-0.001208708
-1.007,-0.001200738
-1.006,-0.001197366
-1.005,-0.001192461
-1.004,-0.001185104
-1.003,-0.001181119
-1.002,-0.001176827
-1.001,-0.001169164
-1,-0.001164872
-0.9990003,-0.001161193
-0.9980002,-0.001155062
-0.9970002,-0.001149544
-0.9960002,-0.001144946
-0.9950002,-0.001139735
-0.9940003,-0.001133297
-0.9930002,-0.001129312
-0.9920002,-0.001124101
-0.9910002,-0.001117663
-0.9900002,-0.001113985
-0.9890002,-0.001108774
-0.9880002,-0.001102029
-0.9870002,-0.001099271
-0.9860002,-0.00109222
-0.9850003,-0.001085782
-0.9840002,-0.001083023
-0.9830002,-0.001076586
-0.9820002,-0.001070761
-0.9810002,-0.001068309
-0.9800002,-0.001061565
-0.9790002,-0.001055128
-0.9780002,-0.001052369
-0.9770002,-0.001046238
-0.9760002,-0.001040107
-0.9750002,-0.001034895
-0.9740002,-0.00103091
-0.9730002,-0.001024166
-0.9720002,-0.001021101
-0.9710003,-0.001016809
-0.9700002,-0.001007613
-0.9690002,-0.00100516
-0.9680002,-0.0009996422
-0.9670002,-0.0009928982
-0.9660002,-0.000988913
-0.9650002,-0.0009830886
-0.9640002,-0.0009763446
-0.9630002,-0.0009738922
-0.9620003,-0.0009671481
-0.9610002,-0.0009619368
-0.9600002,-0.0009576452
-0.9590002,-0.000950288
-0.9580002,-0.0009453832
-0.9570003,-0.0009413981
-0.9560002,-0.0009331212
-0.9550002,-0.0009297492
-0.9540002,-0.0009248445
-0.9530002,-0.0009174873
-0.9520002,-0.0009128891
-0.9510002,-0.0009082909
-0.9500002,-0.0009006272
-0.9490002,-0.0008963355
-0.9480003,-0.0008917373
-0.9470002,-0.0008846867
-0.9460002,-0.0008797819
-0.9450002,-0.0008745705
-0.9440002,-0.0008675199
-0.9430002,-0.0008623086
-0.9420002,-0.0008577104
-0.9410002,-0.0008506598
-0.9400002,-0.0008445288
-0.9390002,-0.000839624
-0.9380002,-0.0008337997
-0.9370002,-0.000826749
-0.9360002,-0.000823377
-0.9350002,-0.000817246
-0.9340003,-0.0008086627
-0.9330002,-0.0008055972
-0.9320002,-0.0007991597
-0.9310002,-0.000791496
-0.9300002,-0.0007868978
-0.9290002,-0.0007804602
-0.9280002,-0.0007746358
-0.9270002,-0.0007691179
-0.9260002,-0.0007623739
-0.9250003,-0.0007577756
-0.9240002,-0.000750725
-0.9230002,-0.0007436744
-0.9220002,-0.0007390762
-0.9210002,-0.0007317191
-0.9200003,-0.0007274274
-0.9190002,-0.0007216029
-0.9180002,-0.0007139393
-0.9170002,-0.0007081148
-0.9160002,-0.0007022904
-0.9150002,-0.0006952398
-0.9140002,-0.0006897219
-0.9130002,-0.0006848171
-0.9120002,-0.0006759273
-0.9110003,-0.0006704094
-0.9100002,-0.0006655046
-0.9090002,-0.0006581475
-0.9080002,-0.00065171
-0.9070002,-0.0006461921
-0.9060002,-0.0006391415
-0.9050002,-0.0006314777
-0.9040002,-0.0006274926
-0.9030002,-0.0006201355
-0.9020002,-0.0006133915
-0.9010002,-0.0006078735
-0.9000002,-0.0006005164
-0.8990002,-0.0005937723
-0.8980002,-0.0005888676
-0.8970003,-0.0005808973
-0.8960002,-0.0005747664
-0.8950002,-0.0005692485
-0.8940002,-0.0005618913
-0.8930002,-0.0005554538
-0.8920002,-0.0005496293
-0.8910002,-0.0005422722
-0.8900002,-0.0005358347
-0.8890002,-0.0005303168
-0.8880002,-0.0005223466
-0.8870002,-0.0005171353
-0.8860002,-0.0005113108
-0.8850002,-0.000503034
-0.8840002,-0.0004978227
-0.8830003,-0.0004910787
-0.8820002,-0.0004828018
-0.8810002,-0.0004775905
-0.8800002,-0.0004723792
-0.8790002,-0.0004637959
-0.8780002,-0.000458278
-0.8770002,-0.0004518405
-0.8760002,-0.0004438702
-0.8750002,-0.0004377393
-0.8740003,-0.0004319148
-0.8730002,-0.000423638
-0.8720002,-0.0004178136
-0.8710002,-0.0004119892
-0.8700002,-0.0004030993
-0.8690003,-0.0003969684
-0.8680002,-0.0003908373
-0.8670002,-0.0003834802
-0.8660002,-0.0003770427
-0.8650002,-0.0003706052
-0.8640002,-0.0003629415
-0.8630002,-0.0003558909
-0.8620002,-0.000350373
-0.8610002,-0.0003433224
-0.8600003,-0.0003350456
-0.8590002,-0.0003298343
-0.8580002,-0.000321864
-0.8570002,-0.0003142003
-0.8560002,-0.0003086824
-0.8550002,-0.0003004056
-0.8540002,-0.000293355
-0.8530002,-0.0002881437
-0.8520002,-0.0002798669
-0.8510002,-0.0002722032
-0.8500002,-0.0002666853
-0.8490002,-0.000258102
-0.8480002,-0.0002513579
-0.8470002,-0.0002446139
-0.8460003,-0.0002369501
-0.8450002,-0.000229593
-0.8440002,-0.0002231555
-0.8430002,-0.0002154918
-0.8420002,-0.0002081346
-0.8410002,-0.0002007774
-0.8400002,-0.0001937268
-0.8390002,-0.0001860631
-0.8380002,-0.0001783994
-0.8370003,-0.0001728816
-0.8360002,-0.000163072
-0.8350002,-0.0001566345
-0.8340002,-0.0001498904
-0.8330002,-0.0001449042
-0.8320003,-0.0001379149
-0.8310002,-0.0001300366
-0.8300002,-0.0001220357
-0.8290002,-0.000115169
-0.8280002,-0.0001071374
-0.8270002,-9.886064E-05
-0.8260002,-9.245379E-05
-0.8250002,-8.380912E-05
-0.8240002,-7.685048E-05
-0.8230003,-6.943201E-05
-0.8220002,-6.100194E-05
-0.8210002,-5.425787E-05
-0.8200002,-4.512274E-05
-0.8190002,-3.715248E-05
-0.8180002,-2.964205E-05
-0.8170002,-2.142655E-05
-0.8160002,-1.357892E-05
-0.8150002,-6.313726E-06
-0.8140002,8.595024E-07
-0.8130002,8.768448E-06
-0.8120002,1.713721E-05
-0.8110002,2.314556E-05
-0.8100002,3.243397E-05
-0.8090003,4.089471E-05
-0.8080002,4.72096E-05
-0.8070002,5.628342E-05
-0.8060002,6.422302E-05
-0.8050002,7.139625E-05
-0.8040002,8.016354E-05
-0.8030002,8.844034E-05
-0.8020002,9.500048E-05
-0.8010002,0.0001036451
-0.8000003,6.134147E-05
-0.8009998,1.595218E-06
-0.8019998,-3.742837E-05
-0.8029998,-6.927874E-05
-0.8039998,-9.938178E-05
-0.8049998,-0.000124764
-0.8059998,-0.0001494105
-0.8069998,-0.0001733825
-0.8079998,-0.0001946876
-0.8089998,-0.0002156249
-0.8099998,-0.0002362556
-0.8109998,-0.00025425
-0.8119998,-0.0002730107
-0.8129998,-0.0002916488
-0.8139998,-0.0003053104
-0.8149998,-0.0003215575
-0.8159998,-0.0003378045
-0.8169998,-0.0003543581
-0.8179998,-0.0003684594
-0.8189998,-0.0003856261
-0.8199998,-0.0004000338
-0.8209998,-0.0004129088
-0.8219998,-0.0004285428
-0.8229998,-0.0004417244
-0.8239998,-0.0004536798
-0.8249998,-0.0004699268
-0.8259998,-0.0004803495
-0.8269998,-0.0004938376
-0.8279998,-0.0005085519
-0.8289998,-0.0005189746
-0.8299998,-0.000531543
-0.8309998,-0.000543805
-0.8319998,-0.0005545341
-0.8329998,-0.0005680223
-0.8339998,-0.0005787515
-0.8349998,-0.000588561
-0.8359998,-0.0006020491
-0.8369998,-0.0006115522
-0.8379998,-0.0006238141
-0.8389998,-0.0006354629
-0.8399998,-0.0006431266
-0.8409998,-0.0006560017
-0.8419998,-0.0006664242
-0.8429998,-0.000674088
-0.8439998,-0.0006863499
-0.8449998,-0.0006973856
-0.8459998,-0.0007044363
-0.8469998,-0.0007173113
-0.8479998,-0.0007258946
-0.8489998,-0.0007347845
-0.8499998,-0.0007458202
-0.8509998,-0.0007574691
-0.8519998,-0.0007651328
-0.8529998,-0.0007746358
-0.8539998,-0.0007841389
-0.8549998,-0.0007930287
-0.8559998,-0.0008009989
-0.8569998,-0.0008129543
-0.8579998,-0.0008206181
-0.8589998,-0.0008285883
-0.8599998,-0.0008399306
-0.8609998,-0.0008469812
-0.8619998,-0.0008555645
-0.8629998,-0.0008653741
-0.8639998,-0.0008730378
-0.8649998,-0.0008822342
-0.8659998,-0.0008917373
-0.8669998,-0.0008987879
-0.8679998,-0.0009079843
-0.8689998,-0.0009168742
-0.8699998,-0.0009242314
-0.8709998,-0.0009328147
-0.8719998,-0.0009413981
-0.8729998,-0.0009493683
-0.8739998,-0.0009564189
-0.8749998,-0.0009668416
-0.8759998,-0.0009741987
-0.8769998,-0.0009803297
-0.8779998,-0.0009892196
-0.8789998,-0.0009971899
-0.8799998,-0.001004547
-0.8809998,-0.001013437
-0.8819998,-0.001019874
-0.8829998,-0.001028764
-0.8839998,-0.001036428
-0.8849998,-0.001043479
-0.8859998,-0.001052062
-0.8869998,-0.0010585
-0.8879998,-0.00106647
-0.8889998,-0.00107536
-0.8899998,-0.001080571
-0.8909998,-0.001090381
-0.8919998,-0.001097738
-0.8929998,-0.001102643
-0.8939998,-0.001110919
-0.8949998,-0.001118583
-0.8959998,-0.001122568
-0.8969998,-0.001131765
-0.8979998,-0.001138509
-0.8989998,-0.00114372
-0.8999998,-0.001151077
-0.9009998,-0.001158741
-0.9019998,-0.001164565
-0.9029998,-0.00117039
-0.9039998,-0.001178053
-0.9049998,-0.001183878
-0.9059998,-0.001189089
-0.9069998,-0.001197673
-0.9079998,-0.001203497
-0.9089998,-0.001209015
-0.9099998,-0.001216985
-0.9109998,-0.001221583
-0.9119998,-0.001227408
-0.9129998,-0.001234765
-0.9139998,-0.001239976
-0.9149998,-0.001245494
-0.9159998,-0.001253158
-0.9169998,-0.001258676
-0.9179998,-0.001263274
-0.9189998,-0.001270631
-0.9199998,-0.001276762
-0.9209998,-0.001281054
-0.9219998,-0.001287491
-0.9229998,-0.001292089
-0.9239998,-0.001299753
-0.9249998,-0.001305577
-0.9259998,-0.001309256
-0.9269998,-0.001316
-0.9279998,-0.001322131
-0.9289998,-0.00132581
-0.9299998,-0.001331634
-0.9309998,-0.001338378
-0.9319998,-0.00134175
-0.9329998,-0.001348494
-0.9339998,-0.001353706
-0.9349998,-0.00135861
-0.9359998,-0.001361676
-0.9369998,-0.00136842
-0.9379998,-0.001374551
-0.9389998,-0.001377616
-0.9399998,-0.001384054
-0.9409998,-0.001388652
-0.9419998,-0.001392944
-0.9429998,-0.001399381
-0.9439998,-0.001403673
-0.9449998,-0.001408271
-0.9459998,-0.001414096
-0.9469998,-0.001417468
-0.9479998,-0.001422985
-0.9489998,-0.001428503
-0.9499998,-0.001431875
-0.9509998,-0.001438619
-0.9519998,-0.001441685
-0.9529998,-0.001447816
-0.9539998,-0.001452108
-0.9549998,-0.001456706
-0.9559998,-0.001461304
-0.9569998,-0.001464676
-0.9579998,-0.001470807
-0.9589998,-0.001475405
-0.9599998,-0.00147939
-0.9609998,-0.001484602
-0.9619998,-0.001489506
-0.9629998,-0.001492265
-0.9639998,-0.001498396
-0.9649998,-0.001502382
-0.9659998,-0.00150606
-0.9669998,-0.001512498
-0.9679998,-0.001516483
-0.9689998,-0.001519855
-0.9699998,-0.001525066
-0.9709998,-0.001529971
-0.9719998,-0.001532423
-0.9729998,-0.001537635
-0.9739998,-0.001543152
-0.9749998,-0.001547444
-0.9759998,-0.001551123
-0.9769998,-0.001556641
-0.9779998,-0.001559093
-0.9789998,-0.001563078
-0.9799998,-0.001569516
-0.9809998,-0.001572888
-0.9819998,-0.00157626
-0.9829998,-0.001581778
-0.9839998,-0.001584536
-0.9849998,-0.001589441
-0.9859998,-0.001595879
-0.9869998,-0.001597105
-0.9879998,-0.001602623
-0.9889998,-0.001607221
-0.9899998,-0.001610286
-0.9909998,-0.001614885
-0.9919998,-0.001620096
-0.9929998,-0.001623161
-0.9939998,-0.001628066
-0.9949998,-0.001633584
-0.9959998,-0.001636036
-0.9969998,-0.001641248
-0.9979998,-0.001645233
-0.9989998,-0.001649218
-0.9999998,-0.001651977
-1.001,-0.001659028
-1.002,-0.001662706
-1.003,-0.001666385
-1.004,-0.00167129
-1.005,-0.001673129
-1.006,-0.001679873
-1.007,-0.001683551
-1.008,-0.001686004
-1.009,-0.001693668
-1.01,-0.001696733
-1.011,-0.001698266
-1.012,-0.001706236
-1.013,-0.001709302
-1.014,-0.001711447
-1.015,-0.001718805
-1.016,-0.001721257
-1.017,-0.001724629
-1.018,-0.001731066
-1.019,-0.001734745
-1.02,-0.001738424
-1.021,-0.001743022
-1.022,-0.001747927
-1.023,-0.001751912
-1.024,-0.001756203
-1.025,-0.001761721
-1.026,-0.001762028
-1.027,-0.001769998
-1.028,-0.001773983
-1.029,-0.001775516
-1.03,-0.001783486
-1.031,-0.001785019
-1.032,-0.001788391
-1.033,-0.001797281
-1.034,-0.00179912
-1.035,-0.001801573
-1.036,-0.001809849
-1.037,-0.001812608
-1.038,-0.001814754
-1.039,-0.001822724
-1.04,-0.001823644
-1.041,-0.001829162
-1.042,-0.001835906
-1.043,-0.001838052
-1.044,-0.001843263
-1.045,-0.001851233
-1.046,-0.00185154
-1.047,-0.001857671
-1.048,-0.001864108
-1.049,-0.001865641
-1.05,-0.001870546
-1.051,-0.001876064
-1.052,-0.00187729
-1.053,-0.001884341
-1.054,-0.001889552
-1.055,-0.001891085
-1.056,-0.001897829
-1.057,-0.001901814
-1.058,-0.00190304
-1.059,-0.00191101
-1.06,-0.001916835
-1.061,-0.001918061
-1.062,-0.001924805
-1.063,-0.001929403
-1.064,-0.001931856
-1.065,-0.001937067
-1.066,-0.001943198
-1.067,-0.001944731
-1.068,-0.001950248
-1.069,-0.001957912
-1.07,-0.001958219
-1.071,-0.001964043
-1.072,-0.001969868
-1.073,-0.001972013
-1.074,-0.001978451
-1.075,-0.001983356
-1.076,-0.001986421
-1.077,-0.001991326
-1.078,-0.001995924
-1.079,-0.002002668
-1.08,-0.002007573
-1.081,-0.002009719
-1.082,-0.002012171
-1.083,-0.002021368
-1.084,-0.002022594
-1.085,-0.002026885
-1.086,-0.002034856
-1.087,-0.002037002
-1.088,-0.00204068
-1.089,-0.002048344
-1.09,-0.002051409
-1.091,-0.002054475
-1.092,-0.002061525
-1.093,-0.002067043
-1.094,-0.002070109
-1.095,-0.002076546
-1.096,-0.002081451
-1.097,-0.00208421
-1.098,-0.002090341
-1.099,-0.002094939
-1.1,-0.002098005
-1.101,-0.002105362
-1.102,-0.002109347
-1.103,-0.002113945
-1.104,-0.002120076
-1.105,-0.002124674
-1.106,-0.00212866
-1.107,-0.00213571
-1.108,-0.002139082
-1.109,-0.00214368
-1.11,-0.002149811
-1.111,-0.002155329
-1.112,-0.002159008
-1.113,-0.002164219
-1.114,-0.00217035
-1.115,-0.002173109
-1.116,-0.002183532
-1.117,-0.002186291
-1.118,-0.002186291
-1.119,-0.002196713
-1.12,-0.002199472
-1.121,-0.002202844
-1.122,-0.002212041
-1.123,-0.00221388
-1.124,-0.002217558
-1.125,-0.002225835
-1.126,-0.002229207
-1.127,-0.002232273
-1.128,-0.00224055
-1.129,-0.002243922
-1.13,-0.002249439
-1.131,-0.002256797
-1.132,-0.002258023
-1.133,-0.002262314
-1.134,-0.002269978
-1.135,-0.002270898
-1.136,-0.002275803
-1.137,-0.002284999
-1.138,-0.002285612
-1.139,-0.00229021
-1.14,-0.0022991
-1.141,-0.0022991
-1.142,-0.002305844
-1.143,-0.002313202
-1.144,-0.002314121
-1.145,-0.002320252
-1.146,-0.002327916
-1.147,-0.002328222
-1.148,-0.002335273
-1.149,-0.002342324
-1.15,-0.002343856
-1.151,-0.002351213
-1.152,-0.002356425
-1.153,-0.002355812
-1.154,-0.002368074
-1.155,-0.002372672
-1.156,-0.002371446
-1.157,-0.002381255
-1.158,-0.002385853
-1.159,-0.002384627
-1.16,-0.002394743
-1.161,-0.002396889
-1.162,-0.002400874
-1.163,-0.002410684
-1.164,-0.002411297
-1.165,-0.002414363
-1.166,-0.002423252
-1.167,-0.002423559
-1.168,-0.00242877
-1.169,-0.002436127
-1.17,-0.002435514
-1.171,-0.002441339
-1.172,-0.002450535
-1.173,-0.002448083
-1.174,-0.002453294
-1.175,-0.002457892
-1.176,-0.002458506
-1.177,-0.002463104
-1.178,-0.002468622
-1.179,-0.002466476
-1.18,-0.0024723
-1.181,-0.002480883
-1.182,-0.002475366
-1.183,-0.002485175
-1.184,-0.002490693
-1.185,-0.002488241
-1.186,-0.002494678
-1.187,-0.002499276
-1.188,-0.002498357
-1.189,-0.002505714
-1.19,-0.002511232
-1.191,-0.002509392
-1.192,-0.002515523
-1.193,-0.002521655
-1.194,-0.002521348
-1.195,-0.002528092
-1.196,-0.002533916
-1.197,-0.002533916
-1.198,-0.002540354
-1.199,-0.002546791
-1.2,-0.002546791
-1.201,-0.002554149
-1.202,-0.00256028
-1.203,-0.002562119
-1.204,-0.002568556
-1.205,-0.002578059
-1.206,-0.002576833
-1.207,-0.002579899
-1.208,-0.002592161
-1.209,-0.002590321
-1.21,-0.002597678
-1.211,-0.002608714
-1.212,-0.002606262
-1.213,-0.002615458
-1.214,-0.002624348
-1.215,-0.002623122
-1.216,-0.002630786
-1.217,-0.002638756
-1.218,-0.002639676
-1.219,-0.002646726
-1.22,-0.002655003
-1.221,-0.002658375
-1.222,-0.002664199
-1.223,-0.002671556
-1.224,-0.002674315
-1.225,-0.002681979
-1.226,-0.002689643
-1.227,-0.002692708
-1.228,-0.002700679
-1.229,-0.002708955
-1.23,-0.002712021
-1.231,-0.002720604
-1.232,-0.002728268
-1.233,-0.002730414
-1.234,-0.002741143
-1.235,-0.002746967
-1.236,-0.002753405
-1.237,-0.002762908
-1.238,-0.002771185
-1.239,-0.002771185
-1.24,-0.002785899
-1.241,-0.002788351
-1.242,-0.002796015
-1.243,-0.002806744
-1.244,-0.002812875
-1.245,-0.002816554
-1.246,-0.002830348
-1.247,-0.00283556
-1.248,-0.00284261
-1.249,-0.002855179
-1.25,-0.002859164
-1.251,-0.002866215
-1.252,-0.002880929
-1.253,-0.002888593
-1.254,-0.002894417
-1.255,-0.002906986
-1.256,-0.002914036
-1.257,-0.002922313
-1.258,-0.002940706
-1.259,-0.002944078
-1.26,-0.002952968
-1.261,-0.002967069
-1.262,-0.002971054
-1.263,-0.002979638
-1.264,-0.002995578
-1.265,-0.003002015
-1.266,-0.003013971
-1.267,-0.002991794
-1.268,-0.002997925
-1.269,-0.003010187
-1.27,-0.003022449
-1.271,-0.00302858
-1.272,-0.003043907
-1.273,-0.003056169
-1.274,-0.003065366
-1.275,-0.003080693
-1.276,-0.003096021
-1.277,-0.003102152
-1.278,-0.003117479
-1.279,-0.003132806
-1.28,-0.003142003
-1.281,-0.00315733
-1.282,-0.003172658
-1.283,-0.003184919
-1.284,-0.003197182
-1.285,-0.00321864
-1.286,-0.003230902
-1.287,-0.003246229
-1.288,-0.003261557
-1.289,-0.003273819
-1.29,-0.003292212
-1.291,-0.003310604
-1.292,-0.003322866
-1.293,-0.003341259
-1.294,-0.003359652
-1.295,-0.003374979
-1.296,-0.003396438
-1.297,-0.003414831
-1.298,-0.003427093
-1.299,-0.003451617
-1.3,-0.003470009
-1.301,-0.003485337
-1.302,-0.003509861
-1.303,-0.003528254
-1.304,-0.003549712
-1.305,-0.003574236
-1.306,-0.003595694
-1.307,-0.003614087
-1.308,-0.003638611
-1.309,-0.003663135
-1.31,-0.003678462
-1.311,-0.003712183
-1.312,-0.003733641
-1.313,-0.003755099
-1.314,-0.00378882
-1.315,-0.003810278
-1.316,-0.003840933
-1.317,-0.003871588
-1.318,-0.003896111
-1.319,-0.003923701
-1.32,-0.003960487
-1.321,-0.003985011
-1.322,-0.004021796
-1.323,-0.004055517
-1.324,-0.004086172
-1.325,-0.004122957
-1.326,-0.004162808
-1.327,-0.004193463
-1.328,-0.004233315
-1.329,-0.004276231
-1.33,-0.004306886
-1.331,-0.004352869
-1.332,-0.004398851
-1.333,-0.004435637
-1.334,-0.004481619
-1.335,-0.004533732
-1.336,-0.004579714
-1.337,-0.004628762
-1.338,-0.004680875
-1.339,-0.004726857
-1.34,-0.004791233
-1.341,-0.004843346
-1.342,-0.00490159
-1.343,-0.0049629
-1.344,-0.005024209
-1.345,-0.005082454
-1.346,-0.005152959
-1.347,-0.005217335
-1.348,-0.005287841
-1.349,-0.005364478
-1.35,-0.005434984
-1.351,-0.005511621
-1.352,-0.005597454
-1.353,-0.005674092
-1.354,-0.005762991
-1.355,-0.005851889
-1.356,-0.005937723
-1.357,-0.006032753
-1.358,-0.006133914
-1.359,-0.006228944
-1.36,-0.00633317
-1.361,-0.006440463
-1.362,-0.006550819
-1.363,-0.006664242
-1.364,-0.006783796
-1.365,-0.006897219
-1.366,-0.00702597
-1.367,-0.007151654
-1.368,-0.007277339
-1.369,-0.007418351
-1.37,-0.007556298
-1.371,-0.00769731
-1.372,-0.007847519
-1.373,-0.007994662
-1.374,-0.008151001
-1.375,-0.008313472
-1.376,-0.008475943
-1.377,-0.008638413
-1.378,-0.008816211
-1.379,-0.008990943
-1.38,-0.009165676
-1.381,-0.009355736
-1.382,-0.009545796
-1.383,-0.009741987
-1.384,-0.009941244
-1.385,-0.0101405
-1.386,-0.01034895
-1.387,-0.01056047
-1.388,-0.01077199
-1.389,-0.01098964
-1.39,-0.01121648
-1.391,-0.01144026
-1.392,-0.01167324
-1.393,-0.01191235
-1.394,-0.01215146
-1.395,-0.0123967
-1.396,-0.01264806
-1.397,-0.01289943
-1.398,-0.01315693
-1.399,-0.01342057
-1.4,-0.0136842
-1.401,-0.01395089
-1.402,-0.01422985
-1.403,-0.01450268
-1.404,-0.01478164
-1.405,-0.0150698
-1.406,-0.01535489
-1.407,-0.01564611
-1.408,-0.01594346
-1.409,-0.01623775
-1.41,-0.0165351
-1.411,-0.01684778
-1.412,-0.01714513
-1.413,-0.01745168
-1.414,-0.01777049
-1.415,-0.01808317
-1.416,-0.01840504
-1.417,-0.01872998
-1.418,-0.01904879
-1.419,-0.01938293
-1.42,-0.019714
-1.421,-0.02004201
-1.422,-0.02037921
-1.423,-0.02072254
-1.424,-0.02105055
-1.425,-0.02140002
-1.426,-0.02174642
-1.427,-0.02208975
-1.428,-0.02243922
-1.429,-0.02279175
-1.43,-0.02314121
-1.431,-0.02349374
-1.432,-0.02385547
-1.433,-0.02421413
-1.434,-0.02457586
-1.435,-0.02493145
-1.436,-0.02529318
-1.437,-0.02565491
-1.438,-0.02601663
-1.439,-0.02638756
-1.44,-0.02675541
-1.441,-0.02712021
-1.442,-0.0274942
-1.443,-0.02786205
-1.444,-0.02822378
-1.445,-0.02860696
-1.446,-0.02897789
-1.447,-0.02934575
-1.448,-0.0297228
-1.449,-0.03010292
-1.45,-0.03047078
-1.451,-0.03096021
-1.452,-0.03132806
-1.453,-0.03169592
-1.454,-0.03209443
-1.455,-0.0324623
-1.456,-0.03286081
-1.457,-0.03322866
-1.458,-0.03362718
-1.459,-0.03399504
-1.46,-0.03439355
-1.461,-0.03476141
-1.462,-0.03515992
-1.463,-0.03552778
-1.464,-0.03592629
-1.465,-0.03629415
-1.466,-0.036662
-1.467,-0.03706052
-1.468,-0.03745903
-1.469,-0.03782689
-1.47,-0.03819475
-1.471,-0.03859326
-1.472,-0.03896112
-1.473,-0.03935963
-1.474,-0.03972749
-1.475,-0.040126
-1.476,-0.04052451
-1.477,-0.04089237
-1.478,-0.04129088
-1.479,-0.0416894
-1.48,-0.04205726
-1.481,-0.04245577
-1.482,-0.04282362
-1.483,-0.04319149
-1.484,-0.04358999
-1.485,-0.04398851
-1.486,-0.04435637
-1.487,-0.04475488
-1.488,-0.04512274
-1.489,-0.0454906
-1.49,-0.04588911
-1.491,-0.04628762
-1.492,-0.04668614
-1.493,-0.04705399
-1.494,-0.04745251
-1.495,-0.04785102
-1.496,-0.04821887
-1.497,-0.04861739
-1.498,-0.0490159
-1.499,-0.04941441
-1.5,-0.04956769
-1.499,-0.04923048
-1.498,-0.04892394
-1.497,-0.04858673
-1.496,-0.04821887
-1.495,-0.04791233
-1.494,-0.04754447
-1.493,-0.04720726
-1.492,-0.04687006
-1.491,-0.04653286
-1.49,-0.046165
-1.489,-0.0458278
-1.488,-0.0454906
-1.487,-0.04512274
-1.486,-0.04478553
-1.485,-0.04441768
-1.484,-0.04408047
-1.483,-0.04374327
-1.482,-0.04337541
-1.481,-0.04300755
-1.48,-0.04267035
-1.479,-0.04233315
-1.478,-0.04196529
-1.477,-0.04162809
-1.476,-0.04126023
-1.475001,-0.04092303
-1.474,-0.04058582
-1.473,-0.04021796
-1.472,-0.03988076
-1.471,-0.03954356
-1.47,-0.0391757
-1.469,-0.0388385
-1.468,-0.03850129
-1.467,-0.03816409
-1.466,-0.03779623
-1.465,-0.03748969
-1.464,-0.03715248
-1.463,-0.03678463
-1.462,-0.03647808
-1.461,-0.03611022
-1.46,-0.03580367
-1.459,-0.03546647
-1.458,-0.03512926
-1.457,-0.03479206
-1.456,-0.03445486
-1.455,-0.03411765
-1.454,-0.03378045
-1.453,-0.03347391
-1.452,-0.0331367
-1.451,-0.0327995
-1.45,-0.0324623
-1.449,-0.03212509
-1.448,-0.03178789
-1.447,-0.03148134
-1.446,-0.03114414
-1.445,-0.03083759
-1.444,-0.03050039
-1.443,-0.03019384
-1.442,-0.02985664
-1.441,-0.02955008
-1.44,-0.02924354
-1.439,-0.02890633
-1.438,-0.02859978
-1.437,-0.02829324
-1.436,-0.02795603
-1.435,-0.02768014
-1.434,-0.02737359
-1.433,-0.02703639
-1.432,-0.02676049
-1.431,-0.02642329
-1.43,-0.02611674
-1.429,-0.02584085
-1.428,-0.0255343
-1.427,-0.02522776
-1.426,-0.02492121
-1.425,-0.02461466
-1.424,-0.02430811
-1.423,-0.02403222
-1.422,-0.02372567
-1.421,-0.02344977
-1.42,-0.02314323
-1.419,-0.02286733
-1.418,-0.02259144
-1.417,-0.02228489
-1.416,-0.022009
-1.415,-0.0217331
-1.414,-0.02145721
-1.413,-0.02118132
-1.412,-0.02090542
-1.411,-0.02062953
-1.41,-0.02032298
-1.409,-0.02007774
-1.408,-0.01980185
-1.407,-0.01952596
-1.406,-0.01925006
-1.405,-0.01900483
-1.404,-0.01872893
-1.403,-0.01848369
-1.402,-0.0182078
-1.401,-0.01796256
-1.4,-0.01768667
-1.399,-0.01744143
-1.398,-0.01719619
-1.397,-0.0169203
-1.396,-0.01667506
-1.395,-0.01642982
-1.394,-0.01618458
-1.393,-0.01605995
-1.392,-0.01583004
-1.391,-0.01559093
-1.39,-0.01535489
-1.389,-0.01513111
-1.388,-0.01489813
-1.387,-0.01467128
-1.386,-0.01445363
-1.385,-0.01423292
-1.384,-0.01401527
-1.383,-0.01380375
-1.382,-0.0135861
-1.381,-0.01337458
-1.38,-0.01316307
-1.379,-0.01295768
-1.378,-0.01274923
-1.377,-0.01254997
-1.376,-0.01234765
-1.375,-0.01214839
-1.374,-0.01195527
-1.373,-0.01175601
-1.372,-0.01157208
-1.371,-0.01138509
-1.37,-0.01119503
-1.369,-0.01101416
-1.368,-0.01083943
-1.367,-0.01065857
-1.366,-0.0104869
-1.365,-0.01031523
-1.364,-0.01013744
-1.363,-0.009978029
-1.362,-0.009815559
-1.361,-0.009650022
-1.36,-0.009496748
-1.359,-0.009337342
-1.358,-0.009184069
-1.357,-0.009039992
-1.356,-0.008886717
-1.355,-0.008742639
-1.354,-0.008604692
-1.353,-0.008463681
-1.352,-0.008322668
-1.351,-0.008196983
-1.350001,-0.008059037
-1.349,-0.007927221
-1.348,-0.007804601
-1.347,-0.007675851
-1.346,-0.007553232
-1.345,-0.007439809
-1.344,-0.007323321
-1.343,-0.007203767
-1.342,-0.00709341
-1.341,-0.006983052
-1.34,-0.006872695
-1.339,-0.006768468
-1.338,-0.006667308
-1.337,-0.006563081
-1.336,-0.006468052
-1.335,-0.006373021
-1.334,-0.006274926
-1.333,-0.006186027
-1.332,-0.006094063
-1.331,-0.006005164
-1.33,-0.005922395
-1.329,-0.005839627
-1.328,-0.00575686
-1.327,-0.005674092
-1.326,-0.005594389
-1.325,-0.005520817
-1.324,-0.00544418
-1.323,-0.005373674
-1.322,-0.005303168
-1.321,-0.005232662
-1.32,-0.005168287
-1.319,-0.005103912
-1.318,-0.005039536
-1.317,-0.004978227
-1.316,-0.004916917
-1.315,-0.004858673
-1.314,-0.004800429
-1.313,-0.004739119
-1.312,-0.004687006
-1.311,-0.004631828
-1.31,-0.004579714
-1.309,-0.004530666
-1.308,-0.004484684
-1.307,-0.004429505
-1.306,-0.004389654
-1.305,-0.004343672
-1.304,-0.004294624
-1.303,-0.004254773
-1.302,-0.004211857
-1.301,-0.004165874
-1.3,-0.004132153
-1.299,-0.004092303
-1.298,-0.004049386
-1.297,-0.0040126
-1.296,-0.003975814
-1.295,-0.003935963
-1.294,-0.003905308
-1.293,-0.003871588
-1.292,-0.003834802
-1.291,-0.003804147
-1.29,-0.003770427
-1.289,-0.003736707
-1.288,-0.003712183
-1.287,-0.003681528
-1.286,-0.003647808
-1.285,-0.003623284
-1.284,-0.003592629
-1.283,-0.003565039
-1.282,-0.003540515
-1.281,-0.003509861
-1.28,-0.003482271
-1.279,-0.003463879
-1.278,-0.003436289
-1.277,-0.003411765
-1.276,-0.003387242
-1.275,-0.003365783
-1.274,-0.003341259
-1.273,-0.003319801
-1.272,-0.003295277
-1.271,-0.003270753
-1.27,-0.003255426
-1.269,-0.003233967
-1.268,-0.003209443
-1.267,-0.003191051
-1.266,-0.003172658
-1.265,-0.003148134
-1.264,-0.003132806
-1.263,-0.003114413
-1.262,-0.003096021
-1.261,-0.003077628
-1.26,-0.003059235
-1.259,-0.003040842
-1.258,-0.003025514
-1.257,-0.003007122
-1.256,-0.002988729
-1.255,-0.002973401
-1.254,-0.002958074
-1.253,-0.002939681
-1.252,-0.002924354
-1.251,-0.002909026
-1.25,-0.002893699
-1.249,-0.002875306
-1.248,-0.002863044
-1.247,-0.002847716
-1.246,-0.002832389
-1.245,-0.002820127
-1.244,-0.0028048
-1.243,-0.002789472
-1.242,-0.00277721
-1.241,-0.002761883
-1.24,-0.002746556
-1.239,-0.002734293
-1.238,-0.002718966
-1.237,-0.002703639
-1.236,-0.002694442
-1.235,-0.002679115
-1.234,-0.002666853
-1.233,-0.002654591
-1.232,-0.002642329
-1.231,-0.002627002
-1.23,-0.00261474
-1.229,-0.002605543
-1.228,-0.002593281
-1.227,-0.002577954
-1.226,-0.002568757
-1.225001,-0.002556496
-1.224,-0.002544234
-1.223,-0.002531972
-1.222,-0.00251971
-1.221,-0.002507448
-1.22,-0.002498251
-1.219,-0.00248599
-1.218,-0.002476793
-1.217,-0.002464531
-1.216,-0.002452269
-1.215,-0.002440007
-1.214,-0.002430811
-1.213,-0.002418549
-1.212,-0.002406287
-1.211,-0.002400156
-1.21,-0.002387894
-1.209,-0.002378698
-1.208,-0.002372567
-1.207,-0.002357239
-1.206,-0.002344977
-1.205,-0.002338846
-1.204,-0.002326585
-1.203,-0.002317388
-1.202,-0.002308191
-1.201,-0.002298995
-1.2,-0.002289799
-1.199,-0.002280602
-1.198,-0.002271406
-1.197,-0.002259144
-1.196,-0.002253013
-1.195,-0.002243817
-1.194,-0.00223462
-1.193,-0.002228489
-1.192,-0.002216227
-1.191,-0.002210096
-1.19,-0.0022009
-1.189,-0.002188638
-1.188,-0.002182507
-1.187,-0.002176376
-1.186,-0.002164114
-1.185,-0.002157983
-1.184,-0.002148786
-1.183,-0.00213959
-1.182,-0.002136525
-1.181,-0.002127328
-1.18,-0.002115066
-1.179,-0.002108935
-1.178,-0.002099739
-1.177,-0.002093608
-1.176,-0.002084411
-1.175,-0.00207828
-1.174,-0.002069084
-1.173,-0.002062953
-1.172,-0.002056822
-1.171,-0.002047626
-1.17,-0.002041495
-1.169,-0.002035364
-1.168,-0.002023102
-1.167,-0.002020036
-1.166,-0.00201084
-1.165,-0.002001643
-1.164,-0.001998578
-1.163,-0.001989381
-1.162,-0.00198325
-1.161,-0.00197712
-1.16,-0.001967923
-1.159,-0.001961792
-1.158,-0.001955661
-1.157,-0.00194953
-1.156,-0.001940334
-1.155,-0.001934203
-1.154,-0.001928072
-1.153,-0.001921941
-1.152,-0.00191581
-1.151,-0.001906613
-1.15,-0.001900482
-1.149,-0.001894351
-1.148,-0.001885155
-1.147,-0.001879024
-1.146,-0.001875959
-1.145,-0.001866762
-1.144,-0.001860631
-1.143,-0.0018545
-1.142,-0.001848369
-1.141,-0.001839173
-1.14,-0.001836107
-1.139,-0.001826911
-1.138,-0.00182078
-1.137,-0.001814649
-1.136,-0.001808518
-1.135,-0.001802387
-1.134,-0.001796256
-1.133,-0.00178706
-1.132,-0.001780929
-1.131,-0.001777863
-1.13,-0.001768667
-1.129,-0.001762536
-1.128,-0.001756405
-1.127,-0.001750274
-1.126,-0.001741077
-1.125,-0.001738012
-1.124,-0.001728815
-1.123,-0.001722684
-1.122,-0.001716554
-1.121,-0.001710422
-1.12,-0.001701226
-1.119,-0.001698161
-1.118,-0.001688964
-1.117,-0.001682833
-1.116,-0.001676702
-1.115,-0.001670571
-1.114,-0.00166444
-1.113,-0.001655244
-1.112,-0.001652178
-1.111,-0.001642982
-1.11,-0.001636851
-1.109,-0.001633785
-1.108,-0.001624589
-1.107,-0.001618458
-1.106,-0.001615393
-1.105,-0.001606196
-1.104,-0.001634504
-1.103,-0.001628986
-1.102,-0.001620403
-1.101,-0.001617031
-1.100001,-0.001608447
-1.099,-0.001602623
-1.098,-0.001598331
-1.097,-0.001590054
-1.096,-0.001582391
-1.095,-0.001578405
-1.094,-0.001569209
-1.093,-0.001564304
-1.092,-0.001559399
-1.091,-0.001554188
-1.09,-0.001546524
-1.089,-0.0015407
-1.088,-0.001534876
-1.087,-0.001527518
-1.086,-0.001522307
-1.085,-0.001516789
-1.084,-0.001507899
-1.083,-0.001504527
-1.082,-0.00149809
-1.081,-0.001489813
-1.08,-0.001486134
-1.079,-0.00147939
-1.078,-0.001472033
-1.077,-0.001468355
-1.076,-0.001460691
-1.075,-0.001454253
-1.074,-0.001451188
-1.073,-0.001443831
-1.072,-0.001438006
-1.071,-0.001433715
-1.07,-0.00142789
-1.069,-0.001420533
-1.068,-0.001418081
-1.067,-0.001409804
-1.066,-0.001405206
-1.065,-0.001401221
-1.064,-0.001392944
-1.063,-0.001389265
-1.062,-0.00138528
-1.061,-0.001377923
-1.06,-0.001371792
-1.059,-0.001368113
-1.058,-0.001361982
-1.057,-0.001356771
-1.056,-0.001352786
-1.055,-0.001346962
-1.054,-0.00134083
-1.053,-0.001337459
-1.052,-0.001331327
-1.051,-0.001327956
-1.05,-0.001322438
-1.049,-0.001314161
-1.048,-0.001313548
-1.047,-0.00130711
-1.046,-0.001300673
-1.045,-0.001298833
-1.044,-0.001291476
-1.043,-0.001286571
-1.042,-0.001284732
-1.041,-0.001276149
-1.04,-0.001272777
-1.039,-0.001270631
-1.038,-0.001262048
-1.037,-0.001257756
-1.036,-0.00125469
-1.035,-0.001250092
-1.034,-0.001243348
-1.033,-0.001239976
-1.032,-0.001234765
-1.031,-0.001228634
-1.03,-0.001225875
-1.029,-0.00122097
-1.028,-0.001214226
-1.027,-0.001211467
-1.026,-0.001205949
-1.025,-0.001200431
-1.024,-0.001196753
-1.023,-0.001191848
-1.022,-0.001186024
-1.021,-0.001183265
-1.02,-0.00117836
-1.019,-0.001172536
-1.018,-0.001169164
-1.017,-0.001163646
-1.016,-0.001157515
-1.015,-0.001156288
-1.014,-0.001149544
-1.013,-0.001144027
-1.012,-0.001140961
-1.011,-0.00113391
-1.01,-0.001131151
-1.009,-0.001128393
-1.008,-0.001120729
-1.007,-0.001118277
-1.006,-0.001114598
-1.005,-0.00110816
-1.004,-0.001104788
-1.003,-0.00110019
-1.002,-0.001092833
-1.001,-0.001090381
-1,-0.001086089
-0.9990004,-0.001079651
-0.9980004,-0.001076279
-0.9970005,-0.001072907
-0.9960005,-0.00106555
-0.9950004,-0.001062791
-0.9940004,-0.001058806
-0.9930004,-0.001052062
-0.9920005,-0.001047464
-0.9910004,-0.001044705
-0.9900004,-0.001037961
-0.9890004,-0.001033669
-0.9880005,-0.00103091
-0.9870005,-0.00102386
-0.9860004,-0.001018342
-0.9850004,-0.001017116
-0.9840004,-0.001008839
-0.9830005,-0.001006693
-0.9820005,-0.001003627
-0.9810004,-0.0009965767
-0.9800004,-0.0009928982
-0.9790004,-0.000988913
-0.9780005,-0.0009821691
-0.9770004,-0.0009781838
-0.9760004,-0.0009729725
-0.9750004,-0.000966535
-0.9740005,-0.0009634696
-0.9730005,-0.0009579517
-0.9720004,-0.0009524338
-0.9710004,-0.0009496749
-0.9700004,-0.0009429308
-0.9690005,-0.0009377195
-0.9680004,-0.0009340409
-0.9670004,-0.0009297492
-0.9660004,-0.0009236183
-0.9650005,-0.0009199397
-0.9640005,-0.0009138088
-0.9630004,-0.0009082909
-0.9620004,-0.0009039992
-0.9610004,-0.0009000141
-0.9600005,-0.0008929634
-0.9590005,-0.0008889784
-0.9580004,-0.0008843801
-0.9570004,-0.0008776361
-0.9560004,-0.0008736509
-0.9550005,-0.0008699723
-0.9540004,-0.0008620021
-0.9530004,-0.0008592432
-0.9520004,-0.0008534187
-0.9510005,-0.0008472878
-0.9500005,-0.0008429961
-0.9490004,-0.0008371716
-0.9480004,-0.0008313472
-0.9470004,-0.0008276686
-0.9460005,-0.000820005
-0.9450005,-0.0008157133
-0.9440004,-0.0008117282
-0.9430004,-0.0008046775
-0.9420004,-0.0008006924
-0.9410005,-0.0007957877
-0.9400004,-0.0007884305
-0.9390004,-0.0007847519
-0.9380004,-0.0007798471
-0.9370005,-0.0007731031
-0.9360005,-0.0007703441
-0.9350004,-0.0007636001
-0.9340004,-0.000756856
-0.9330004,-0.0007525643
-0.9320005,-0.0007467399
-0.9310004,-0.0007409155
-0.9300004,-0.0007363172
-0.9290004,-0.0007307994
-0.9280005,-0.0007246684
-0.9270005,-0.0007197637
-0.9260004,-0.0007124065
-0.9250004,-0.0007087279
-0.9240004,-0.0007035166
-0.9230005,-0.000696466
-0.9220005,-0.0006921744
-0.9210004,-0.0006881892
-0.9200004,-0.0006796059
-0.9190004,-0.00067746
-0.9180005,-0.0006716356
-0.9170004,-0.0006636653
-0.9160004,-0.0006605998
-0.9150004,-0.0006541623
-0.9140005,-0.0006458855
-0.9130005,-0.0006425135
-0.9120004,-0.0006373022
-0.9110004,-0.0006293319
-0.9100004,-0.0006256534
-0.9090005,-0.0006201355
-0.9080005,-0.0006118587
-0.9070004,-0.0006069539
-0.9060004,-0.0006026622
-0.9050004,-0.0005949985
-0.9040005,-0.0005907068
-0.9030004,-0.0005854955
-0.9020004,-0.0005766057
-0.9010004,-0.0005738467
-0.9000005,-0.0005652634
-0.8990005,-0.0005603586
-0.8980004,-0.0005554538
-0.8970004,-0.0005484032
-0.8960004,-0.0005425788
-0.8950005,-0.0005373674
-0.8940005,-0.0005306234
-0.8930004,-0.0005247989
-0.8920004,-0.0005189746
-0.8910004,-0.000512537
-0.8900005,-0.0005060995
-0.8890004,-0.0005002751
-0.8880004,-0.0004950638
-0.8870004,-0.0004886262
-0.8860005,-0.0004837215
-0.8850005,-0.0004751382
-0.8840004,-0.0004696203
-0.8830004,-0.0004634893
-0.8820004,-0.0004561322
-0.8810005,-0.0004509208
-0.8800004,-0.0004457095
-0.8790004,-0.0004383524
-0.8780004,-0.0004325279
-0.8770005,-0.000426397
-0.8760005,-0.0004193464
-0.8750004,-0.0004129088
-0.8740004,-0.0004070844
-0.8730004,-0.0004000338
-0.8720005,-0.0003935963
-0.8710005,-0.0003880784
-0.8700004,-0.0003813344
-0.8690004,-0.0003745903
-0.8680004,-0.0003684594
-0.8670005,-0.0003604891
-0.8660004,-0.0003555843
-0.8650004,-0.0003485337
-0.8640004,-0.0003405634
-0.8630005,-0.0003365783
-0.8620005,-0.0003286081
-0.8610004,-0.0003221706
-0.8600004,-0.0003172658
-0.8590004,-0.0003092955
-0.8580005,-0.0003022449
-0.8570005,-0.0002967271
-0.8560004,-0.0002884502
-0.8550004,-0.0002826258
-0.8540004,-0.000277108
-0.8530005,-0.0002694443
-0.8520004,-0.0002620871
-0.8510004,-0.0002562627
-0.8500004,-0.0002492121
-0.8490005,-0.0002412418
-0.8480005,-0.0002354174
-0.8470004,-0.0002280602
-0.8460004,-0.0002207031
-0.8450004,-0.0002148787
-0.8440005,-0.0002059888
-0.8430004,-0.0001995512
-0.8420004,-0.000194953
-0.8410004,-0.0001857566
-0.8400005,-0.0001790125
-0.8390005,-0.0001734946
-0.8380004,-0.0001636851
-0.8370004,-0.0001578607
-0.8360004,-0.0001514232
-0.8350005,-0.0001460691
-0.8340005,-0.0001402447
-0.8330004,-0.0001326116
-0.8320004,-0.0001240589
-0.8310004,-0.0001168857
-0.8300005,-0.000111
-0.8290004,-0.0001032136
-0.8280004,-9.567254E-05
-0.8270004,-8.93883E-05
-0.8260005,-8.101953E-05
-0.8250005,-7.360106E-05
-0.8240004,-6.743945E-05
-0.8230004,-5.845758E-05
-0.8220004,-5.235727E-05
-0.8210005,-4.524535E-05
-0.8200005,-3.678462E-05
-0.8190004,-2.881437E-05
-0.8180004,-2.246882E-05
-0.8170004,-1.394678E-05
-0.8160005,-7.355991E-06
-0.8150004,-1.225026E-06
-0.8140004,7.45029E-06
-0.8130004,1.496072E-05
-0.8120005,2.185806E-05
-0.8110005,2.979766E-05
-0.8100004,3.76453E-05
-0.8090004,4.316316E-05
-0.8080004,5.162389E-05
-0.8070005,5.922629E-05
-0.8060004,6.480547E-05
-0.8050004,7.440043E-05
-0.8040004,8.074597E-05
-0.8030005,8.782724E-05
-0.8020005,9.631863E-05
-0.8010004,0.0001033692
-0.8000004,6.020725E-05
-0.8009996,2.698792E-06
-0.8019996,-3.709117E-05
-0.8029996,-6.915612E-05
-0.8039996,-9.7941E-05
-0.8049996,-0.0001236911
-0.8059996,-0.0001488587
-0.8069996,-0.0001717578
-0.8079996,-0.0001922659
-0.8089996,-0.0002141228
-0.8099996,-0.0002330981
-0.8109996,-0.0002525946
-0.8119996,-0.0002703131
-0.8129996,-0.000286039
-0.8139996,-0.0003013253
-0.8149996,-0.0003163462
-0.8159996,-0.0003319801
-0.8169996,-0.0003485337
-0.8179996,-0.0003626349
-0.8189996,-0.0003782689
-0.8199996,-0.0003923701
-0.8209996,-0.0004049386
-0.8219996,-0.0004187333
-0.8229996,-0.000433141
-0.8239996,-0.0004438702
-0.8249996,-0.0004567453
-0.8259996,-0.0004702334
-0.8269996,-0.0004818822
-0.8279996,-0.0004932245
-0.8289996,-0.000505793
-0.8299996,-0.0005168287
-0.8309996,-0.0005272513
-0.8319996,-0.0005398199
-0.8329996,-0.0005514687
-0.8339996,-0.0005603586
-0.8349996,-0.0005723139
-0.8359996,-0.0005833497
-0.8369996,-0.0005916265
-0.8379996,-0.0006029688
-0.8389996,-0.0006143111
-0.8399996,-0.0006210551
-0.8409996,-0.0006330105
-0.8419996,-0.0006443528
-0.8429996,-0.0006510969
-0.8439996,-0.0006633588
-0.8449996,-0.0006707159
-0.8459996,-0.0006792994
-0.8469996,-0.0006903351
-0.8479996,-0.0006973856
-0.8489996,-0.0007078083
-0.8499996,-0.0007176179
-0.8509996,-0.0007252816
-0.8519996,-0.0007357041
-0.8529996,-0.0007424483
-0.8539996,-0.0007516447
-0.8549996,-0.0007611477
-0.8559996,-0.0007691179
-0.8569996,-0.0007764751
-0.8579996,-0.0007865912
-0.8589996,-0.0007942549
-0.8599996,-0.0008034513
-0.8609996,-0.0008111151
-0.8619996,-0.0008190853
-0.8629996,-0.0008273621
-0.8639996,-0.0008344128
-0.8649996,-0.0008439157
-0.8659996,-0.0008515794
-0.8669996,-0.0008586301
-0.8679996,-0.0008678265
-0.8689996,-0.0008754902
-0.8699996,-0.0008825408
-0.8709996,-0.0008905111
-0.8719996,-0.0008963355
-0.8729996,-0.0009067581
-0.8739996,-0.0009135022
-0.8749996,-0.0009193266
-0.8759996,-0.0009300558
-0.8769996,-0.0009349606
-0.8779996,-0.0009420112
-0.8789996,-0.0009515142
-0.8799996,-0.0009573385
-0.8809996,-0.0009628565
-0.8819996,-0.000972666
-0.8829996,-0.00097941
-0.8839996,-0.0009852345
-0.8849996,-0.0009935113
-0.8859996,-0.001000869
-0.8869996,-0.001005773
-0.8879996,-0.001013744
-0.8889996,-0.001021407
-0.8899996,-0.001025699
-0.8909996,-0.001034282
-0.8919996,-0.001041946
-0.8929996,-0.001046851
-0.8939996,-0.001054514
-0.8949996,-0.001061258
-0.8959996,-0.00106647
-0.8969996,-0.001073827
-0.8979996,-0.001080571
-0.8989996,-0.001086395
-0.8999996,-0.001091913
-0.9009996,-0.001098964
-0.9019996,-0.001104788
-0.9029996,-0.001112759
-0.9039996,-0.001117663
-0.9049996,-0.001122568
-0.9059996,-0.001131458
-0.9069996,-0.00113575
-0.9079996,-0.001140961
-0.9089996,-0.001149851
-0.9099996,-0.001153836
-0.9109996,-0.001161193
-0.9119996,-0.001167631
-0.9129996,-0.001171003
-0.9139996,-0.001178053
-0.9149996,-0.001185104
-0.9159996,-0.001189089
-0.9169996,-0.001194914
-0.9179996,-0.001202271
-0.9189996,-0.001206869
-0.9199996,-0.001210548
-0.9209996,-0.001219131
-0.9219996,-0.001223729
-0.9229996,-0.001227408
-0.9239996,-0.001235378
-0.9249996,-0.001238137
-0.9259996,-0.001243961
-0.9269996,-0.001250705
-0.9279996,-0.001253464
-0.9289996,-0.001260515
-0.9299996,-0.001267566
-0.9309996,-0.001270938
-0.9319996,-0.001277068
-0.9329996,-0.00128136
-0.9339996,-0.001284732
-0.9349996,-0.001292089
-0.9359996,-0.001296381
-0.9369996,-0.001300366
-0.9379996,-0.001306497
-0.9389996,-0.001311708
-0.9399996,-0.001314774
-0.9409996,-0.001322131
-0.9419996,-0.00132581
-0.9429996,-0.001332247
-0.9439996,-0.001336845
-0.9449996,-0.00134083
-0.9459996,-0.001344509
-0.9469996,-0.00135064
-0.9479996,-0.001354932
-0.9489996,-0.00135953
-0.9499996,-0.001365048
-0.9509996,-0.001369646
-0.9519996,-0.001372712
-0.9529996,-0.001380069
-0.9539996,-0.001382828
-0.9549996,-0.001387119
-0.9559996,-0.00139325
-0.9569996,-0.001396622
-0.9579996,-0.00140214
-0.9589996,-0.001407658
-0.9599996,-0.001408271
-0.9609996,-0.001415322
-0.9619996,-0.00141992
-0.9629996,-0.001423292
-0.9639996,-0.00142789
-0.9649996,-0.001433102
-0.9659996,-0.001436474
-0.9669996,-0.001441378
-0.9679996,-0.001445977
-0.9689996,-0.001450575
-0.9699996,-0.001453947
-0.9709996,-0.001459771
-0.9719996,-0.001464063
-0.9729996,-0.001466822
-0.9739996,-0.001470807
-0.9749996,-0.001477858
-0.9759996,-0.001479697
-0.9769996,-0.001485521
-0.9779996,-0.001489813
-0.9789996,-0.001491039
-0.9799996,-0.001498703
-0.9809996,-0.001500849
-0.9819996,-0.001504834
-0.9829996,-0.001511578
-0.9839996,-0.00151403
-0.9849996,-0.001518015
-0.9859996,-0.001523227
-0.9869996,-0.001527518
-0.9879996,-0.001530584
-0.9889996,-0.001535182
-0.9899996,-0.001539474
-0.9909996,-0.001542846
-0.9919996,-0.001547751
-0.9929996,-0.001552655
-0.9939996,-0.001555721
-0.9949996,-0.001560932
-0.9959996,-0.001565837
-0.9969996,-0.001568289
-0.9979996,-0.001573501
-0.9989996,-0.001577792
-0.9999996,-0.001580858
-1.001,-0.001586376
-1.002,-0.001590667
-1.003,-0.001593426
-1.004,-0.00160109
-1.005,-0.001604462
-1.006,-0.001606301
-1.007,-0.001612126
-1.008,-0.001617031
-1.009,-0.001618563
-1.01,-0.001625307
-1.011,-0.001630519
-1.012,-0.001631745
-1.013,-0.001637569
-1.014,-0.001642168
-1.015,-0.001644007
-1.016,-0.001650138
-1.017,-0.001655656
-1.018,-0.001657188
-1.019,-0.001663319
-1.02,-0.00166945
-1.021,-0.001672209
-1.022,-0.001674968
-1.023,-0.001682325
-1.024,-0.001683858
-1.025,-0.001691215
-1.026,-0.001697959
-1.027,-0.001696427
-1.028,-0.00170593
-1.029,-0.001709608
-1.03,-0.001712367
-1.031,-0.001718805
-1.032,-0.001722177
-1.033,-0.001724629
-1.034,-0.001732599
-1.035,-0.001734745
-1.036,-0.001741183
-1.037,-0.001746394
-1.038,-0.001750379
-1.039,-0.001751912
-1.04,-0.001758962
-1.041,-0.00176448
-1.042,-0.001766933
-1.043,-0.00177337
-1.044,-0.001775516
-1.045,-0.00178318
-1.046,-0.001785632
-1.047,-0.00179023
-1.048,-0.001795442
-1.049,-0.001802186
-1.05,-0.001802799
-1.051,-0.001812915
-1.052,-0.001815367
-1.053,-0.001818433
-1.054,-0.00182671
-1.055,-0.001830082
-1.056,-0.00183284
-1.057,-0.001842957
-1.058,-0.001845102
-1.059,-0.001848781
-1.06,-0.001854605
-1.061,-0.001859204
-1.062,-0.001864415
-1.063,-0.001869626
-1.064,-0.001873918
-1.065,-0.001877597
-1.066,-0.001882808
-1.067,-0.001888019
-1.068,-0.001892004
-1.069,-0.001897829
-1.07,-0.001902734
-1.071,-0.001907025
-1.072,-0.00191285
-1.073,-0.001917754
-1.074,-0.001922046
-1.075,-0.001926951
-1.076,-0.001932162
-1.077,-0.001936454
-1.078,-0.001942891
-1.079,-0.00194749
-1.08,-0.001951781
-1.081,-0.00195638
-1.082,-0.001961284
-1.083,-0.001966802
-1.084,-0.001973546
-1.085,-0.001977531
-1.086,-0.001981516
-1.087,-0.001990713
-1.088,-0.001992246
-1.089,-0.001999296
-1.09,-0.00200604
-1.091,-0.002009719
-1.092,-0.002016769
-1.093,-0.002021674
-1.094,-0.002023513
-1.095,-0.002031484
-1.096,-0.002037921
-1.097,-0.00204068
-1.098,-0.002048957
-1.099,-0.002054781
-1.1,-0.002057234
-1.101,-0.002064284
-1.102,-0.002071948
-1.103,-0.002075013
-1.104,-0.002082064
-1.105,-0.002089115
-1.106,-0.002094019
-1.107,-0.002098924
-1.108,-0.002106895
-1.109,-0.002112412
-1.11,-0.00211885
-1.111,-0.002125901
-1.112,-0.002126514
-1.113,-0.002138162
-1.114,-0.002141228
-1.115,-0.002147665
-1.116,-0.002155023
-1.117,-0.002159314
-1.118,-0.002163913
-1.119,-0.002171883
-1.12,-0.002176481
-1.121,-0.002181386
-1.122,-0.00218813
-1.123,-0.002193954
-1.124,-0.002198859
-1.125,-0.002203764
-1.126,-0.002210814
-1.127,-0.002214493
-1.128,-0.002220624
-1.129,-0.002227368
-1.13,-0.002230127
-1.131,-0.002236258
-1.132,-0.002243615
-1.133,-0.002246067
-1.134,-0.002252198
-1.135,-0.002259249
-1.136,-0.002260169
-1.137,-0.002267219
-1.138,-0.002272737
-1.139,-0.002275803
-1.14,-0.002283467
-1.141,-0.002287145
-1.142,-0.00229205
-1.143,-0.002296035
-1.144,-0.002301859
-1.145,-0.002307071
-1.146,-0.002311975
-1.147,-0.002314428
-1.148,-0.002320252
-1.149,-0.002323931
-1.15,-0.002332208
-1.151,-0.002334047
-1.152,-0.002339258
-1.153,-0.002345083
-1.154,-0.002346922
-1.155,-0.002352746
-1.156,-0.002357345
-1.157,-0.002359797
-1.158,-0.002365621
-1.159,-0.002370526
-1.16,-0.002372365
-1.161,-0.002376351
-1.162,-0.002380949
-1.163,-0.002384014
-1.164,-0.002387693
-1.165,-0.002392597
-1.166,-0.002395663
-1.167,-0.002396583
-1.168,-0.002401487
-1.169,-0.002403633
-1.17,-0.002408845
-1.171,-0.002414976
-1.172,-0.002411297
-1.173,-0.00242172
-1.174,-0.002422026
-1.175,-0.002424172
-1.176,-0.002429383
-1.177,-0.002432449
-1.178,-0.002433368
-1.179,-0.002441339
-1.18,-0.002442258
-1.181,-0.002446857
-1.182,-0.002452068
-1.183,-0.002452987
-1.184,-0.002459732
-1.185,-0.002465863
-1.186,-0.002467396
-1.187,-0.002473833
-1.188,-0.002479351
-1.189,-0.002481803
-1.19,-0.002486708
-1.191,-0.002496824
-1.192,-0.002501422
-1.193,-0.002506633
-1.194,-0.002514297
-1.195,-0.002517976
-1.196,-0.0025238
-1.197,-0.002534223
-1.198,-0.002536675
-1.199,-0.002544952
-1.2,-0.002552309
-1.201,-0.002557827
-1.202,-0.002565797
-1.203,-0.002573767
-1.204,-0.002578979
-1.205,-0.002585723
-1.206,-0.002597372
-1.207,-0.002603809
-1.208,-0.00260994
-1.209,-0.002620363
-1.21,-0.002627414
-1.211,-0.002633545
-1.212,-0.002646419
-1.213,-0.002651631
-1.214,-0.002661134
-1.215,-0.002670943
-1.216,-0.002676461
-1.217,-0.002688417
-1.218,-0.00269792
-1.219,-0.002704357
-1.22,-0.002716619
-1.221,-0.002726122
-1.222,-0.002732866
-1.223,-0.002746967
-1.224,-0.002755244
-1.225,-0.002765667
-1.226,-0.002777929
-1.227,-0.002785592
-1.228,-0.002796321
-1.229,-0.002812262
-1.23,-0.0028187
-1.231,-0.002830655
-1.232,-0.002844756
-1.233,-0.002855485
-1.234,-0.002863762
-1.235,-0.002880316
-1.236,-0.002894111
-1.237,-0.002902387
-1.238,-0.00291373
-1.239,-0.002927218
-1.24,-0.002938867
-1.241,-0.002954194
-1.242,-0.002967069
-1.243,-0.002978718
-1.244,-0.002993739
-1.245,-0.00300692
-1.246,-0.002985663
-1.247,-0.002997925
-1.248,-0.003013253
-1.249,-0.00302858
-1.25,-0.003040842
-1.251,-0.003056169
-1.252,-0.003071497
-1.253,-0.003086824
-1.254,-0.003102152
-1.255,-0.003117479
-1.256,-0.003135872
-1.257,-0.003148134
-1.258,-0.003169592
-1.259,-0.003191051
-1.26,-0.003200247
-1.261,-0.003224771
-1.262,-0.003243164
-1.263,-0.003255426
-1.264,-0.00327995
-1.265,-0.003298342
-1.266,-0.003310604
-1.267,-0.003335128
-1.268,-0.003356587
-1.269,-0.003371914
-1.27,-0.003393373
-1.271,-0.003414831
-1.272,-0.003436289
-1.273,-0.003457748
-1.274,-0.003479206
-1.275,-0.003500664
-1.276,-0.003522123
-1.277,-0.003549712
-1.278,-0.00357117
-1.279,-0.003595694
-1.28,-0.003620218
-1.281,-0.003641677
-1.282,-0.003669266
-1.283,-0.003696855
-1.284,-0.003721379
-1.285,-0.003748968
-1.286,-0.003776558
-1.287,-0.003804147
-1.288,-0.003831736
-1.289,-0.003865457
-1.29,-0.00388998
-1.291,-0.003923701
-1.292,-0.003957421
-1.293,-0.003988076
-1.294,-0.004018731
-1.295,-0.004058582
-1.296,-0.004089237
-1.297,-0.004126023
-1.298,-0.004165874
-1.299,-0.004196529
-1.3,-0.004239446
-1.301,-0.004279297
-1.302,-0.004319148
-1.303,-0.004358999
-1.304,-0.004404982
-1.305,-0.004441767
-1.306,-0.004490815
-1.307,-0.004542928
-1.308,-0.004585845
-1.309,-0.004637958
-1.31,-0.004693137
-1.311,-0.004739119
-1.312,-0.004794298
-1.313,-0.004855608
-1.314,-0.004910786
-1.315,-0.004969031
-1.316,-0.00503034
-1.317,-0.00509165
-1.318,-0.005162156
-1.319,-0.005226531
-1.32,-0.005293972
-1.321,-0.005370609
-1.322,-0.005441115
-1.323,-0.005517752
-1.324,-0.005600519
-1.325,-0.005677157
-1.326,-0.005766056
-1.327,-0.005854954
-1.328,-0.005934658
-1.329,-0.006032753
-1.33,-0.006127783
-1.331,-0.006222813
-1.332,-0.00632704
-1.333,-0.006434331
-1.334,-0.006535492
-1.335,-0.00665198
-1.336,-0.006762337
-1.337,-0.006878826
-1.338,-0.007004511
-1.339,-0.007124064
-1.34,-0.007255881
-1.341,-0.007387696
-1.342,-0.007519512
-1.343,-0.007657459
-1.344,-0.007804601
-1.345,-0.00794868
-1.346,-0.008101954
-1.347,-0.008255227
-1.348,-0.008411567
-1.349,-0.008574038
-1.35,-0.008742639
-1.351,-0.008908176
-1.352,-0.009085974
-1.353,-0.009269902
-1.354,-0.0094477
-1.355,-0.00963776
-1.356,-0.009830886
-1.357,-0.01002401
-1.358,-0.01022327
-1.359,-0.01043172
-1.36,-0.01063404
-1.361,-0.01085476
-1.362,-0.01106934
-1.363,-0.01128699
-1.364,-0.01151997
-1.365,-0.01174068
-1.366,-0.01197366
-1.367,-0.01221583
-1.368,-0.01245494
-1.369,-0.01269711
-1.37,-0.01295155
-1.371,-0.01320292
-1.372,-0.01345429
-1.373,-0.01372098
-1.374,-0.01398462
-1.375,-0.01424518
-1.376,-0.01452414
-1.377,-0.01479697
-1.378,-0.01507286
-1.379,-0.01535795
-1.38,-0.01564304
-1.381,-0.01592813
-1.382,-0.01622242
-1.383,-0.01651977
-1.384,-0.01681712
-1.385,-0.01711754
-1.386,-0.01742409
-1.387,-0.01772757
-1.388,-0.01804025
-1.389,-0.01835293
-1.39,-0.01866254
-1.391,-0.01898748
-1.392,-0.01930016
-1.393,-0.0196251
-1.394,-0.01995618
-1.395,-0.02027805
-1.396,-0.02061219
-1.397,-0.02094633
-1.398,-0.0212774
-1.399,-0.0216146
-1.4,-0.02195487
-1.401,-0.02230127
-1.402,-0.02264154
-1.403,-0.02298794
-1.404,-0.02333434
-1.405,-0.02367767
-1.406,-0.02403327
-1.407,-0.02438886
-1.408,-0.02473526
-1.409,-0.02509392
-1.41,-0.02544645
-1.411,-0.02580205
-1.412,-0.02616378
-1.413,-0.02652244
-1.414,-0.02688723
-1.415,-0.02724896
-1.416,-0.02761375
-1.417,-0.02798467
-1.418,-0.02835866
-1.419,-0.02872345
-1.42,-0.02909131
-1.421,-0.02946837
-1.422,-0.02983622
-1.423,-0.03020408
-1.424,-0.03068431
-1.425,-0.03105217
-1.426,-0.03145069
-1.427,-0.03181854
-1.428,-0.03221706
-1.429,-0.03258491
-1.43,-0.03298343
-1.431,-0.03338194
-1.432,-0.0337498
-1.433,-0.03414831
-1.434,-0.03454682
-1.435,-0.03494534
-1.436,-0.03534385
-1.437,-0.03571171
-1.438,-0.03611022
-1.439,-0.03650873
-1.44,-0.03690724
-1.441,-0.03730575
-1.442,-0.03770427
-1.443,-0.03810278
-1.444,-0.03850129
-1.445,-0.03889981
-1.446,-0.03929832
-1.447,-0.03969683
-1.448,-0.04009534
-1.449,-0.04049386
-1.45,-0.04089237
-1.451,-0.04129088
-1.452,-0.04172005
-1.453,-0.04208791
-1.454,-0.04251708
-1.455,-0.04291559
-1.456,-0.0433141
-1.457,-0.04371261
-1.458,-0.04414178
-1.459,-0.04450964
-1.46,-0.04493881
-1.461,-0.04533732
-1.462,-0.04573583
-1.463,-0.046165
-1.464,-0.04656351
-1.465,-0.04696203
-1.466,-0.04739119
-1.467,-0.0477897
-1.468,-0.04818822
-1.469,-0.04861739
-1.47,-0.04904656
-1.471,-0.04944507
-1.472,-0.04987423
-1.473,-0.0503034
-1.474,-0.05067126
-1.475,-0.05110043
-1.476,-0.05152959
-1.477,-0.05192811
-1.478,-0.05235728
-1.479,-0.05278645
-1.48,-0.05318496
-1.481,-0.05361412
-1.482,-0.05404329
-1.483,-0.05444181
-1.484,-0.05487097
-1.485,-0.05530014
-1.486,-0.05569865
-1.487,-0.05612782
-1.488,-0.05658764
-1.489,-0.05698615
-1.49,-0.05738467
-1.491,-0.05781383
-1.492,-0.05821235
-1.493,-0.05864152
-1.494,-0.05907068
-1.495,-0.05946919
-1.496,-0.05986771
-1.497,-0.06032753
-1.498,-0.06072604
-1.499,-0.06115521
-1.5,-0.06130848
-1.499001,-0.06094063
-1.498001,-0.06057277
-1.497001,-0.06020491
-1.496001,-0.05983705
-1.495001,-0.05943854
-1.494001,-0.05910134
-1.493001,-0.05870283
-1.492001,-0.05830431
-1.491001,-0.05793646
-1.490001,-0.0575686
-1.489001,-0.05717008
-1.488001,-0.05680222
-1.487001,-0.05637306
-1.486001,-0.0560052
-1.485001,-0.05560669
-1.484001,-0.05520818
-1.483001,-0.054779
-1.482001,-0.05441115
-1.481001,-0.05401264
-1.480001,-0.05361412
-1.479001,-0.05324627
-1.478001,-0.0528171
-1.477001,-0.05244924
-1.476001,-0.05205073
-1.475001,-0.05165222
-1.474001,-0.0512537
-1.473001,-0.05088584
-1.472001,-0.05045668
-1.471001,-0.05008882
-1.470001,-0.04969031
-1.469001,-0.04929179
-1.468001,-0.04892394
-1.467001,-0.04852542
-1.466001,-0.04809625
-1.465001,-0.04769774
-1.464001,-0.04736054
-1.463001,-0.04696203
-1.462001,-0.04656351
-1.461001,-0.04619566
-1.460001,-0.04579714
-1.459001,-0.04542929
-1.458001,-0.04503077
-1.457001,-0.04463226
-1.456001,-0.0442644
-1.455001,-0.04389654
-1.454001,-0.04349803
-1.453001,-0.04313017
-1.452001,-0.04276232
-1.451001,-0.0423638
-1.450001,-0.04199595
-1.449001,-0.04162809
-1.448001,-0.04126023
-1.447001,-0.04086172
-1.446001,-0.04049386
-1.445001,-0.04009534
-1.444001,-0.03972749
-1.443001,-0.03935963
-1.442001,-0.03899177
-1.441001,-0.03862391
-1.440001,-0.03825606
-1.439001,-0.0378882
-1.438001,-0.03752034
-1.437001,-0.03715248
-1.436001,-0.03678463
-1.435001,-0.03641677
-1.434001,-0.03604891
-1.433001,-0.03571171
-1.432001,-0.03534385
-1.431001,-0.03497599
-1.430001,-0.03460813
-1.429001,-0.03427093
-1.428001,-0.03387242
-1.427001,-0.03353521
-1.426001,-0.03316735
-1.425001,-0.03283015
-1.424001,-0.0324623
-1.423001,-0.03212509
-1.422001,-0.03175723
-1.421001,-0.03142003
-1.420001,-0.03108283
-1.419001,-0.03071497
-1.418001,-0.03037777
-1.417001,-0.03004056
-1.416001,-0.02970336
-1.415001,-0.0293355
-1.414001,-0.02902895
-1.413001,-0.02869175
-1.412001,-0.02835455
-1.411001,-0.02801734
-1.410001,-0.02768014
-1.409001,-0.02734294
-1.408001,-0.02703639
-1.407001,-0.02669919
-1.406001,-0.02636199
-1.405001,-0.02602478
-1.404001,-0.02571823
-1.403001,-0.02538103
-1.402001,-0.02507448
-1.401001,-0.02476793
-1.400001,-0.02443073
-1.399001,-0.02409353
-1.398001,-0.02381763
-1.397001,-0.02348043
-1.396001,-0.02317388
-1.395001,-0.02286733
-1.394001,-0.02256078
-1.393001,-0.02225424
-1.392001,-0.02197834
-1.391001,-0.02167179
-1.390001,-0.02136525
-1.389001,-0.0210587
-1.388001,-0.0207828
-1.387001,-0.02047626
-1.386001,-0.02016971
-1.385001,-0.01989382
-1.384001,-0.01961792
-1.383001,-0.01931137
-1.382001,-0.01903548
-1.381001,-0.01875959
-1.380001,-0.01848369
-1.379001,-0.0182078
-1.378001,-0.01793191
-1.377001,-0.01765601
-1.376001,-0.01741077
-1.375001,-0.01713488
-1.374001,-0.01685899
-1.373001,-0.01661375
-1.372001,-0.01633785
-1.371001,-0.01609262
-1.370001,-0.01594346
-1.369001,-0.01570128
-1.368001,-0.01544992
-1.367001,-0.01520774
-1.366001,-0.01496863
-1.365001,-0.0147234
-1.364001,-0.01449042
-1.363001,-0.01425438
-1.362001,-0.0140214
-1.361001,-0.01380069
-1.360001,-0.01357384
-1.359001,-0.01335006
-1.358001,-0.01312935
-1.357001,-0.01290557
-1.356001,-0.01269405
-1.355001,-0.01248559
-1.354001,-0.01227408
-1.353001,-0.01206869
-1.352001,-0.0118725
-1.351001,-0.01166711
-1.350001,-0.01146785
-1.349001,-0.01127779
-1.348001,-0.0110816
-1.347001,-0.01089767
-1.346001,-0.01071374
-1.345001,-0.01052675
-1.344001,-0.01034589
-1.343001,-0.01017115
-1.342001,-0.009996422
-1.341001,-0.009827821
-1.340001,-0.009659219
-1.339001,-0.009493683
-1.338001,-0.009331211
-1.337001,-0.009171807
-1.336001,-0.009012402
-1.335001,-0.008859128
-1.334001,-0.008708919
-1.333001,-0.008561776
-1.332001,-0.008417699
-1.331001,-0.008276686
-1.330001,-0.008135674
-1.329001,-0.007994662
-1.328001,-0.007865911
-1.327001,-0.00773103
-1.326001,-0.007605345
-1.325001,-0.007482726
-1.324001,-0.007353975
-1.323001,-0.007237487
-1.322001,-0.007120999
-1.321001,-0.007001445
-1.320001,-0.006891088
-1.319001,-0.006780731
-1.318001,-0.006670373
-1.317001,-0.006569212
-1.316001,-0.006468052
-1.315001,-0.006363825
-1.314001,-0.006268795
-1.313001,-0.006173765
-1.312001,-0.006078735
-1.311001,-0.005989837
-1.310001,-0.005904003
-1.309001,-0.005815104
-1.308001,-0.005735401
-1.307001,-0.005652633
-1.306001,-0.005569865
-1.305001,-0.005493228
-1.304001,-0.005416591
-1.303001,-0.005336888
-1.302001,-0.005269447
-1.301001,-0.005198942
-1.300001,-0.005128435
-1.299001,-0.00506406
-1.298001,-0.004999685
-1.297001,-0.004932245
-1.296001,-0.004874
-1.295001,-0.004815756
-1.294001,-0.004754446
-1.293001,-0.004699268
-1.292001,-0.004644089
-1.291001,-0.004585845
-1.290001,-0.004536797
-1.289001,-0.004484684
-1.288001,-0.004432571
-1.287001,-0.004386589
-1.286001,-0.004337541
-1.285001,-0.004291559
-1.284001,-0.004245576
-1.283001,-0.004205726
-1.282001,-0.004156678
-1.281001,-0.004116826
-1.280001,-0.004076975
-1.279001,-0.004034058
-1.278001,-0.003994207
-1.277001,-0.003960487
-1.276001,-0.00391757
-1.275001,-0.00388385
-1.274001,-0.003850129
-1.273001,-0.003810278
-1.272001,-0.003776558
-1.271001,-0.003745903
-1.270001,-0.003712183
-1.269001,-0.003678462
-1.268001,-0.003650873
-1.267001,-0.003617153
-1.266001,-0.003586498
-1.265001,-0.003561974
-1.264001,-0.003528254
-1.263001,-0.00350373
-1.262001,-0.003479206
-1.261001,-0.003448551
-1.260001,-0.003424027
-1.259001,-0.003399503
-1.258001,-0.003368848
-1.257001,-0.00334739
-1.256001,-0.003322866
-1.255001,-0.003295277
-1.254001,-0.003273819
-1.253001,-0.00325236
-1.252001,-0.003224771
-1.251001,-0.003203312
-1.250001,-0.003184919
-1.249001,-0.003160396
-1.248001,-0.003138937
-1.247001,-0.003120545
-1.246001,-0.003096021
-1.245001,-0.003077628
-1.244001,-0.003059235
-1.243001,-0.003037777
-1.242001,-0.003019383
-1.241001,-0.003000991
-1.240001,-0.002979532
-1.239001,-0.002964205
-1.238001,-0.002945812
-1.237001,-0.002924354
-1.236001,-0.002909026
-1.235001,-0.002890633
-1.234001,-0.00287224
-1.233001,-0.002853847
-1.232001,-0.002841586
-1.231001,-0.002823193
-1.230001,-0.0028048
-1.229001,-0.002789472
-1.228001,-0.002774145
-1.227001,-0.002758818
-1.226001,-0.002746556
-1.225001,-0.002725097
-1.224001,-0.002712835
-1.223001,-0.002697508
-1.222001,-0.002679115
-1.221001,-0.002666853
-1.220001,-0.002654591
-1.219001,-0.002636198
-1.218001,-0.002623936
-1.217001,-0.002608609
-1.216001,-0.002596347
-1.215001,-0.002584085
-1.214001,-0.002568757
-1.213001,-0.00255343
-1.212001,-0.002541168
-1.211001,-0.002528906
-1.210001,-0.002513579
-1.209001,-0.002501317
-1.208001,-0.002489055
-1.207001,-0.002476793
-1.206001,-0.002464531
-1.205001,-0.002452269
-1.204001,-0.002436942
-1.203001,-0.002427745
-1.202001,-0.002415484
-1.201001,-0.002400156
-1.200001,-0.00239096
-1.199001,-0.002378698
-1.198001,-0.002366436
-1.197001,-0.002357239
-1.196001,-0.002348043
-1.195001,-0.002335781
-1.194001,-0.002326585
-1.193001,-0.002314323
-1.192001,-0.002298995
-1.191001,-0.002292864
-1.190001,-0.002283668
-1.189001,-0.00226834
-1.188001,-0.002262209
-1.187001,-0.002253013
-1.186001,-0.002240751
-1.185001,-0.002231555
-1.184001,-0.002222358
-1.183001,-0.002210096
-1.182001,-0.0022009
-1.181001,-0.002194769
-1.180001,-0.002182507
-1.179001,-0.00217331
-1.178001,-0.002164114
-1.177001,-0.002151852
-1.176001,-0.002145721
-1.175001,-0.002136525
-1.174001,-0.002124263
-1.173001,-0.002118132
-1.172001,-0.002112001
-1.171001,-0.002099739
-1.170001,-0.002090542
-1.169001,-0.002084411
-1.168001,-0.002072149
-1.167001,-0.002066019
-1.166001,-0.002056822
-1.165001,-0.002047626
-1.164001,-0.002038429
-1.163001,-0.002032298
-1.162001,-0.002023102
-1.161001,-0.002013905
-1.160001,-0.002007774
-1.159001,-0.001998578
-1.158001,-0.001989381
-1.157001,-0.001986316
-1.156001,-0.001974054
-1.155001,-0.001967923
-1.154001,-0.001961792
-1.153001,-0.00194953
-1.152001,-0.001943399
-1.151001,-0.001934203
-1.150001,-0.001925006
-1.149001,-0.001918875
-1.148001,-0.001912744
-1.147001,-0.001903548
-1.146001,-0.001897417
-1.145001,-0.00188822
-1.144001,-0.00188209
-1.143001,-0.001875959
-1.142001,-0.001866762
-1.141001,-0.001860631
-1.140001,-0.0018545
-1.139001,-0.001845304
-1.138001,-0.001839173
-1.137001,-0.001833042
-1.136001,-0.00182078
-1.135001,-0.001817714
-1.134001,-0.001811583
-1.133001,-0.001802387
-1.132001,-0.001796256
-1.131001,-0.00179319
-1.130001,-0.001780929
-1.129001,-0.001774798
-1.128001,-0.001771732
-1.127001,-0.001756405
-1.126001,-0.001750274
-1.125001,-0.001747208
-1.124001,-0.001738012
-1.123001,-0.001731881
-1.122001,-0.001728815
-1.121001,-0.001716554
-1.120001,-0.001713488
-1.119001,-0.001707357
-1.118001,-0.001698161
-1.117001,-0.00169203
-1.116001,-0.001685899
-1.115001,-0.001676702
-1.114001,-0.001670571
-1.113001,-0.00166444
-1.112001,-0.001655244
-1.111001,-0.001649113
-1.110001,-0.001642982
-1.109001,-0.001633785
-1.108001,-0.001627655
-1.107001,-0.001621523
-1.106001,-0.001612327
-1.105001,-0.001640941
-1.104001,-0.001636036
-1.103001,-0.001626227
-1.102001,-0.001619176
-1.101001,-0.001613659
-1.100001,-0.001605688
-1.099001,-0.001596185
-1.098001,-0.001592813
-1.097001,-0.00158331
-1.096001,-0.001577179
-1.095001,-0.001570435
-1.094001,-0.001561239
-1.093001,-0.001556027
-1.092001,-0.001548977
-1.091001,-0.001539474
-1.090001,-0.001534876
-1.089001,-0.001527212
-1.088001,-0.001519242
-1.087001,-0.001512804
-1.086001,-0.001506673
-1.085001,-0.001499316
-1.084001,-0.001491346
-1.083001,-0.001486441
-1.082001,-0.001477858
-1.081001,-0.00147142
-1.080001,-0.001466515
-1.079001,-0.001457932
-1.078001,-0.001451188
-1.077001,-0.001447203
-1.076001,-0.001438313
-1.075001,-0.001432182
-1.074001,-0.001426971
-1.073001,-0.001419
-1.072001,-0.001412869
-1.071001,-0.001407658
-1.070001,-0.001400914
-1.069001,-0.001395396
-1.068001,-0.001388345
-1.067001,-0.001381601
-1.066001,-0.001377923
-1.065001,-0.001371179
-1.064001,-0.001364435
-1.063001,-0.001360756
-1.062001,-0.001354012
-1.061001,-0.001347575
-1.060001,-0.001343896
-1.059001,-0.001337152
-1.058001,-0.001330408
-1.057001,-0.001327956
-1.056001,-0.001321825
-1.055001,-0.001314774
-1.054001,-0.001309869
-1.053001,-0.001304658
-1.052001,-0.001299447
-1.051001,-0.001295768
-1.050001,-0.001289637
-1.049001,-0.001282586
-1.048001,-0.001279214
-1.047001,-0.00127339
-1.046001,-0.001267872
-1.045001,-0.001263887
-1.044001,-0.00125745
-1.043001,-0.001253158
-1.042001,-0.001248866
-1.041001,-0.001241509
-1.040001,-0.001238137
-1.039001,-0.001231699
-1.038001,-0.001227714
-1.037001,-0.001223423
-1.036001,-0.001217905
-1.035001,-0.001211467
-1.034001,-0.001206869
-1.033001,-0.001204417
-1.032001,-0.001198592
-1.031001,-0.001194914
-1.030001,-0.001191541
-1.029001,-0.001185104
-1.028001,-0.001180199
-1.027001,-0.001176214
-1.026001,-0.001171003
-1.025001,-0.001166711
-1.024001,-0.001161806
-1.023001,-0.001155675
-1.022001,-0.001152916
-1.021001,-0.001148012
-1.020001,-0.001141881
-1.019001,-0.001138815
-1.018001,-0.001133604
-1.017001,-0.001127473
-1.016001,-0.001125634
-1.015001,-0.00111889
-1.014001,-0.001113065
-1.013001,-0.001111839
-1.012001,-0.001105708
-1.011001,-0.001100803
-1.010001,-0.001097125
-1.009001,-0.001092526
-1.008001,-0.001087315
-1.007001,-0.001086089
-1.006001,-0.001077812
-1.005001,-0.001074747
-1.004001,-0.001068922
-1.003001,-0.001064631
-1.002001,-0.001060645
-1.001001,-0.00105666
-1.000001,-0.001050223
-0.9990007,-0.001046851
-0.9980007,-0.001042253
-0.9970006,-0.001037041
-0.9960006,-0.001032443
-0.9950007,-0.001029991
-0.9940007,-0.001022634
-0.9930006,-0.001019261
-0.9920006,-0.00101497
-0.9910007,-0.001008839
-0.9900007,-0.001005467
-0.9890007,-0.001002095
-0.9880006,-0.0009953505
-0.9870006,-0.0009916719
-0.9860007,-0.0009873803
-0.9850007,-0.0009818624
-0.9840007,-0.0009781838
-0.9830006,-0.0009732791
-0.9820006,-0.0009686808
-0.9810007,-0.0009622434
-0.9800007,-0.0009594844
-0.9790006,-0.0009542731
-0.9780006,-0.0009493683
-0.9770007,-0.0009432373
-0.9760007,-0.0009383326
-0.9750007,-0.0009352671
-0.9740006,-0.0009291361
-0.9730006,-0.0009233117
-0.9720007,-0.0009211659
-0.9710007,-0.0009150349
-0.9700007,-0.0009101302
-0.9690006,-0.0009070646
-0.9680007,-0.0009012403
-0.9670007,-0.0008948027
-0.9660007,-0.0008920438
-0.9650006,-0.0008868325
-0.9640006,-0.0008794753
-0.9630007,-0.0008757967
-0.9620007,-0.0008721182
-0.9610007,-0.0008650676
-0.9600006,-0.0008616955
-0.9590006,-0.0008567907
-0.9580007,-0.0008500467
-0.9570007,-0.0008463681
-0.9560006,-0.0008408502
-0.9550006,-0.0008356389
-0.9540007,-0.0008313472
-0.9530007,-0.0008264424
-0.9520007,-0.0008203115
-0.9510006,-0.0008157133
-0.9500006,-0.0008108085
-0.9490007,-0.0008049841
-0.9480007,-0.0007994662
-0.9470007,-0.0007954811
-0.9460006,-0.0007890436
-0.9450006,-0.0007850585
-0.9440007,-0.0007804602
-0.9430007,-0.0007737162
-0.9420006,-0.0007694245
-0.9410006,-0.0007648263
-0.9400007,-0.0007571626
-0.9390007,-0.0007537905
-0.9380007,-0.0007491923
-0.9370006,-0.0007421417
-0.9360006,-0.0007369304
-0.9350007,-0.0007329452
-0.9340007,-0.0007268143
-0.9330007,-0.0007206833
-0.9320006,-0.0007170048
-0.9310006,-0.0007105672
-0.9300007,-0.0007044363
-0.9290007,-0.0006995315
-0.9280006,-0.0006943202
-0.9270006,-0.0006881892
-0.9260007,-0.000684204
-0.9250007,-0.0006771535
-0.9240007,-0.000671329
-0.9230006,-0.0006676505
-0.9220006,-0.0006609064
-0.9210007,-0.0006547754
-0.9200007,-0.0006501772
-0.9190007,-0.0006446594
-0.9180006,-0.0006385284
-0.9170007,-0.0006339302
-0.9160007,-0.0006274926
-0.9150007,-0.0006210551
-0.9140006,-0.0006164569
-0.9130006,-0.000610326
-0.9120007,-0.000604808
-0.9110007,-0.0005995968
-0.9100007,-0.0005931592
-0.9090006,-0.0005876414
-0.9080006,-0.0005821235
-0.9070007,-0.000575686
-0.9060007,-0.000569555
-0.9050006,-0.0005652634
-0.9040006,-0.0005588258
-0.9030007,-0.0005526949
-0.9020007,-0.000547177
-0.9010007,-0.0005416591
-0.9000006,-0.0005346085
-0.8990006,-0.0005293972
-0.8980007,-0.0005238793
-0.8970007,-0.0005165222
-0.8960007,-0.0005119239
-0.8950006,-0.0005064061
-0.8940006,-0.0004984358
-0.8930007,-0.0004941442
-0.8920007,-0.0004874001
-0.8910006,-0.0004809626
-0.8900006,-0.0004751382
-0.8890007,-0.0004696203
-0.8880007,-0.0004619566
-0.8870007,-0.0004570518
-0.8860006,-0.0004509208
-0.8850006,-0.0004441768
-0.8840007,-0.0004377393
-0.8830007,-0.0004325279
-0.8820007,-0.0004254773
-0.8810006,-0.0004190398
-0.8800007,-0.0004138285
-0.8790007,-0.0004067779
-0.8780007,-0.0003997273
-0.8770006,-0.0003954356
-0.8760006,-0.0003874653
-0.8750007,-0.0003807213
-0.8740007,-0.0003764296
-0.8730007,-0.0003678463
-0.8720006,-0.0003626349
-0.8710006,-0.0003568105
-0.8700007,-0.0003488403
-0.8690007,-0.0003433224
-0.8680006,-0.0003371914
-0.8670006,-0.0003298343
-0.8660007,-0.0003240099
-0.8650007,-0.0003178789
-0.8640007,-0.0003102152
-0.8630006,-0.0003037777
-0.8620006,-0.0002991795
-0.8610007,-0.0002912092
-0.8600007,-0.0002832389
-0.8590007,-0.0002792538
-0.8580006,-0.0002706705
-0.8570006,-0.0002651526
-0.8560007,-0.0002605543
-0.8550007,-0.0002504383
-0.8540006,-0.0002455335
-0.8530006,-0.0002397091
-0.8520007,-0.0002308192
-0.8510007,-0.0002249948
-0.8500007,-0.0002182507
-0.8490006,-0.0002102804
-0.8480006,-0.0002050691
-0.8470007,-0.0001974054
-0.8460007,-0.0001906613
-0.8450007,-0.0001845304
-0.8440006,-0.0001771732
-0.8430007,-0.0001695095
-0.8420007,-0.0001639917
-0.8410007,-0.0001554083
-0.8400006,-0.0001492773
-0.8390006,-0.0001419202
-0.8380007,-0.0001382215
-0.8370007,-0.0001314467
-0.8360007,-0.0001241509
-0.8350006,-0.0001179893
-0.8340006,-0.0001106934
-0.8330007,-0.0001044398
-0.8320007,-9.564189E-05
-0.8310006,-8.981747E-05
-0.8300006,-8.166328E-05
-0.8290007,-7.485792E-05
-0.8280007,-6.802189E-05
-0.8270007,-6.152307E-05
-0.8260006,-5.34915E-05
-0.8250006,-4.760578E-05
-0.8240007,-3.97888E-05
-0.8230007,-3.298343E-05
-0.8220007,-2.633133E-05
-0.8210006,-1.909679E-05
-0.8200006,-1.149439E-05
-0.8190007,-4.842295E-06
-0.8180007,3.311889E-06
-0.8170006,9.688092E-06
-0.8160006,1.566578E-05
-0.8150007,2.443306E-05
-0.8140007,3.062534E-05
-0.8130007,3.592862E-05
-0.8120006,4.533965E-05
-0.8110006,5.202241E-05
-0.8100007,5.815337E-05
-0.8090007,6.682868E-05
-0.8080007,7.19787E-05
-0.8070006,7.863079E-05
-0.8060006,8.782724E-05
-0.8050007,9.32838E-05
-0.8040007,0.0001006716
-0.8030006,0.0001085192
-0.8020006,0.0001142517
-0.8010007,0.0001211184
-0.8000007,7.752722E-05
-0.8009993,1.60643E-05
-0.8019994,-2.409352E-05
-0.8029994,-5.658764E-05
-0.8039994,-8.828473E-05
-0.8049994,-0.0001152303
-0.8059993,-0.0001391104
-0.8069994,-0.0001636343
-0.8079994,-0.0001855218
-0.8089994,-0.0002057847
-0.8099993,-0.0002264154
-0.8109994,-0.0002454827
-0.8119994,-0.0002624961
-0.8129994,-0.0002809503
-0.8139994,-0.0002985155
-0.8149993,-0.0003108283
-0.8159994,-0.0003267688
-0.8169994,-0.0003427093
-0.8179994,-0.0003561974
-0.8189994,-0.0003736707
-0.8199994,-0.0003874653
-0.8209994,-0.0003988076
-0.8219994,-0.0004135219
-0.8229994,-0.0004276232
-0.8239993,-0.0004389654
-0.8249994,-0.0004512274
-0.8259994,-0.0004644089
-0.8269994,-0.000473912
-0.8279994,-0.0004883197
-0.8289993,-0.0005011947
-0.8299994,-0.0005094716
-0.8309994,-0.0005226531
-0.8319994,-0.0005336889
-0.8329993,-0.0005425788
-0.8339994,-0.0005551472
-0.8349994,-0.0005652634
-0.8359994,-0.0005741533
-0.8369994,-0.0005861087
-0.8379993,-0.0005959182
-0.8389994,-0.0006045015
-0.8399994,-0.0006149242
-0.8409994,-0.0006247337
-0.8419994,-0.0006348498
-0.8429993,-0.000645579
-0.8439994,-0.0006532427
-0.8449994,-0.0006618261
-0.8459994,-0.0006722487
-0.8469993,-0.0006796059
-0.8479994,-0.0006891088
-0.8489994,-0.0006995315
-0.8499994,-0.0007065821
-0.8509994,-0.000715472
-0.8519993,-0.0007255881
-0.8529994,-0.0007329452
-0.8539994,-0.0007424483
-0.8549994,-0.0007513381
-0.8559994,-0.0007571626
-0.8569994,-0.0007672787
-0.8579994,-0.0007764751
-0.8589994,-0.0007835258
-0.8599994,-0.0007930287
-0.8609993,-0.0008006924
-0.8619994,-0.0008059037
-0.8629994,-0.0008178591
-0.8639994,-0.0008236835
-0.8649994,-0.0008307341
-0.8659993,-0.0008414634
-0.8669994,-0.0008479009
-0.8679994,-0.0008543384
-0.8689994,-0.0008641479
-0.8699993,-0.0008715051
-0.8709994,-0.0008779426
-0.8719994,-0.0008868325
-0.8729994,-0.0008935765
-0.8739994,-0.0009003207
-0.8749993,-0.0009101302
-0.8759994,-0.0009168742
-0.8769994,-0.0009220855
-0.8779994,-0.0009306689
-0.8789994,-0.0009380261
-0.8799993,-0.000944157
-0.8809994,-0.0009527404
-0.8819994,-0.0009591779
-0.8829994,-0.0009653088
-0.8839993,-0.0009738922
-0.8849994,-0.0009806362
-0.8859994,-0.0009858476
-0.8869994,-0.0009947375
-0.8879994,-0.001000255
-0.8889993,-0.00100608
-0.8899994,-0.001015276
-0.8909994,-0.001020181
-0.8919994,-0.001027538
-0.8929994,-0.001035202
-0.8939994,-0.00104072
-0.8949994,-0.001046851
-0.8959994,-0.001054208
-0.8969994,-0.001060645
-0.8979993,-0.00106555
-0.8989994,-0.001073214
-0.8999994,-0.001080264
-0.9009994,-0.001085782
-0.9019994,-0.001092833
-0.9029993,-0.001099884
-0.9039994,-0.001103869
-0.9049994,-0.001111532
-0.9059994,-0.001118277
-0.9069993,-0.001122262
-0.9079994,-0.001130232
-0.9089994,-0.001136363
-0.9099994,-0.001140655
-0.9109994,-0.001148318
-0.9119993,-0.001154143
-0.9129994,-0.001159047
-0.9139994,-0.001165791
-0.9149994,-0.001171003
-0.9159994,-0.001176521
-0.9169993,-0.001183265
-0.9179994,-0.001188476
-0.9189994,-0.001193381
-0.9199994,-0.001199818
-0.9209993,-0.001205949
-0.9219994,-0.001209628
-0.9229994,-0.001215759
-0.9239994,-0.001222503
-0.9249994,-0.001226488
-0.9259993,-0.001232313
-0.9269994,-0.00123783
-0.9279994,-0.001241509
-0.9289994,-0.001249173
-0.9299994,-0.001254384
-0.9309993,-0.00125745
-0.9319994,-0.001266339
-0.9329994,-0.001268792
-0.9339994,-0.001275229
-0.9349993,-0.001282586
-0.9359994,-0.001285039
-0.9369994,-0.001292396
-0.9379994,-0.001297914
-0.9389994,-0.001299447
-0.9399993,-0.001306497
-0.9409994,-0.001312628
-0.9419994,-0.001315694
-0.9429994,-0.001321825
-0.9439994,-0.001327342
-0.9449994,-0.001331941
-0.9459994,-0.001335619
-0.9469994,-0.00134175
-0.9479994,-0.001346655
-0.9489993,-0.001349414
-0.9499994,-0.001356464
-0.9509994,-0.001361063
-0.9519994,-0.001364741
-0.9529994,-0.001371485
-0.9539993,-0.00137547
-0.9549994,-0.001379149
-0.9559994,-0.001384974
-0.9569994,-0.001389265
-0.9579993,-0.001392331
-0.9589994,-0.001399075
-0.9599994,-0.001403366
-0.9609994,-0.001407352
-0.9619994,-0.001412869
-0.9629993,-0.001417161
-0.9639994,-0.001421759
-0.9649994,-0.001426051
-0.9659994,-0.001432182
-0.9669994,-0.001434634
-0.9679993,-0.001438926
-0.9689994,-0.001445364
-0.9699994,-0.001448429
-0.9709994,-0.001453027
-0.9719993,-0.001459158
-0.9729994,-0.001461611
-0.9739994,-0.001465596
-0.9749994,-0.00147234
-0.9759994,-0.001475712
-0.9769993,-0.00148031
-0.9779994,-0.001487054
-0.9789994,-0.001487974
-0.9799994,-0.001493798
-0.9809994,-0.001499009
-0.9819994,-0.001501462
-0.9829994,-0.001506673
-0.9839994,-0.001512498
-0.9849994,-0.001514337
-0.9859993,-0.001520774
-0.9869994,-0.001527518
-0.9879994,-0.001529051
-0.9889994,-0.001534569
-0.9899994,-0.001539167
-0.9909993,-0.001542233
-0.9919994,-0.001547444
-0.9929994,-0.001552962
-0.9939994,-0.001557254
-0.9949993,-0.001561239
-0.9959994,-0.001565837
-0.9969994,-0.001569209
-0.9979994,-0.001575953
-0.9989994,-0.001580551
-0.9999993,-0.001582391
-1.000999,-0.001590361
-1.001999,-0.001594346
-1.002999,-0.001597105
-1.003999,-0.001603849
-1.004999,-0.001608447
-1.005999,-0.0016109
-1.006999,-0.001617644
-1.007999,-0.001621935
-1.008999,-0.001625307
-1.009999,-0.001631132
-1.010999,-0.001637569
-1.011999,-0.001640022
-1.012999,-0.001645233
-1.013999,-0.001650751
-1.014999,-0.001654123
-1.015999,-0.001658108
-1.016999,-0.001664852
-1.017999,-0.001667918
-1.018999,-0.001672516
-1.019999,-0.001679566
-1.020999,-0.001682632
-1.021999,-0.001687843
-1.022999,-0.001694587
-1.023999,-0.001696427
-1.024999,-0.001702558
-1.025999,-0.001708382
-1.026999,-0.001712367
-1.027999,-0.001716352
-1.028999,-0.001723403
-1.029999,-0.001728308
-1.030999,-0.001732293
-1.031999,-0.00173965
-1.032999,-0.001740263
-1.033999,-0.001747007
-1.034999,-0.001751912
-1.035999,-0.001754977
-1.036999,-0.001761415
-1.037999,-0.001767546
-1.038999,-0.001771531
-1.039999,-0.001777662
-1.040999,-0.001781034
-1.041999,-0.001786858
-1.042999,-0.001792376
-1.043999,-0.001797281
-1.044999,-0.00180096
-1.045999,-0.001809236
-1.046999,-0.001811995
-1.047999,-0.00181598
-1.048999,-0.001824257
-1.049999,-0.00182487
-1.050999,-0.00183284
-1.051999,-0.001840504
-1.052999,-0.001841117
-1.053999,-0.001849088
-1.054999,-0.001859204
-1.055999,-0.001858591
-1.056999,-0.001867787
-1.057999,-0.001872692
-1.058999,-0.001874225
-1.059999,-0.001882501
-1.060999,-0.001888326
-1.061999,-0.001889552
-1.062999,-0.001899361
-1.063999,-0.00190212
-1.064999,-0.001905186
-1.065999,-0.001914689
-1.066999,-0.001918981
-1.067999,-0.001922046
-1.068999,-0.001929403
-1.069999,-0.001935228
-1.070999,-0.001939826
-1.071999,-0.001943504
-1.072999,-0.001952088
-1.073999,-0.001955153
-1.074999,-0.001964043
-1.075999,-0.001968948
-1.076999,-0.001970174
-1.077999,-0.001979064
-1.078999,-0.001983662
-1.079999,-0.001987647
-1.080999,-0.001996844
-1.081999,-0.002000216
-1.082999,-0.002003894
-1.083999,-0.002012784
-1.084999,-0.00201585
-1.085999,-0.002020754
-1.086999,-0.002029644
-1.087999,-0.002032403
-1.088999,-0.002038841
-1.089999,-0.002046811
-1.090999,-0.002051103
-1.091999,-0.002055394
-1.092999,-0.002064591
-1.093999,-0.002068883
-1.094999,-0.002074707
-1.095999,-0.002082371
-1.096999,-0.002087889
-1.097999,-0.002093407
-1.098999,-0.00210107
-1.099999,-0.002106588
-1.100999,-0.002111493
-1.101999,-0.002119463
-1.102999,-0.002127127
-1.103999,-0.002133258
-1.104999,-0.002138776
-1.105999,-0.002146746
-1.106999,-0.00215257
-1.107999,-0.002159621
-1.108999,-0.002167284
-1.109999,-0.002171576
-1.110999,-0.002179547
-1.111999,-0.002186903
-1.112999,-0.002191808
-1.113999,-0.002199472
-1.114999,-0.00220591
-1.115999,-0.002211428
-1.116999,-0.002218785
-1.117999,-0.002225529
-1.118999,-0.002231353
-1.119999,-0.002236564
-1.120999,-0.002244841
-1.121999,-0.002249133
-1.122999,-0.002254651
-1.123999,-0.002262928
-1.124999,-0.002266606
-1.125999,-0.002272737
-1.126999,-0.002281321
-1.127999,-0.002282853
-1.128999,-0.002288984
-1.129999,-0.002297261
-1.130999,-0.002299713
-1.131999,-0.002305231
-1.132999,-0.002314121
-1.133999,-0.002314734
-1.134999,-0.002320252
-1.135999,-0.002326383
-1.136999,-0.002328529
-1.137999,-0.002335273
-1.138999,-0.002340178
-1.139999,-0.002343856
-1.140999,-0.002348455
-1.141999,-0.002354279
-1.142999,-0.002357038
-1.143999,-0.00236041
-1.144999,-0.002367461
-1.145999,-0.002367767
-1.146999,-0.002372978
-1.147999,-0.002379416
-1.148999,-0.002380336
-1.149999,-0.002385241
-1.150999,-0.002390452
-1.151999,-0.002389839
-1.152999,-0.002396276
-1.153999,-0.002400874
-1.154999,-0.002400874
-1.155999,-0.002405473
-1.156999,-0.00241099
-1.157999,-0.00241191
-1.158999,-0.002414669
-1.159999,-0.002419267
-1.160999,-0.00242172
-1.161999,-0.002422639
-1.162999,-0.002429383
-1.163999,-0.00243061
-1.164999,-0.002433675
-1.165999,-0.002439193
-1.166999,-0.002440419
-1.167999,-0.002442565
-1.168999,-0.002449616
-1.169999,-0.002450535
-1.170999,-0.002453601
-1.171999,-0.002460958
-1.172999,-0.002463104
-1.173999,-0.002466169
-1.174999,-0.002471994
-1.175999,-0.002475059
-1.176999,-0.002478125
-1.177999,-0.002484255
-1.178999,-0.002488241
-1.179999,-0.002491919
-1.180999,-0.00249989
-1.181999,-0.002502955
-1.182999,-0.002507247
-1.183999,-0.00251491
-1.184999,-0.002518589
-1.185999,-0.002525333
-1.186999,-0.002532077
-1.187999,-0.002536982
-1.188999,-0.002543113
-1.189999,-0.002552002
-1.190999,-0.002560892
-1.191999,-0.002562119
-1.192999,-0.002570702
-1.193999,-0.002579899
-1.194999,-0.00258419
-1.195999,-0.002596452
-1.196999,-0.002603503
-1.197999,-0.002610553
-1.198999,-0.002621896
-1.199999,-0.002627414
-1.200999,-0.00263661
-1.201999,-0.002648259
-1.202999,-0.002654696
-1.203999,-0.002666039
-1.204999,-0.002675235
-1.205999,-0.002682592
-1.206999,-0.002694548
-1.207999,-0.002706809
-1.208999,-0.002713554
-1.209999,-0.002724896
-1.210999,-0.002737771
-1.211999,-0.002745128
-1.212999,-0.002756777
-1.213999,-0.002770878
-1.214999,-0.002778542
-1.215999,-0.002792337
-1.216999,-0.002806744
-1.217999,-0.002813795
-1.218999,-0.002827896
-1.219999,-0.002841997
-1.220999,-0.00285242
-1.221999,-0.002864682
-1.222999,-0.002880929
-1.223999,-0.002892884
-1.224999,-0.002905146
-1.225999,-0.002921087
-1.226999,-0.002935188
-1.227999,-0.00294745
-1.228999,-0.002964003
-1.229999,-0.002977798
-1.230999,-0.002991286
-1.231999,-0.00300784
-1.232999,-0.002985663
-1.233999,-0.003000991
-1.234999,-0.003019383
-1.235999,-0.003031645
-1.236999,-0.003046973
-1.237999,-0.003065366
-1.238999,-0.003080693
-1.239999,-0.003096021
-1.240999,-0.003117479
-1.241999,-0.003132806
-1.242999,-0.003148134
-1.243999,-0.003166527
-1.244999,-0.003184919
-1.245999,-0.003200247
-1.246999,-0.003224771
-1.247999,-0.003243164
-1.248999,-0.003258491
-1.249999,-0.003286081
-1.250999,-0.003298342
-1.251999,-0.003316735
-1.252999,-0.003344325
-1.253999,-0.003362718
-1.254999,-0.003384176
-1.255999,-0.003405634
-1.256999,-0.003427093
-1.257999,-0.003448551
-1.258999,-0.003473075
-1.259999,-0.003494533
-1.260999,-0.003515992
-1.261999,-0.003540515
-1.262999,-0.003565039
-1.263999,-0.003589563
-1.264999,-0.003614087
-1.265999,-0.003638611
-1.266999,-0.003663135
-1.267999,-0.00369379
-1.268999,-0.003718314
-1.269999,-0.003745903
-1.270999,-0.003773492
-1.271999,-0.003801082
-1.272999,-0.003831736
-1.273999,-0.003862391
-1.274999,-0.00388998
-1.275999,-0.003923701
-1.276999,-0.003954356
-1.277999,-0.003985011
-1.278999,-0.004021796
-1.279999,-0.004052451
-1.280999,-0.004086172
-1.281999,-0.004122957
-1.282999,-0.004156678
-1.283999,-0.004196529
-1.284999,-0.004233315
-1.285999,-0.004273166
-1.286999,-0.004309952
-1.287999,-0.004352869
-1.288999,-0.00439272
-1.289999,-0.004435637
-1.290999,-0.004481619
-1.291999,-0.004524535
-1.292999,-0.004570518
-1.293999,-0.004622631
-1.294999,-0.004668613
-1.295999,-0.004717661
-1.296999,-0.004769774
-1.297999,-0.004824953
-1.298999,-0.004880131
-1.299999,-0.004938376
-1.300999,-0.004999685
-1.301999,-0.00505793
-1.302999,-0.005116174
-1.303999,-0.005183614
-1.304999,-0.005247989
-1.305999,-0.00531543
-1.306999,-0.005389001
-1.307999,-0.005456442
-1.308999,-0.005533079
-1.309999,-0.005612782
-1.310999,-0.005689419
-1.311999,-0.005772187
-1.312999,-0.005854954
-1.313999,-0.005940788
-1.314999,-0.006032753
-1.315999,-0.006124718
-1.316999,-0.006216682
-1.317999,-0.006317842
-1.318999,-0.006422069
-1.319999,-0.006517099
-1.320999,-0.006627456
-1.321999,-0.006740879
-1.322999,-0.00684204
-1.323999,-0.006970791
-1.324999,-0.007090344
-1.325999,-0.007206833
-1.326999,-0.007338648
-1.327999,-0.007467398
-1.328999,-0.007596149
-1.329999,-0.007737161
-1.330999,-0.007878173
-1.331999,-0.008022251
-1.332999,-0.008172459
-1.333999,-0.008325734
-1.334999,-0.008479008
-1.335999,-0.008638413
-1.336999,-0.008807015
-1.337999,-0.008969485
-1.338999,-0.009147284
-1.339999,-0.00931895
-1.340999,-0.009499813
-1.341999,-0.009686808
-1.342999,-0.009870737
-1.343999,-0.01006693
-1.344999,-0.01026925
-1.345999,-0.01046238
-1.346999,-0.01067083
-1.347999,-0.01088235
-1.348999,-0.01108467
-1.349999,-0.01130538
-1.350999,-0.0115261
-1.351999,-0.01174375
-1.352999,-0.01197672
-1.353999,-0.01221277
-1.354999,-0.01243961
-1.355999,-0.01268485
-1.356999,-0.01292702
-1.357999,-0.01317533
-1.358999,-0.01342976
-1.359999,-0.0136842
-1.360999,-0.0139417
-1.361999,-0.01420533
-1.362999,-0.01447203
-1.363999,-0.01474485
-1.364999,-0.01501768
-1.365999,-0.01529358
-1.366999,-0.0155756
-1.367999,-0.01585762
-1.368999,-0.01615191
-1.369999,-0.01644313
-1.370999,-0.01673742
-1.371999,-0.01703477
-1.372999,-0.01732599
-1.373999,-0.01763254
-1.374999,-0.01793602
-1.375999,-0.01823951
-1.376999,-0.01855831
-1.377999,-0.01886793
-1.378999,-0.01918061
-1.379999,-0.01950861
-1.380999,-0.01982436
-1.381999,-0.02014623
-1.382999,-0.02047731
-1.383999,-0.02079612
-1.384999,-0.02113332
-1.385999,-0.02147052
-1.386999,-0.02179853
-1.387999,-0.02214493
-1.388999,-0.0224852
-1.389999,-0.02282546
-1.390999,-0.0231688
-1.391999,-0.02351826
-1.392999,-0.0238616
-1.393999,-0.02421106
-1.394999,-0.02456973
-1.395999,-0.02491919
-1.396999,-0.02527172
-1.397999,-0.02563345
-1.398999,-0.02598598
-1.399999,-0.02634464
-1.400999,-0.0267125
-1.401999,-0.02706503
-1.402999,-0.02743595
-1.403999,-0.02780381
-1.404999,-0.02815941
-1.405999,-0.02853953
-1.406999,-0.02891351
-1.407999,-0.02928444
-1.408999,-0.02966149
-1.409999,-0.03002935
-1.410999,-0.03039721
-1.411999,-0.0308989
-1.412999,-0.03126676
-1.413999,-0.03163461
-1.414999,-0.03203313
-1.415999,-0.03243164
-1.416999,-0.0327995
-1.417999,-0.03319801
-1.418999,-0.03359652
-1.419999,-0.03399504
-1.420999,-0.03436289
-1.421999,-0.03476141
-1.422999,-0.03515992
-1.423999,-0.03555843
-1.424999,-0.03595695
-1.425999,-0.0363248
-1.426999,-0.03672331
-1.427999,-0.03715248
-1.428999,-0.03752034
-1.429999,-0.03794951
-1.430999,-0.03834802
-1.431999,-0.03874653
-1.432999,-0.03914505
-1.433999,-0.03954356
-1.434999,-0.03994207
-1.435999,-0.04037124
-1.436999,-0.04076975
-1.437999,-0.04119892
-1.438999,-0.04159743
-1.439999,-0.04199595
-1.440999,-0.04239446
-1.441999,-0.04282362
-1.442999,-0.04322214
-1.443999,-0.04362065
-1.444999,-0.04404982
-1.445999,-0.04444833
-1.446999,-0.04484684
-1.447999,-0.04524536
-1.448999,-0.04567453
-1.449999,-0.04607304
-1.450999,-0.0465022
-1.451999,-0.04693137
-1.452999,-0.04732988
-1.453999,-0.04775905
-1.454999,-0.04815757
-1.455999,-0.04858673
-1.456999,-0.0490159
-1.457999,-0.04941441
-1.458999,-0.04984358
-1.459999,-0.05024209
-1.460999,-0.05067126
-1.461999,-0.05106977
-1.462999,-0.05149894
-1.463999,-0.05192811
-1.464999,-0.05232662
-1.465999,-0.05275579
-1.466999,-0.05318496
-1.467999,-0.05358347
-1.468999,-0.05401264
-1.469999,-0.05441115
-1.470999,-0.05484032
-1.471999,-0.05526949
-1.472999,-0.05569865
-1.473999,-0.05612782
-1.474999,-0.05655699
-1.475999,-0.05698615
-1.476999,-0.05741533
-1.477999,-0.05784449
-1.478999,-0.05827365
-1.479999,-0.05867217
-1.480999,-0.05913199
-1.481999,-0.0595305
-1.482999,-0.05995968
-1.483999,-0.06038884
-1.484999,-0.06081801
-1.485999,-0.06124718
-1.486999,-0.06167634
-1.487999,-0.06210551
-1.488999,-0.06253468
-1.489999,-0.06296384
-1.490999,-0.06339302
-1.491999,-0.06385284
-1.492999,-0.06425135
-1.493999,-0.06468052
-1.494999,-0.06514034
-1.495999,-0.06553885
-1.496999,-0.06596802
-1.497999,-0.06642784
-1.498999,-0.06682636
-1.499999,-0.06697963
-1.499001,-0.06661177
-1.498001,-0.06621326
-1.497001,-0.0658454
-1.496001,-0.06547754
-1.495001,-0.06507903
-1.494001,-0.06468052
-1.493001,-0.064282
-1.492001,-0.06388349
-1.491001,-0.06348498
-1.490001,-0.06308647
-1.489001,-0.06268796
-1.488001,-0.06225879
-1.487001,-0.06186027
-1.486001,-0.06146176
-1.485001,-0.06106325
-1.484001,-0.06063408
-1.483001,-0.06023557
-1.482001,-0.05983705
-1.481001,-0.05943854
-1.480001,-0.05900937
-1.479001,-0.05858021
-1.478001,-0.05818169
-1.477001,-0.05778318
-1.476001,-0.05738467
-1.475001,-0.0569555
-1.474001,-0.05655699
-1.473001,-0.05615847
-1.472001,-0.05572931
-1.471001,-0.05533079
-1.470001,-0.05490163
-1.469001,-0.05450311
-1.468001,-0.0541046
-1.467001,-0.05367543
-1.466001,-0.05327692
-1.465001,-0.05287841
-1.464001,-0.05247989
-1.463001,-0.05208138
-1.462001,-0.05165222
-1.461001,-0.0512537
-1.460001,-0.05085519
-1.459001,-0.05045668
-1.458001,-0.05005816
-1.457001,-0.04965965
-1.456001,-0.04926114
-1.455001,-0.04883197
-1.454001,-0.04846412
-1.453001,-0.04803495
-1.452001,-0.04763643
-1.451001,-0.04723792
-1.450001,-0.04683941
-1.449001,-0.0464409
-1.448001,-0.04607304
-1.447001,-0.04564387
-1.446001,-0.04527601
-1.445001,-0.0448775
-1.444001,-0.04447899
-1.443001,-0.04408047
-1.442001,-0.04368196
-1.441001,-0.0433141
-1.440001,-0.04291559
-1.439001,-0.04251708
-1.438001,-0.04214922
-1.437001,-0.04175071
-1.436001,-0.04138285
-1.435001,-0.04098434
-1.434001,-0.04058582
-1.433001,-0.04021796
-1.432001,-0.03981945
-1.431001,-0.03942094
-1.430001,-0.03905308
-1.429001,-0.03868522
-1.428001,-0.03828671
-1.427001,-0.03791885
-1.426001,-0.037551
-1.425001,-0.03715248
-1.424001,-0.03678463
-1.423001,-0.03641677
-1.422001,-0.03604891
-1.421001,-0.03568105
-1.420001,-0.03531319
-1.419001,-0.03491468
-1.418001,-0.03457748
-1.417001,-0.03420962
-1.416001,-0.03384176
-1.415001,-0.03347391
-1.414001,-0.03310604
-1.413001,-0.03273819
-1.412001,-0.03240098
-1.411001,-0.03200247
-1.410001,-0.03166527
-1.409001,-0.03129741
-1.408001,-0.03096021
-1.407001,-0.03059235
-1.406001,-0.03025514
-1.405001,-0.02988729
-1.404001,-0.02955008
-1.403001,-0.02921288
-1.402001,-0.02884503
-1.401001,-0.02850782
-1.400001,-0.02817062
-1.399001,-0.02783342
-1.398001,-0.02749621
-1.397001,-0.02715901
-1.396001,-0.02682181
-1.395001,-0.0264846
-1.394001,-0.0261474
-1.393001,-0.0258102
-1.392001,-0.02547299
-1.391001,-0.02516645
-1.390001,-0.02482924
-1.389001,-0.02449204
-1.388001,-0.02418549
-1.387001,-0.02384829
-1.386001,-0.02354174
-1.385001,-0.02320454
-1.384001,-0.02289799
-1.383001,-0.02259144
-1.382001,-0.02225424
-1.381001,-0.02194769
-1.380001,-0.02164114
-1.379001,-0.02133459
-1.378001,-0.02102804
-1.377001,-0.0207215
-1.376001,-0.0204456
-1.375001,-0.02013905
-1.374001,-0.01986316
-1.373001,-0.01955661
-1.372001,-0.01925006
-1.371001,-0.01897417
-1.370001,-0.01869828
-1.369001,-0.01839173
-1.368001,-0.01811584
-1.367001,-0.01783994
-1.366001,-0.01756405
-1.365001,-0.01728815
-1.364001,-0.01701226
-1.363001,-0.01673637
-1.362001,-0.01646047
-1.361001,-0.01621523
-1.360001,-0.01606608
-1.359001,-0.01581164
-1.358001,-0.01556027
-1.357001,-0.0153089
-1.356001,-0.01506366
-1.355001,-0.01481536
-1.354001,-0.01457012
-1.353001,-0.01433101
-1.352001,-0.01409497
-1.351001,-0.01385586
-1.350001,-0.01363209
-1.349001,-0.01340524
-1.348001,-0.01317839
-1.347001,-0.01296381
-1.346001,-0.01273696
-1.345001,-0.01251625
-1.344001,-0.0123078
-1.343001,-0.01209628
-1.342001,-0.01188783
-1.341001,-0.0116855
-1.340001,-0.01148012
-1.339001,-0.01128086
-1.338001,-0.01108773
-1.337001,-0.01089461
-1.336001,-0.01070148
-1.335001,-0.01051755
-1.334001,-0.01033669
-1.333001,-0.01015583
-1.332001,-0.009981094
-1.331001,-0.009806362
-1.330001,-0.009628564
-1.329001,-0.009459963
-1.328001,-0.009297492
-1.327001,-0.009131956
-1.326001,-0.008975616
-1.325001,-0.008825407
-1.324001,-0.008666002
-1.323001,-0.008518859
-1.322001,-0.008374781
-1.321001,-0.008227638
-1.320001,-0.008089691
-1.319001,-0.00794868
-1.318001,-0.007810732
-1.317001,-0.007681982
-1.316001,-0.007553232
-1.315001,-0.007424482
-1.314001,-0.007301863
-1.313001,-0.007185374
-1.312001,-0.00705969
-1.311001,-0.006946267
-1.310001,-0.006838975
-1.309001,-0.006719421
-1.308001,-0.006615194
-1.307001,-0.006514033
-1.306001,-0.006406742
-1.305001,-0.00630558
-1.304001,-0.006207486
-1.303001,-0.00610939
-1.302001,-0.006023556
-1.301001,-0.005928526
-1.300001,-0.005839627
-1.299001,-0.005753794
-1.298001,-0.005671026
-1.297001,-0.005588258
-1.296001,-0.005511621
-1.295001,-0.005431918
-1.294001,-0.005355281
-1.293001,-0.005284776
-1.292001,-0.005211203
-1.291001,-0.005137632
-1.290001,-0.005073257
-1.289001,-0.005005816
-1.288001,-0.004938376
-1.287001,-0.004880131
-1.286001,-0.004815756
-1.285001,-0.004754446
-1.284001,-0.004696202
-1.283001,-0.004644089
-1.282001,-0.004585845
-1.281001,-0.004533732
-1.280001,-0.004481619
-1.279001,-0.004429505
-1.278001,-0.004383523
-1.277001,-0.004334475
-1.276001,-0.004282362
-1.275001,-0.004239446
-1.274001,-0.004196529
-1.273001,-0.004147481
-1.272001,-0.00410763
-1.271001,-0.004067779
-1.270001,-0.004021796
-1.269001,-0.003981945
-1.268001,-0.003948225
-1.267001,-0.003902242
-1.266001,-0.003868522
-1.265001,-0.003837867
-1.264001,-0.003794951
-1.263001,-0.003767361
-1.262001,-0.003730575
-1.261001,-0.00369379
-1.260001,-0.0036662
-1.259001,-0.00363248
-1.258001,-0.00359876
-1.257001,-0.00357117
-1.256001,-0.003540515
-1.255001,-0.003512926
-1.254001,-0.003485337
-1.253001,-0.003454682
-1.252001,-0.003427093
-1.251001,-0.003402569
-1.250001,-0.003374979
-1.249001,-0.003350456
-1.248001,-0.003322866
-1.247001,-0.003298342
-1.246001,-0.003273819
-1.245001,-0.00325236
-1.244001,-0.003224771
-1.243001,-0.003200247
-1.242001,-0.003181854
-1.241001,-0.003154265
-1.240001,-0.003135872
-1.239001,-0.003114413
-1.238001,-0.003089889
-1.237001,-0.003068431
-1.236001,-0.003050038
-1.235001,-0.003031645
-1.234001,-0.003007122
-1.233001,-0.002991794
-1.232001,-0.00296727
-1.231001,-0.002948877
-1.230001,-0.002930485
-1.229001,-0.002905961
-1.228001,-0.002890633
-1.227001,-0.002875306
-1.226001,-0.002853847
-1.225001,-0.00283852
-1.224001,-0.002820127
-1.223001,-0.002801734
-1.222001,-0.002786407
-1.221001,-0.002768014
-1.220001,-0.002749621
-1.219001,-0.002734293
-1.218001,-0.002718966
-1.217001,-0.002700574
-1.216001,-0.002685246
-1.215001,-0.002669919
-1.214001,-0.002654591
-1.213001,-0.002639264
-1.212001,-0.002623936
-1.211001,-0.002608609
-1.210001,-0.002596347
-1.209001,-0.002577954
-1.208001,-0.002565692
-1.207001,-0.002550365
-1.206001,-0.002535037
-1.205001,-0.002522775
-1.204001,-0.002510513
-1.203001,-0.002495186
-1.202001,-0.002479859
-1.201001,-0.002467597
-1.200001,-0.002455335
-1.199001,-0.002440007
-1.198001,-0.002427745
-1.197001,-0.002418549
-1.196001,-0.002400156
-1.195001,-0.00239096
-1.194001,-0.002378698
-1.193001,-0.00236337
-1.192001,-0.002354174
-1.191001,-0.002341912
-1.190001,-0.00232965
-1.189001,-0.002320454
-1.188001,-0.002308191
-1.187001,-0.00229593
-1.186001,-0.002283668
-1.185001,-0.002274471
-1.184001,-0.002262209
-1.183001,-0.002249948
-1.182001,-0.002243817
-1.181001,-0.002228489
-1.180001,-0.002219293
-1.179001,-0.002210096
-1.178001,-0.002194769
-1.177001,-0.002185572
-1.176001,-0.002179441
-1.175001,-0.002164114
-1.174001,-0.002157983
-1.173001,-0.002148786
-1.172001,-0.002136525
-1.171001,-0.002127328
-1.170001,-0.002121197
-1.169001,-0.002102804
-1.168001,-0.002096673
-1.167001,-0.002090542
-1.166001,-0.00207828
-1.165001,-0.002069084
-1.164001,-0.002062953
-1.163001,-0.002050691
-1.162001,-0.002041495
-1.161001,-0.002035364
-1.160001,-0.002023102
-1.159001,-0.002013905
-1.158001,-0.002007774
-1.157001,-0.001998578
-1.156001,-0.001989381
-1.155001,-0.00198325
-1.154001,-0.001970988
-1.153001,-0.001961792
-1.152001,-0.001955661
-1.151001,-0.001946465
-1.150001,-0.001937268
-1.149001,-0.001931137
-1.148001,-0.001918875
-1.147001,-0.001909679
-1.146001,-0.001906613
-1.145001,-0.001894351
-1.144001,-0.001885155
-1.143001,-0.001879024
-1.142001,-0.001869828
-1.141001,-0.001863697
-1.140001,-0.0018545
-1.139001,-0.001845304
-1.138001,-0.001839173
-1.137001,-0.001833042
-1.136001,-0.001823845
-1.135001,-0.001817714
-1.134001,-0.001808518
-1.133001,-0.001799321
-1.132001,-0.001790125
-1.131001,-0.001783994
-1.130001,-0.001777863
-1.129001,-0.001768667
-1.128001,-0.001762536
-1.127001,-0.001753339
-1.126001,-0.001744143
-1.125001,-0.001741077
-1.124001,-0.001731881
-1.123001,-0.00172575
-1.122001,-0.001719619
-1.121001,-0.001710422
-1.120001,-0.001704292
-1.119001,-0.001695095
-1.118001,-0.001688964
-1.117001,-0.001679768
-1.116001,-0.001673637
-1.115001,-0.001670571
-1.114001,-0.001658309
-1.113001,-0.001652178
-1.112001,-0.001649113
-1.111001,-0.001636851
-1.110001,-0.00163072
-1.109001,-0.001624589
-1.108001,-0.001615393
-1.107001,-0.001609262
-1.106001,-0.00163573
-1.105001,-0.001627453
-1.104001,-0.001622548
-1.103001,-0.001613352
-1.102001,-0.001604462
-1.101001,-0.001599251
-1.100001,-0.001590054
-1.099001,-0.001582697
-1.098001,-0.001575646
-1.097001,-0.001567676
-1.096001,-0.001559093
-1.095001,-0.001552349
-1.094001,-0.001544379
-1.093001,-0.001536102
-1.092001,-0.001528438
-1.091001,-0.00152384
-1.090001,-0.001511885
-1.089001,-0.001503914
-1.088001,-0.001501768
-1.087001,-0.001491039
-1.086001,-0.001483069
-1.085001,-0.001477858
-1.084001,-0.001468355
-1.083001,-0.001461304
-1.082001,-0.001454253
-1.081001,-0.00144659
-1.080001,-0.001441378
-1.079001,-0.001434634
-1.078001,-0.001426664
-1.077001,-0.001420533
-1.076001,-0.00141195
-1.075001,-0.001404593
-1.074001,-0.001399994
-1.073001,-0.001392331
-1.072001,-0.001385587
-1.071001,-0.001380069
-1.070001,-0.001372712
-1.069001,-0.001365967
-1.068001,-0.001361982
-1.067001,-0.001353399
-1.066001,-0.001348188
-1.065001,-0.001342363
-1.064001,-0.001335619
-1.063001,-0.001330408
-1.062001,-0.00132489
-1.061001,-0.001318146
-1.060001,-0.001310482
-1.059001,-0.001307417
-1.058001,-0.001301899
-1.057001,-0.001294542
-1.056001,-0.00128933
-1.055001,-0.001285039
-1.054001,-0.001277068
-1.053001,-0.001273083
-1.052001,-0.001267872
-1.051001,-0.001259595
-1.050001,-0.001256836
-1.049001,-0.001252238
-1.048001,-0.001244574
-1.047001,-0.001241815
-1.046001,-0.001234458
-1.045001,-0.001231393
-1.044001,-0.001225262
-1.043001,-0.001218518
-1.042001,-0.001216065
-1.041001,-0.001210854
-1.040001,-0.001203803
-1.039001,-0.001200738
-1.038001,-0.001195527
-1.037001,-0.001189702
-1.036001,-0.001184491
-1.035001,-0.001182038
-1.034001,-0.001176214
-1.033001,-0.001170083
-1.032001,-0.001167937
-1.031001,-0.00116058
-1.030001,-0.001154756
-1.029001,-0.00115261
-1.028001,-0.001145866
-1.027001,-0.001143413
-1.026001,-0.001137589
-1.025001,-0.001132991
-1.024001,-0.001130232
-1.023001,-0.001122875
-1.022001,-0.001121035
-1.021001,-0.001116437
-1.020001,-0.00110908
-1.019001,-0.001106934
-1.018001,-0.001102336
-1.017001,-0.001092833
-1.016001,-0.001091607
-1.015001,-0.001087622
-1.014001,-0.001080878
-1.013001,-0.001077812
-1.012001,-0.001073827
-1.011001,-0.001066776
-1.010001,-0.001063404
-1.009001,-0.001059726
-1.008001,-0.001053901
-1.007001,-0.001048997
-1.006001,-0.001046238
-1.005001,-0.001040107
-1.004001,-0.001035508
-1.003001,-0.001033056
-1.002001,-0.001026619
-1.001001,-0.001022327
-1.000001,-0.001019568
-0.9990008,-0.001012517
-0.9980009,-0.001007919
-0.9970009,-0.001005467
-0.9960009,-0.0009974964
-0.9950009,-0.0009938178
-0.9940009,-0.0009925916
-0.9930009,-0.0009837018
-0.9920009,-0.0009821691
-0.9910009,-0.00097941
-0.9900008,-0.0009696006
-0.9890009,-0.0009680677
-0.9880009,-0.0009637761
-0.9870009,-0.0009561123
-0.9860009,-0.0009539665
-0.9850008,-0.0009487552
-0.9840009,-0.0009423177
-0.9830009,-0.0009401719
-0.9820009,-0.000934654
-0.9810008,-0.0009285231
-0.9800009,-0.0009242314
-0.9790009,-0.0009205528
-0.9780009,-0.0009144219
-0.9770009,-0.0009104367
-0.9760008,-0.0009079843
-0.9750009,-0.0008997075
-0.9740009,-0.0008954158
-0.9730009,-0.0008929634
-0.9720009,-0.0008825408
-0.9710009,-0.0008831539
-0.9700009,-0.0008788622
-0.9690009,-0.000870892
-0.9680009,-0.0008687461
-0.9670008,-0.0008626151
-0.9660009,-0.0008555645
-0.9650009,-0.0008537253
-0.9640009,-0.0008469812
-0.9630009,-0.000842383
-0.9620008,-0.0008387044
-0.9610009,-0.0008313472
-0.9600009,-0.0008273621
-0.9590009,-0.0008246032
-0.9580009,-0.0008181657
-0.9570009,-0.0008132609
-0.9560009,-0.0008083562
-0.9550009,-0.0008028382
-0.9540009,-0.0007985466
-0.9530008,-0.0007939483
-0.9520009,-0.000788737
-0.9510009,-0.0007829126
-0.9500009,-0.0007789275
-0.9490009,-0.0007731031
-0.9480008,-0.0007675852
-0.9470009,-0.0007639066
-0.9460009,-0.0007571626
-0.9450009,-0.0007528709
-0.9440009,-0.0007485792
-0.9430009,-0.0007430614
-0.9420009,-0.0007375435
-0.9410009,-0.0007329452
-0.9400009,-0.0007268143
-0.9390008,-0.0007203768
-0.9380009,-0.0007185375
-0.9370009,-0.0007108737
-0.9360009,-0.0007050494
-0.9350009,-0.0007013708
-0.9340008,-0.0006949333
-0.9330009,-0.0006903351
-0.9320009,-0.0006854302
-0.9310009,-0.0006783796
-0.9300008,-0.0006747011
-0.9290009,-0.0006688767
-0.9280009,-0.0006624392
-0.9270009,-0.0006587606
-0.9260009,-0.0006529361
-0.9250008,-0.0006474183
-0.9240009,-0.0006422069
-0.9230009,-0.0006385284
-0.9220009,-0.0006302515
-0.9210009,-0.0006241206
-0.9200009,-0.0006207486
-0.9190009,-0.000613698
-0.9180009,-0.0006081801
-0.9170009,-0.000604808
-0.9160008,-0.0005968378
-0.9150009,-0.000591933
-0.9140009,-0.0005873349
-0.9130009,-0.0005799776
-0.9120009,-0.0005759926
-0.9110008,-0.0005698616
-0.9100009,-0.0005637306
-0.9090009,-0.0005588258
-0.9080009,-0.0005523883
-0.9070009,-0.0005462574
-0.9060009,-0.0005419657
-0.9050009,-0.0005349151
-0.9040009,-0.0005290906
-0.9030009,-0.0005241859
-0.9020008,-0.0005174418
-0.9010009,-0.0005113108
-0.9000009,-0.0005067126
-0.8990009,-0.0005005816
-0.8980009,-0.0004923049
-0.8970008,-0.0004892393
-0.8960009,-0.0004824953
-0.8950009,-0.0004745251
-0.8940009,-0.0004723792
-0.8930008,-0.0004644089
-0.8920009,-0.0004573583
-0.8910009,-0.0004536798
-0.8900009,-0.0004469357
-0.8890009,-0.0004398851
-0.8880008,-0.0004346738
-0.8870009,-0.0004273166
-0.8860009,-0.0004224119
-0.8850009,-0.0004159743
-0.8840009,-0.0004092303
-0.8830009,-0.000404019
-0.8820009,-0.0003969684
-0.8810009,-0.0003896112
-0.8800009,-0.0003853195
-0.8790008,-0.0003791885
-0.8780009,-0.0003724445
-0.8770009,-0.0003678463
-0.8760009,-0.0003595694
-0.8750009,-0.0003531319
-0.8740008,-0.0003485337
-0.8730009,-0.0003402569
-0.8720009,-0.0003341259
-0.8710009,-0.0003292212
-0.8700009,-0.0003215575
-0.8690009,-0.0003148134
-0.8680009,-0.0003096021
-0.8670009,-0.0003025515
-0.8660009,-0.0002955009
-0.8650008,-0.0002909026
-0.8640009,-0.0002829324
-0.8630009,-0.0002758818
-0.8620009,-0.0002703639
-0.8610009,-0.0002660722
-0.8600008,-0.0002574889
-0.8590009,-0.0002507448
-0.8580009,-0.0002449204
-0.8570009,-0.0002381763
-0.8560008,-0.0002323519
-0.8550009,-0.0002253013
-0.8540009,-0.0002185573
-0.8530009,-0.0002121197
-0.8520009,-0.000204456
-0.8510008,-0.0001986316
-0.8500009,-0.0001918875
-0.8490009,-0.0001842238
-0.8480009,-0.0001793191
-0.8470009,-0.0001719619
-0.8460009,-0.0001636851
-0.8450009,-0.0001587803
-0.8440009,-0.0001517297
-0.8430009,-0.0001460997
-0.8420008,-0.0001407965
-0.8410009,-0.0001345429
-0.8400009,-0.0001266952
-0.8390009,-0.0001205643
-0.8380009,-0.0001147705
-0.8370008,-0.0001068309
-0.8360009,-9.935112E-05
-0.8350009,-9.28523E-05
-0.8340009,-8.666002E-05
-0.8330009,-7.878173E-05
-0.8320009,-7.243618E-05
-0.8310009,-6.486444E-05
-0.8300009,-5.922396E-05
-0.8290009,-5.183614E-05
-0.8280008,-4.408047E-05
-0.8270009,-3.684593E-05
-0.8260009,-3.105217E-05
-0.8250009,-2.378698E-05
-0.8240009,-1.744143E-05
-0.8230008,-1.039082E-05
-0.8220009,-2.328599E-06
-0.8210009,3.649092E-06
-0.8200009,1.042381E-05
-0.8190009,1.894585E-05
-0.8180009,2.452503E-05
-0.8170009,3.142237E-05
-0.8160009,3.890214E-05
-0.8150009,4.481852E-05
-0.8140008,5.116407E-05
-0.8130009,5.882777E-05
-0.8120009,6.535726E-05
-0.8110009,7.240786E-05
-0.8100009,7.8968E-05
-0.8090008,8.460849E-05
-0.8080009,9.214957E-05
-0.8070009,9.797399E-05
-0.8060009,0.0001047487
-0.8050008,0.0001118913
-0.8040009,0.0001181755
-0.8030009,0.0001247357
-0.8020009,0.0001318782
-0.8010009,0.0001379172
-0.8000008,9.23335E-05
-0.8009992,3.068665E-05
-0.8019992,-1.057475E-05
-0.8029991,-4.751381E-05
-0.8039991,-7.801536E-05
-0.8049992,-0.0001062178
-0.8059992,-0.0001329795
-0.8069991,-0.0001555414
-0.8079991,-0.00017654
-0.8089992,-0.0002021368
-0.8099992,-0.0002210814
-0.8109992,-0.0002399648
-0.8119991,-0.0002602583
-0.8129991,-0.0002767506
-0.8139992,-0.0002943465
-0.8149992,-0.0003083759
-0.8159992,-0.0003224771
-0.8169991,-0.0003387242
-0.8179991,-0.0003549712
-0.8189992,-0.000369379
-0.8199992,-0.0003840933
-0.8209991,-0.0003972749
-0.8219991,-0.0004092303
-0.8229992,-0.0004242511
-0.8239992,-0.000436513
-0.8249992,-0.0004484684
-0.8259991,-0.00046165
-0.8269991,-0.0004726858
-0.8279992,-0.0004846411
-0.8289992,-0.0004972096
-0.8299991,-0.0005076323
-0.8309991,-0.0005177484
-0.8319992,-0.0005300103
-0.8329992,-0.0005416591
-0.8339992,-0.000550549
-0.8349991,-0.0005612782
-0.8359991,-0.0005726205
-0.8369992,-0.0005815104
-0.8379992,-0.0005922396
-0.8389992,-0.0006029688
-0.8399991,-0.0006106325
-0.8409991,-0.0006216682
-0.8419992,-0.0006314777
-0.8429992,-0.0006391415
-0.8439991,-0.0006501772
-0.8449991,-0.0006590671
-0.8459992,-0.0006667308
-0.8469992,-0.0006771535
-0.8479992,-0.0006854302
-0.8489991,-0.0006934005
-0.8499991,-0.0007032101
-0.8509992,-0.0007124065
-0.8519992,-0.0007203768
-0.8529992,-0.000728347
-0.8539991,-0.0007384631
-0.8549991,-0.0007461268
-0.8559992,-0.0007556298
-0.8569992,-0.000762987
-0.8579991,-0.0007709572
-0.8589991,-0.0007789275
-0.8599992,-0.0007862847
-0.8609992,-0.000794868
-0.8619992,-0.0008040644
-0.8629991,-0.0008098889
-0.8639991,-0.0008193919
-0.8649992,-0.0008270555
-0.8659992,-0.00083288
-0.8669991,-0.0008429961
-0.8679991,-0.0008500467
-0.8689992,-0.0008574039
-0.8699992,-0.0008672134
-0.8709992,-0.0008739574
-0.8719991,-0.0008794753
-0.8729991,-0.0008892849
-0.8739992,-0.0008957224
-0.8749992,-0.0009033861
-0.8759992,-0.0009119695
-0.8769991,-0.0009177938
-0.8779991,-0.0009239248
-0.8789992,-0.0009343475
-0.8799992,-0.0009377195
-0.8809991,-0.0009478356
-0.8819991,-0.0009561123
-0.8829992,-0.0009591779
-0.8839992,-0.0009686808
-0.8849992,-0.0009775708
-0.8859991,-0.0009806362
-0.8869991,-0.0009910589
-0.8879992,-0.0009974964
-0.8889992,-0.001002095
-0.8899992,-0.001011598
-0.8909991,-0.001017729
-0.8919991,-0.001022634
-0.8929992,-0.001030604
-0.8939992,-0.001037961
-0.8949991,-0.001043172
-0.8959991,-0.001050223
-0.8969992,-0.001056967
-0.8979992,-0.001063098
-0.8989992,-0.001069535
-0.8999991,-0.001077199
-0.9009991,-0.001081491
-0.9019992,-0.001088235
-0.9029992,-0.001096818
-0.9039991,-0.001099884
-0.9049991,-0.001106934
-0.9059991,-0.001115518
-0.9069992,-0.00111889
-0.9079992,-0.001125634
-0.9089991,-0.001133604
-0.9099991,-0.001136669
-0.9109992,-0.001144027
-0.9119992,-0.001150771
-0.9129992,-0.001155675
-0.9139991,-0.001162113
-0.9149991,-0.001168857
-0.9159992,-0.001172229
-0.9169992,-0.00117928
-0.9179991,-0.001185717
-0.9189991,-0.001191848
-0.9199992,-0.001198286
-0.9209992,-0.00120319
-0.9219992,-0.001207789
-0.9229991,-0.001214533
-0.9239991,-0.001218824
-0.9249992,-0.001224036
-0.9259992,-0.001231393
-0.9269992,-0.001235071
-0.9279991,-0.001240283
-0.9289991,-0.001248253
-0.9299992,-0.001251318
-0.9309992,-0.001257756
-0.9319991,-0.001265113
-0.9329991,-0.001266952
-0.9339992,-0.00127431
-0.9349992,-0.001281054
-0.9359992,-0.001284426
-0.9369991,-0.00128933
-0.9379991,-0.001297301
-0.9389992,-0.001300979
-0.9399992,-0.001306191
-0.9409992,-0.001311402
-0.9419991,-0.001314467
-0.9429991,-0.001323664
-0.9439992,-0.001327342
-0.9449992,-0.001330408
-0.9459991,-0.001338685
-0.9469991,-0.001341444
-0.9479992,-0.001347268
-0.9489992,-0.001354932
-0.9499992,-0.001357997
-0.9509991,-0.001361369
-0.9519991,-0.001369646
-0.9529992,-0.001372098
-0.9539992,-0.001377923
-0.9549991,-0.00138436
-0.9559991,-0.001387119
-0.9569992,-0.001391411
-0.9579992,-0.001399075
-0.9589992,-0.00140214
-0.9599991,-0.001406432
-0.9609991,-0.001413176
-0.9619992,-0.001417468
-0.9629992,-0.001421146
-0.9639992,-0.001428197
-0.9649991,-0.001431569
-0.9659991,-0.001435554
-0.9669992,-0.001443218
-0.9679992,-0.001445057
-0.9689991,-0.001449655
-0.9699991,-0.001457319
-0.9709992,-0.001459465
-0.9719992,-0.001464369
-0.9729992,-0.001471114
-0.9739991,-0.001473872
-0.9749991,-0.001478777
-0.9759992,-0.001484295
-0.9769992,-0.001488587
-0.9779992,-0.001492572
-0.9789991,-0.001498396
-0.9799991,-0.001501155
-0.9809992,-0.001507286
-0.9819992,-0.001514337
-0.9829991,-0.001514643
-0.9839991,-0.001522307
-0.9849992,-0.001528745
-0.9859992,-0.001530277
-0.9869992,-0.001537941
-0.9879991,-0.001543152
-0.9889991,-0.001544992
-0.9899992,-0.001552042
-0.9909992,-0.001557254
-0.9919991,-0.001560319
-0.9929991,-0.001566143
-0.9939992,-0.001570435
-0.9949992,-0.001575033
-0.9959992,-0.001582391
-0.9969991,-0.001585149
-0.9979991,-0.001590054
-0.9989992,-0.001596798
-0.9999992,-0.001599251
-1.000999,-0.001605075
-1.001999,-0.001611513
-1.002999,-0.001614272
-1.003999,-0.001619789
-1.004999,-0.001627453
-1.005999,-0.001630519
-1.006999,-0.001635423
-1.007999,-0.001640941
-1.008999,-0.001645846
-1.009999,-0.001650138
-1.010999,-0.001656882
-1.011999,-0.0016624
-1.012999,-0.001665465
-1.013999,-0.001671903
-1.014999,-0.001677727
-1.015999,-0.001680793
-1.016999,-0.001688763
-1.017999,-0.001689989
-1.018999,-0.001697346
-1.019999,-0.001702251
-1.020999,-0.001704703
-1.021999,-0.001712061
-1.022999,-0.001719111
-1.023999,-0.001721257
-1.024999,-0.001729227
-1.025999,-0.001733825
-1.026999,-0.001736584
-1.027999,-0.001744861
-1.028999,-0.001750072
-1.029999,-0.001754364
-1.030999,-0.001762641
-1.031999,-0.001766013
-1.032999,-0.001770305
-1.033999,-0.001778275
-1.034999,-0.001781647
-1.035999,-0.001787471
-1.036999,-0.001794522
-1.037999,-0.00179912
-1.038999,-0.001802799
-1.039999,-0.001811382
-1.040999,-0.00181598
-1.041999,-0.001819352
-1.042999,-0.00182671
-1.043999,-0.001833147
-1.044999,-0.001836213
-1.045999,-0.001844489
-1.046999,-0.001847555
-1.047999,-0.00185062
-1.048999,-0.001860736
-1.049999,-0.001863802
-1.050999,-0.001869933
-1.051999,-0.001879742
-1.052999,-0.001880969
-1.053999,-0.0018871
-1.054999,-0.00189507
-1.055999,-0.001896603
-1.056999,-0.00190396
-1.057999,-0.001912543
-1.058999,-0.001913769
-1.059999,-0.001919594
-1.060999,-0.001928177
-1.061999,-0.001930629
-1.062999,-0.001936454
-1.063999,-0.00194565
-1.064999,-0.001948409
-1.065999,-0.00195362
-1.066999,-0.001961284
-1.067999,-0.001964656
-1.068999,-0.001970174
-1.069999,-0.001977838
-1.070999,-0.00198213
-1.071999,-0.001986421
-1.072999,-0.001994698
-1.073999,-0.002000523
-1.074999,-0.002003281
-1.075999,-0.002010638
-1.076999,-0.002016156
-1.077999,-0.002020142
-1.078999,-0.002029031
-1.079999,-0.00203271
-1.080999,-0.002039148
-1.081999,-0.002046505
-1.082999,-0.002049264
-1.083999,-0.002055701
-1.084999,-0.002064284
-1.085999,-0.002067656
-1.086999,-0.002074707
-1.087999,-0.002080838
-1.088999,-0.002087275
-1.089999,-0.0020931
-1.090999,-0.002099844
-1.091999,-0.002105975
-1.092999,-0.002110573
-1.093999,-0.002118543
-1.094999,-0.002124368
-1.095999,-0.002128966
-1.096999,-0.002140002
-1.097999,-0.002143374
-1.098999,-0.002149505
-1.099999,-0.002159314
-1.100999,-0.002163299
-1.101999,-0.002170963
-1.102999,-0.002179853
-1.103999,-0.002184451
-1.104999,-0.002191195
-1.105999,-0.002201005
-1.106999,-0.002206523
-1.107999,-0.002212347
-1.108999,-0.002221237
-1.109999,-0.002225835
-1.110999,-0.002236258
-1.111999,-0.002243922
-1.112999,-0.002246374
-1.113999,-0.002258329
-1.114999,-0.002265073
-1.115999,-0.002269978
-1.116999,-0.002280094
-1.117999,-0.002285919
-1.118999,-0.002289597
-1.119999,-0.0022991
-1.120999,-0.002304618
-1.121999,-0.002309523
-1.122999,-0.002319026
-1.123999,-0.002321785
-1.124999,-0.002327916
-1.125999,-0.002338338
-1.126999,-0.00234263
-1.127999,-0.002347228
-1.128999,-0.002356731
-1.129999,-0.002357038
-1.130999,-0.002360103
-1.131999,-0.00237022
-1.132999,-0.002370832
-1.133999,-0.002376351
-1.134999,-0.002384934
-1.135999,-0.002384014
-1.136999,-0.002390758
-1.137999,-0.002395663
-1.138999,-0.002396583
-1.139999,-0.002404246
-1.140999,-0.002407312
-1.141999,-0.002407006
-1.142999,-0.002415282
-1.143999,-0.002416815
-1.144999,-0.002417428
-1.145999,-0.002423865
-1.146999,-0.002426931
-1.147999,-0.002427851
-1.148999,-0.002433062
-1.149999,-0.002436434
-1.150999,-0.002437354
-1.151999,-0.002440726
-1.152999,-0.002444711
-1.153999,-0.002444711
-1.154999,-0.002449002
-1.155999,-0.002453601
-1.156999,-0.002453294
-1.157999,-0.002459118
-1.158999,-0.002462184
-1.159999,-0.002460345
-1.160999,-0.002469235
-1.161999,-0.002467702
-1.162999,-0.00247138
-1.163999,-0.002479351
-1.164999,-0.002480577
-1.165999,-0.002481496
-1.166999,-0.002491306
-1.167999,-0.00249008
-1.168999,-0.002494985
-1.169999,-0.002502955
-1.170999,-0.002503568
-1.171999,-0.002509086
-1.172999,-0.002515217
-1.173999,-0.002514297
-1.174999,-0.002522881
-1.175999,-0.002531464
-1.176999,-0.002531464
-1.177999,-0.002536369
-1.178999,-0.002544339
-1.179999,-0.002546178
-1.180999,-0.002552002
-1.181999,-0.002561812
-1.182999,-0.002563958
-1.183999,-0.002570702
-1.184999,-0.002579286
-1.185999,-0.00258419
-1.186999,-0.002590015
-1.187999,-0.00260105
-1.188999,-0.002604729
-1.189999,-0.002611473
-1.190999,-0.002623735
-1.191999,-0.002630479
-1.192999,-0.002636916
-1.193999,-0.002647646
-1.194999,-0.002655309
-1.195999,-0.002664812
-1.196999,-0.002673702
-1.197999,-0.002685045
-1.198999,-0.002691789
-1.199999,-0.002702518
-1.200999,-0.002715393
-1.201999,-0.002724283
-1.202999,-0.002733479
-1.203999,-0.002747274
-1.204999,-0.002754631
-1.205999,-0.002765974
-1.206999,-0.002780381
-1.207999,-0.002789271
-1.208999,-0.002803985
-1.209999,-0.002815941
-1.210999,-0.002824218
-1.211999,-0.002843224
-1.212999,-0.002850887
-1.213999,-0.002867747
-1.214999,-0.002884914
-1.215999,-0.002894724
-1.216999,-0.002910664
-1.217999,-0.002924765
-1.218999,-0.002934268
-1.219999,-0.002953274
-1.220999,-0.002968295
-1.221999,-0.002980557
-1.222999,-0.002998337
-1.223999,-0.002979532
-1.224999,-0.002988729
-1.225999,-0.003010187
-1.226999,-0.003022449
-1.227999,-0.003037777
-1.228999,-0.003056169
-1.229999,-0.003074562
-1.230999,-0.003086824
-1.231999,-0.003108283
-1.232999,-0.003126675
-1.233999,-0.003142003
-1.234999,-0.003163461
-1.235999,-0.003181854
-1.236999,-0.003197182
-1.237999,-0.00321864
-1.238999,-0.003240098
-1.239999,-0.003255426
-1.240999,-0.00327995
-1.241999,-0.003301408
-1.242999,-0.003319801
-1.243999,-0.003341259
-1.244999,-0.003362718
-1.245999,-0.00338111
-1.246999,-0.003405634
-1.247999,-0.003427093
-1.248999,-0.003448551
-1.249999,-0.003470009
-1.250999,-0.003494533
-1.251999,-0.003519057
-1.252999,-0.003540515
-1.253999,-0.003568105
-1.254999,-0.003595694
-1.255999,-0.003620218
-1.256999,-0.003644742
-1.257999,-0.003669266
-1.258999,-0.003696855
-1.259999,-0.003721379
-1.260999,-0.003752034
-1.261999,-0.003779623
-1.262999,-0.003807213
-1.263999,-0.003834802
-1.264999,-0.003865457
-1.265999,-0.003893046
-1.266999,-0.003926767
-1.267999,-0.003960487
-1.268999,-0.003988076
-1.269999,-0.004021796
-1.270999,-0.004061648
-1.271999,-0.004089237
-1.272999,-0.004122957
-1.273999,-0.004162808
-1.274999,-0.004196529
-1.275999,-0.00423638
-1.276999,-0.004273166
-1.277999,-0.004313017
-1.278999,-0.004352869
-1.279999,-0.004395785
-1.280999,-0.004432571
-1.281999,-0.004475488
-1.282999,-0.00452147
-1.283999,-0.004564387
-1.284999,-0.004613434
-1.285999,-0.004659417
-1.286999,-0.004708464
-1.287999,-0.004757512
-1.288999,-0.004812691
-1.289999,-0.004864804
-1.290999,-0.004916917
-1.291999,-0.004975162
-1.292999,-0.005033405
-1.293999,-0.00509165
-1.294999,-0.005156024
-1.295999,-0.005214269
-1.296999,-0.005284776
-1.297999,-0.00534915
-1.298999,-0.005413526
-1.299999,-0.005490162
-1.300999,-0.005560669
-1.301999,-0.005637306
-1.302999,-0.005717008
-1.303999,-0.005793645
-1.304999,-0.005876414
-1.305999,-0.005962247
-1.306999,-0.006045015
-1.307999,-0.006136979
-1.308999,-0.006228944
-1.309999,-0.006320909
-1.310999,-0.006419003
-1.311999,-0.00652323
-1.312999,-0.006624391
-1.313999,-0.006728617
-1.314999,-0.00684204
-1.315999,-0.006952398
-1.316999,-0.007065821
-1.317999,-0.007194571
-1.318999,-0.007314125
-1.319999,-0.007436744
-1.320999,-0.00756856
-1.321999,-0.00769731
-1.322999,-0.007835257
-1.323999,-0.007973203
-1.324999,-0.008117281
-1.325999,-0.008267489
-1.326999,-0.008414633
-1.327999,-0.008570973
-1.328999,-0.008733443
-1.329999,-0.008889783
-1.330999,-0.009058384
-1.331999,-0.009230051
-1.332999,-0.009401718
-1.333999,-0.009582582
-1.334999,-0.009769576
-1.335999,-0.009950439
-1.336999,-0.0101405
-1.337999,-0.01033669
-1.338999,-0.01053288
-1.339999,-0.0107352
-1.340999,-0.01094059
-1.341999,-0.01114904
-1.342999,-0.01136363
-1.343999,-0.01158434
-1.344999,-0.01180199
-1.345999,-0.0120319
-1.346999,-0.01226181
-1.347999,-0.01248253
-1.348999,-0.01272777
-1.349999,-0.01296687
-1.350999,-0.01320292
-1.351999,-0.01345429
-1.352999,-0.01370872
-1.353999,-0.01395396
-1.354999,-0.01421759
-1.355999,-0.01448122
-1.356999,-0.01474179
-1.357999,-0.01501462
-1.358999,-0.01529358
-1.359999,-0.01556334
-1.360999,-0.01584843
-1.361999,-0.01613352
-1.362999,-0.01641554
-1.363999,-0.01671289
-1.364999,-0.01700412
-1.365999,-0.01729534
-1.366999,-0.01759575
-1.367999,-0.01789617
-1.368999,-0.01819965
-1.369999,-0.01851233
-1.370999,-0.01881888
-1.371999,-0.01913156
-1.372999,-0.0194473
-1.373999,-0.01975998
-1.374999,-0.0200788
-1.375999,-0.02040067
-1.376999,-0.02072561
-1.377999,-0.02105668
-1.378999,-0.02139389
-1.379999,-0.02171576
-1.380999,-0.02205296
-1.381999,-0.02239936
-1.382999,-0.0227335
-1.383999,-0.0230799
-1.384999,-0.02342323
-1.385999,-0.02375431
-1.386999,-0.02409764
-1.387999,-0.02445017
-1.388999,-0.02479351
-1.389999,-0.0251491
-1.390999,-0.02550776
-1.391999,-0.02585723
-1.392999,-0.02622508
-1.393999,-0.02658068
-1.394999,-0.02694241
-1.395999,-0.02731027
-1.396999,-0.02767199
-1.397999,-0.02803679
-1.398999,-0.02839851
-1.399999,-0.02876944
-1.400999,-0.02913423
-1.401999,-0.02950515
-1.402999,-0.02988221
-1.403999,-0.03025007
-1.404999,-0.03074562
-1.405999,-0.03111348
-1.406999,-0.03148134
-1.407999,-0.03187985
-1.408999,-0.03224771
-1.409999,-0.03264622
-1.410999,-0.03301408
-1.411999,-0.03341259
-1.412999,-0.0338111
-1.413999,-0.03420962
-1.414999,-0.03460813
-1.415999,-0.03497599
-1.416999,-0.0353745
-1.417999,-0.03580367
-1.418999,-0.03617153
-1.419999,-0.03657004
-1.420999,-0.03696856
-1.421999,-0.03736707
-1.422999,-0.03776558
-1.423999,-0.03816409
-1.424999,-0.03856261
-1.425999,-0.03896112
-1.426999,-0.03939028
-1.427999,-0.0397888
-1.428999,-0.04018731
-1.429999,-0.04061648
-1.430999,-0.04101499
-1.431999,-0.0414135
-1.432999,-0.04184267
-1.433999,-0.04224118
-1.434999,-0.0426397
-1.435999,-0.04306886
-1.436999,-0.04346738
-1.437999,-0.04386589
-1.438999,-0.04429505
-1.439999,-0.04469357
-1.440999,-0.04512274
-1.441999,-0.04552125
-1.442999,-0.04595042
-1.443999,-0.04634893
-1.444999,-0.0467781
-1.445999,-0.04717661
-1.446999,-0.04760578
-1.447999,-0.04803495
-1.448999,-0.04846412
-1.449999,-0.04886262
-1.450999,-0.04929179
-1.451999,-0.04972096
-1.452999,-0.05011947
-1.453999,-0.05054864
-1.454999,-0.05097781
-1.455999,-0.05140698
-1.456999,-0.05180549
-1.457999,-0.05223466
-1.458999,-0.05266382
-1.459999,-0.05306234
-1.460999,-0.0534915
-1.461999,-0.05392068
-1.462999,-0.05431918
-1.463999,-0.05474835
-1.464999,-0.05517752
-1.465999,-0.05560669
-1.466999,-0.05603585
-1.467999,-0.05649568
-1.468999,-0.05692485
-1.469999,-0.05732336
-1.470999,-0.05775253
-1.471999,-0.05818169
-1.472999,-0.05861086
-1.473999,-0.05907068
-1.474999,-0.05946919
-1.475999,-0.05989837
-1.476999,-0.06032753
-1.477999,-0.06075669
-1.478999,-0.06121652
-1.479999,-0.06161503
-1.480999,-0.0620442
-1.481999,-0.06250402
-1.482999,-0.06293319
-1.483999,-0.06333171
-1.484999,-0.06379153
-1.485999,-0.06422069
-1.486999,-0.06464987
-1.487999,-0.06507903
-1.488999,-0.06553885
-1.489999,-0.06593736
-1.490999,-0.06639718
-1.491999,-0.06682636
-1.492999,-0.06725552
-1.493999,-0.06768469
-1.494999,-0.06811386
-1.495999,-0.06854302
-1.496999,-0.06900284
-1.497999,-0.06943201
-1.498999,-0.06986118
-1.499999,-0.0699838
-1.499001,-0.0696466
-1.498001,-0.06924809
-1.497001,-0.06884957
-1.496001,-0.06848171
-1.495001,-0.06805255
-1.494001,-0.06768469
-1.493001,-0.06725552
-1.492001,-0.06685701
-1.491001,-0.06645849
-1.490001,-0.06602933
-1.489001,-0.06563082
-1.488001,-0.0652323
-1.487001,-0.06483379
-1.486001,-0.06440463
-1.485001,-0.06397545
-1.484001,-0.06357694
-1.483001,-0.06314778
-1.482001,-0.06274926
-1.481001,-0.06232009
-1.480001,-0.06192158
-1.479001,-0.06149241
-1.478001,-0.0610939
-1.477001,-0.06066473
-1.476001,-0.06026622
-1.475001,-0.05983705
-1.474001,-0.05940789
-1.473001,-0.05900937
-1.472001,-0.05858021
-1.471001,-0.05815104
-1.470001,-0.05775253
-1.469001,-0.05732336
-1.468001,-0.05692485
-1.467001,-0.05649568
-1.466001,-0.05609716
-1.465001,-0.055668
-1.464001,-0.05526949
-1.463001,-0.05484032
-1.462001,-0.05441115
-1.461001,-0.05401264
-1.460001,-0.05361412
-1.459001,-0.05318496
-1.458001,-0.05278645
-1.457001,-0.05235728
-1.456001,-0.05195877
-1.455001,-0.05156025
-1.454001,-0.05113108
-1.453001,-0.05073257
-1.452001,-0.05033405
-1.451001,-0.04990489
-1.450001,-0.04950638
-1.449001,-0.04910786
-1.448001,-0.04870935
-1.447001,-0.04831084
-1.446001,-0.04788167
-1.445001,-0.04748316
-1.444001,-0.04708464
-1.443001,-0.04668614
-1.442001,-0.04628762
-1.441001,-0.04588911
-1.440001,-0.0454906
-1.439001,-0.04509208
-1.438001,-0.04469357
-1.437001,-0.04429505
-1.436001,-0.04389654
-1.435001,-0.04352869
-1.434001,-0.04313017
-1.433001,-0.04273166
-1.432001,-0.04233315
-1.431001,-0.04193464
-1.430001,-0.04153612
-1.429001,-0.04116827
-1.428001,-0.04076975
-1.427001,-0.04040189
-1.426001,-0.03997273
-1.425001,-0.03960487
-1.424001,-0.03923701
-1.423001,-0.03880784
-1.422001,-0.03843999
-1.421001,-0.03807213
-1.420001,-0.03767361
-1.419001,-0.03730575
-1.418001,-0.0369379
-1.417001,-0.03653939
-1.416001,-0.03617153
-1.415001,-0.03580367
-1.414001,-0.03540516
-1.413001,-0.0350373
-1.412001,-0.03466944
-1.411001,-0.03430158
-1.410001,-0.03393373
-1.409001,-0.03353521
-1.408001,-0.03319801
-1.407001,-0.03283015
-1.406001,-0.0324623
-1.405001,-0.03209443
-1.404001,-0.03172658
-1.403001,-0.03135872
-1.402001,-0.03102152
-1.401001,-0.03065366
-1.400001,-0.0302858
-1.399001,-0.0299486
-1.398001,-0.02961139
-1.397001,-0.02924354
-1.396001,-0.02887568
-1.395001,-0.02853847
-1.394001,-0.02820127
-1.393001,-0.02783342
-1.392001,-0.02749621
-1.391001,-0.02715901
-1.390001,-0.02682181
-1.389001,-0.0264846
-1.388001,-0.0261474
-1.387001,-0.02577954
-1.386001,-0.02547299
-1.385001,-0.02513579
-1.384001,-0.02479859
-1.383001,-0.02449204
-1.382001,-0.02415484
-1.381001,-0.02381763
-1.380001,-0.02351108
-1.379001,-0.02317388
-1.378001,-0.02286733
-1.377001,-0.02253013
-1.376001,-0.02222358
-1.375001,-0.02191703
-1.374001,-0.02161049
-1.373001,-0.02130394
-1.372001,-0.02099739
-1.371001,-0.02069084
-1.370001,-0.02038429
-1.369001,-0.02007774
-1.368001,-0.0197712
-1.367001,-0.0194953
-1.366001,-0.01918875
-1.365001,-0.01891286
-1.364001,-0.01860631
-1.363001,-0.01833042
-1.362001,-0.01802387
-1.361001,-0.01774798
-1.360001,-0.01747208
-1.359001,-0.01719619
-1.358001,-0.0169203
-1.357001,-0.0166444
-1.356001,-0.01636851
-1.355001,-0.01612327
-1.354001,-0.01597105
-1.353001,-0.01571661
-1.352001,-0.01546524
-1.351001,-0.01521081
-1.350001,-0.0149625
-1.349001,-0.01471727
-1.348001,-0.0144659
-1.347001,-0.01422985
-1.346001,-0.01399381
-1.345001,-0.01375777
-1.344001,-0.01352786
-1.343001,-0.01329795
-1.342001,-0.0130711
-1.341001,-0.01285039
-1.340001,-0.01263274
-1.339001,-0.01241815
-1.338001,-0.01220664
-1.337001,-0.01199512
-1.336001,-0.01177747
-1.335001,-0.01157821
-1.334001,-0.01136976
-1.333001,-0.0111705
-1.332001,-0.01097738
-1.331001,-0.01078119
-1.330001,-0.01059113
-1.329001,-0.01040413
-1.328001,-0.01022327
-1.327001,-0.01003934
-1.326001,-0.009867672
-1.325001,-0.009689873
-1.324001,-0.009515141
-1.323001,-0.009352671
-1.322001,-0.0091902
-1.321001,-0.009024664
-1.320001,-0.00887139
-1.319001,-0.00871505
-1.318001,-0.008561776
-1.317001,-0.008414633
-1.316001,-0.008270555
-1.315001,-0.008126478
-1.314001,-0.007988531
-1.313001,-0.00785365
-1.312001,-0.007718768
-1.311001,-0.007590018
-1.310001,-0.007461268
-1.309001,-0.007338648
-1.308001,-0.007219094
-1.307001,-0.00709954
-1.306001,-0.006983052
-1.305001,-0.006866564
-1.304001,-0.006756207
-1.303001,-0.006645849
-1.302001,-0.006538557
-1.301001,-0.006437397
-1.300001,-0.00633317
-1.299001,-0.006235075
-1.298001,-0.00614311
-1.297001,-0.00604808
-1.296001,-0.005959181
-1.295001,-0.005867217
-1.294001,-0.005775252
-1.293001,-0.005692484
-1.292001,-0.005609716
-1.291001,-0.005526948
-1.290001,-0.005453377
-1.289001,-0.005373674
-1.288001,-0.005300103
-1.287001,-0.005229597
-1.286001,-0.005159091
-1.285001,-0.005088584
-1.284001,-0.005021143
-1.283001,-0.004959834
-1.282001,-0.004892393
-1.281001,-0.004834149
-1.280001,-0.00477284
-1.279001,-0.004714595
-1.278001,-0.004659417
-1.277001,-0.004601172
-1.276001,-0.00454906
-1.275001,-0.004493881
-1.274001,-0.004441767
-1.273001,-0.00439272
-1.272001,-0.004346738
-1.271001,-0.004294624
-1.270001,-0.004251707
-1.269001,-0.004205726
-1.268001,-0.004159743
-1.267001,-0.004119892
-1.266001,-0.004076975
-1.265001,-0.004034058
-1.264001,-0.003997272
-1.263001,-0.003957421
-1.262001,-0.003920636
-1.261001,-0.00388385
-1.260001,-0.003843998
-1.259001,-0.003813344
-1.258001,-0.003779623
-1.257001,-0.003739772
-1.256001,-0.003709117
-1.255001,-0.003678462
-1.254001,-0.003641677
-1.253001,-0.003614087
-1.252001,-0.003586498
-1.251001,-0.003552777
-1.250001,-0.003522123
-1.249001,-0.003500664
-1.248001,-0.003463879
-1.247001,-0.003439354
-1.246001,-0.003414831
-1.245001,-0.003384176
-1.244001,-0.003356587
-1.243001,-0.003335128
-1.242001,-0.003304473
-1.241001,-0.00327995
-1.240001,-0.003258491
-1.239001,-0.003230902
-1.238001,-0.003206378
-1.237001,-0.003184919
-1.236001,-0.00315733
-1.235001,-0.003135872
-1.234001,-0.003114413
-1.233001,-0.003092955
-1.232001,-0.003068431
-1.231001,-0.003050038
-1.230001,-0.003025514
-1.229001,-0.003007122
-1.228001,-0.002988729
-1.227001,-0.002961139
-1.226001,-0.002948877
-1.225001,-0.002924354
-1.224001,-0.002902895
-1.223001,-0.002887568
-1.222001,-0.002869175
-1.221001,-0.002847716
-1.220001,-0.002832389
-1.219001,-0.002810931
-1.218001,-0.002795603
-1.217001,-0.00277721
-1.216001,-0.002758818
-1.215001,-0.002737359
-1.214001,-0.002725097
-1.213001,-0.00270977
-1.212001,-0.002688312
-1.211001,-0.002676049
-1.210001,-0.002657657
-1.209001,-0.002642329
-1.208001,-0.002630068
-1.207001,-0.002611674
-1.206001,-0.002596347
-1.205001,-0.002584085
-1.204001,-0.002565692
-1.203001,-0.002550365
-1.202001,-0.002541168
-1.201001,-0.00251971
-1.200001,-0.002507448
-1.199001,-0.002495186
-1.198001,-0.002479859
-1.197001,-0.002464531
-1.196001,-0.002452269
-1.195001,-0.002436942
-1.194001,-0.002421614
-1.193001,-0.002412418
-1.192001,-0.002400156
-1.191001,-0.002384829
-1.190001,-0.002375632
-1.189001,-0.002360305
-1.188001,-0.002348043
-1.187001,-0.002335781
-1.186001,-0.002323519
-1.185001,-0.002308191
-1.184001,-0.002298995
-1.183001,-0.002283668
-1.182001,-0.002274471
-1.181001,-0.002262209
-1.180001,-0.002249948
-1.179001,-0.002240751
-1.178001,-0.002231555
-1.177001,-0.002219293
-1.176001,-0.002207031
-1.175001,-0.0022009
-1.174001,-0.002185572
-1.173001,-0.002176376
-1.172001,-0.002167179
-1.171001,-0.002151852
-1.170001,-0.002142655
-1.169001,-0.002136525
-1.168001,-0.002124263
-1.167001,-0.002115066
-1.166001,-0.00210587
-1.165001,-0.002090542
-1.164001,-0.002081346
-1.163001,-0.002072149
-1.162001,-0.002062953
-1.161001,-0.002050691
-1.160001,-0.00204456
-1.159001,-0.002032298
-1.158001,-0.002023102
-1.157001,-0.002016971
-1.156001,-0.002001643
-1.155001,-0.001998578
-1.154001,-0.001989381
-1.153001,-0.001974054
-1.152001,-0.001970988
-1.151001,-0.001961792
-1.150001,-0.00194953
-1.149001,-0.001943399
-1.148001,-0.001934203
-1.147001,-0.001921941
-1.146001,-0.00191581
-1.145001,-0.001906613
-1.144001,-0.001897417
-1.143001,-0.00188822
-1.142001,-0.001879024
-1.141001,-0.001869828
-1.140001,-0.001863697
-1.139001,-0.0018545
-1.138001,-0.001845304
-1.137001,-0.001836107
-1.136001,-0.001829976
-1.135001,-0.00182078
-1.134001,-0.001811583
-1.133001,-0.001805453
-1.132001,-0.001796256
-1.131001,-0.00178706
-1.130001,-0.001783994
-1.129001,-0.001774798
-1.128001,-0.001762536
-1.127001,-0.00175947
-1.126001,-0.001747208
-1.125001,-0.001741077
-1.124001,-0.001734946
-1.123001,-0.001722684
-1.122001,-0.001719619
-1.121001,-0.001713488
-1.120001,-0.001701226
-1.119001,-0.001698161
-1.118001,-0.001688964
-1.117001,-0.001679768
-1.116001,-0.001670571
-1.115001,-0.001667506
-1.114001,-0.001658309
-1.113001,-0.001649113
-1.112001,-0.001646047
-1.111001,-0.001633785
-1.110001,-0.001627655
-1.109001,-0.001618458
-1.108001,-0.001612327
-1.107001,-0.001606196
-1.106001,-0.001630212
-1.105001,-0.001624388
-1.104001,-0.001619483
-1.103001,-0.001606914
-1.102001,-0.001603542
-1.101001,-0.001596185
-1.100001,-0.001583923
-1.099001,-0.001579325
-1.098001,-0.001571355
-1.097001,-0.001559399
-1.096001,-0.001555721
-1.095001,-0.001546218
-1.094001,-0.001536408
-1.093001,-0.001532423
-1.092001,-0.001522614
-1.091001,-0.00151403
-1.090001,-0.001508206
-1.089001,-0.001499316
-1.088001,-0.001490733
-1.087001,-0.001486134
-1.086001,-0.001477245
-1.085001,-0.001468048
-1.084001,-0.001462837
-1.083001,-0.001456093
-1.082001,-0.001445977
-1.081001,-0.001439232
-1.080001,-0.001433408
-1.079001,-0.001423905
-1.078001,-0.001417468
-1.077001,-0.001413482
-1.076001,-0.00140306
-1.075001,-0.001394783
-1.074001,-0.001393557
-1.073001,-0.001381908
-1.072001,-0.001377616
-1.071001,-0.001370872
-1.070001,-0.001362595
-1.069001,-0.001356464
-1.068001,-0.001348188
-1.067001,-0.001343283
-1.066001,-0.001337765
-1.065001,-0.001329182
-1.064001,-0.00132397
-1.063001,-0.001317226
-1.062001,-0.001309563
-1.061001,-0.001305884
-1.060001,-0.001300366
-1.059001,-0.00129117
-1.058001,-0.001287491
-1.057001,-0.0012832
-1.056001,-0.001275536
-1.055001,-0.001270324
-1.054001,-0.001265726
-1.053001,-0.001259902
-1.052001,-0.001251625
-1.051001,-0.001250399
-1.050001,-0.001242122
-1.049001,-0.001234765
-1.048001,-0.001234765
-1.047001,-0.001228634
-1.046001,-0.00122097
-1.045001,-0.001216372
-1.044001,-0.001210548
-1.043001,-0.00120503
-1.042001,-0.001202577
-1.041001,-0.0011943
-1.040001,-0.001190622
-1.039001,-0.00118725
-1.038001,-0.001179586
-1.037001,-0.001174375
-1.036001,-0.00116855
-1.035001,-0.001163952
-1.034001,-0.001161193
-1.033001,-0.001155675
-1.032001,-0.001149238
-1.031001,-0.001147705
-1.030001,-0.001138815
-1.029001,-0.001136669
-1.028001,-0.001131765
-1.027001,-0.001126247
-1.026001,-0.001121955
-1.025001,-0.001117357
-1.024001,-0.001108467
-1.023001,-0.001107547
-1.022001,-0.001102029
-1.021001,-0.001094979
-1.020001,-0.00109222
-1.019001,-0.001087315
-1.018001,-0.001082717
-1.017001,-0.001079651
-1.016001,-0.00107444
-1.015001,-0.00106555
-1.014001,-0.001065857
-1.013001,-0.001058806
-1.012001,-0.001053288
-1.011001,-0.001051142
-1.010001,-0.001045318
-1.009001,-0.001038574
-1.008001,-0.001038267
-1.007001,-0.001029684
-1.006001,-0.001026005
-1.005001,-0.001023553
-1.004001,-0.001015276
-1.003001,-0.001011904
-1.002001,-0.001009452
-1.001001,-0.001001482
-1.000001,-0.0009996422
-0.9990011,-0.0009959637
-0.9980011,-0.0009883
-0.9970011,-0.0009858476
-0.9960011,-0.0009815559
-0.9950011,-0.0009757315
-0.9940011,-0.0009717464
-0.9930011,-0.0009659219
-0.9920011,-0.0009613237
-0.9910011,-0.0009588713
-0.9900011,-0.0009533535
-0.9890011,-0.0009472225
-0.9880011,-0.0009447701
-0.9870011,-0.0009380261
-0.9860011,-0.0009334278
-0.9850011,-0.0009303623
-0.9840011,-0.0009248445
-0.9830011,-0.0009199397
-0.9820011,-0.0009159546
-0.9810011,-0.0009095171
-0.9800011,-0.0009058384
-0.9790011,-0.0009015468
-0.9780011,-0.0008969486
-0.9770011,-0.0008905111
-0.9760011,-0.0008868325
-0.9750011,-0.0008819277
-0.9740011,-0.0008785557
-0.9730011,-0.0008733444
-0.9720011,-0.0008656807
-0.9710011,-0.0008623086
-0.9700011,-0.000858017
-0.9690011,-0.0008521925
-0.9680011,-0.0008479009
-0.9670011,-0.0008436092
-0.9660011,-0.000836252
-0.9650011,-0.0008337997
-0.9640011,-0.0008279752
-0.9630011,-0.0008224574
-0.9620011,-0.0008184722
-0.9610011,-0.0008135674
-0.9600011,-0.0008083562
-0.9590011,-0.0008034513
-0.9580011,-0.0007985466
-0.9570011,-0.0007927222
-0.9560011,-0.0007881239
-0.9550011,-0.000785365
-0.9540011,-0.0007770882
-0.9530011,-0.0007737162
-0.9520011,-0.0007706507
-0.9510011,-0.0007623739
-0.9500011,-0.0007586953
-0.9490011,-0.0007556298
-0.9480011,-0.000747353
-0.9470011,-0.0007433679
-0.9460011,-0.0007399959
-0.9450011,-0.0007320256
-0.9440011,-0.0007271208
-0.9430011,-0.0007240553
-0.9420011,-0.0007173113
-0.9410011,-0.0007127131
-0.9400011,-0.0007081148
-0.9390011,-0.0007013708
-0.9380011,-0.000696466
-0.9370011,-0.0006921744
-0.9360011,-0.0006860433
-0.9350011,-0.0006805255
-0.9340011,-0.0006759273
-0.9330011,-0.0006691832
-0.9320011,-0.0006648915
-0.9310011,-0.0006609064
-0.9300011,-0.0006535492
-0.9290011,-0.000648951
-0.9280011,-0.0006458855
-0.9270011,-0.0006369957
-0.9260011,-0.0006320909
-0.9250011,-0.0006293319
-0.9240011,-0.0006198289
-0.9230011,-0.0006189093
-0.9220011,-0.0006127784
-0.9210011,-0.0006035819
-0.9200011,-0.000600823
-0.9190011,-0.0005962247
-0.9180011,-0.000588561
-0.9170011,-0.0005854955
-0.9160011,-0.0005796711
-0.9150011,-0.0005717009
-0.9140011,-0.0005683288
-0.9130011,-0.000562811
-0.9120011,-0.0005551472
-0.9110011,-0.000550549
-0.9100011,-0.0005450312
-0.9090011,-0.000538287
-0.9080011,-0.0005330758
-0.9070011,-0.0005275579
-0.9060011,-0.0005205073
-0.9050011,-0.0005152959
-0.9040011,-0.0005103912
-0.9030011,-0.000503034
-0.9020011,-0.0004978227
-0.9010011,-0.0004932245
-0.9000011,-0.0004843346
-0.8990011,-0.0004815757
-0.8980011,-0.0004757512
-0.8970011,-0.0004671679
-0.8960011,-0.0004628762
-0.8950011,-0.0004576649
-0.8940011,-0.0004500012
-0.8930011,-0.0004444833
-0.8920011,-0.000439272
-0.8910011,-0.0004313017
-0.8900011,-0.000426397
-0.8890011,-0.0004224119
-0.8880011,-0.0004135219
-0.8870011,-0.0004092303
-0.8860011,-0.0004030993
-0.8850011,-0.0003960487
-0.8840011,-0.0003896112
-0.8830011,-0.0003843998
-0.8820011,-0.0003770427
-0.8810011,-0.0003718314
-0.8800011,-0.0003663135
-0.8790011,-0.0003583433
-0.8780011,-0.0003528254
-0.8770011,-0.0003463879
-0.8760011,-0.0003399504
-0.8750011,-0.0003356587
-0.8740011,-0.0003283015
-0.8730011,-0.0003203313
-0.8720011,-0.0003160396
-0.8710011,-0.0003077628
-0.8700011,-0.0003013253
-0.8690011,-0.0002970336
-0.8680011,-0.0002884502
-0.8670011,-0.0002829324
-0.8660011,-0.0002780276
-0.8650011,-0.0002685246
-0.8640011,-0.0002639264
-0.8630011,-0.0002590216
-0.8620011,-0.0002495186
-0.8610011,-0.0002446139
-0.8600011,-0.0002394025
-0.8590011,-0.0002305126
-0.8580011,-0.0002237686
-0.8570011,-0.00022009
-0.8560011,-0.0002112001
-0.8550011,-0.0002047626
-0.8540011,-0.0001998578
-0.8530011,-0.000191581
-0.8520011,-0.0001857566
-0.8510011,-0.0001793191
-0.8500011,-0.0001716554
-0.8490011,-0.0001655244
-0.8480011,-0.0001590869
-0.8470011,-0.0001508101
-0.8460011,-0.0001486441
-0.8450011,-0.0001422372
-0.8440011,-0.0001345429
-0.8430011,-0.000128136
-0.8420011,-0.0001206869
-0.8410011,-0.000113483
-0.8400011,-0.0001090687
-0.8390011,-0.0001014663
-0.8380011,-9.410914E-05
-0.8370011,-8.846866E-05
-0.8360011,-8.01612E-05
-0.8350011,-7.384631E-05
-0.8340011,-6.802189E-05
-0.8330011,-5.956116E-05
-0.8320011,-5.327692E-05
-0.8310011,-4.74525E-05
-0.8300011,-3.975814E-05
-0.8290011,-3.374979E-05
-0.8280011,-2.608609E-05
-0.8270011,-1.967923E-05
-0.8260011,-1.342565E-05
-0.8250011,-6.344382E-06
-0.8240011,9.313181E-08
-0.8230011,7.235707E-06
-0.8220011,1.425566E-05
-0.8210011,1.916043E-05
-0.8200011,2.798902E-05
-0.8190011,3.540749E-05
-0.8180011,4.135453E-05
-0.8170011,4.88343E-05
-0.8160011,5.355515E-05
-0.8150011,6.063641E-05
-0.8140011,6.796292E-05
-0.8130011,7.216263E-05
-0.8120011,8.080729E-05
-0.8110011,8.650908E-05
-0.8100011,9.248677E-05
-0.8090011,9.984394E-05
-0.8080011,0.000106496
-0.8070011,0.0001120139
-0.8060011,0.0001192178
-0.8050011,0.0001251342
-0.8040011,0.0001311118
-0.8030011,0.0001378866
-0.8020011,0.0001449678
-0.8010011,0.0001504857
