EXPID. 1189
[电化学]: CV : 0 >> 0.7 >> 0 >> 0(V) @ 0.01(V/s) X 10(Seg)
起始电位 (V),0
上限电位 (V),0.7
下限电位 (V),0
终止电位 (V),0
扫速 (V/s),0.01
电解液 信息:
KOH,1
0.001,-8.472877E-06
0.002,-8.037578E-06
0.003,-7.758619E-06
0.004,-7.424482E-06
0.005,-7.15472E-06
0.006,-6.863499E-06
0.007,-6.507903E-06
0.008,-6.192158E-06
0.009,-5.928526E-06
0.01,-5.658764E-06
0.011,-5.401263E-06
0.012,-5.180549E-06
0.013,-5.027274E-06
0.014,-4.782036E-06
0.015,-4.631827E-06
0.016,-4.429505E-06
0.017,-4.147481E-06
0.018,-3.850129E-06
0.019,-3.595694E-06
0.02,-3.350456E-06
0.021,-3.215574E-06
0.022,-3.022449E-06
0.023,-2.853847E-06
0.024,-2.703639E-06
0.025,-2.562627E-06
0.026,-2.314323E-06
0.027,-2.04456E-06
0.028,-1.78706E-06
0.029,-1.578607E-06
0.03,-1.471315E-06
0.031,-1.302713E-06
0.032,-1.127981E-06
0.033,-1.017623E-06
0.034,-8.091707E-07
0.035,-6.712239E-07
0.036,-4.566402E-07
0.037,-1.899432E-07
0.038,2.157511E-08
0.039,1.687183E-07
0.04,3.311889E-07
0.041,4.84463E-07
0.042,6.254752E-07
0.043,7.235706E-07
0.044,8.492554E-07
0.045,9.902676E-07
0.046,1.183393E-06
0.047,1.465417E-06
0.048,1.643215E-06
0.049,1.775031E-06
0.05,1.974287E-06
0.051,2.029466E-06
0.052,2.179675E-06
0.053,2.30536E-06
0.054,2.357473E-06
0.055,2.553664E-06
0.056,2.700807E-06
0.057,2.903129E-06
0.058,3.179022E-06
0.059,3.286314E-06
0.06,3.369082E-06
0.061,3.482505E-06
0.062,3.598993E-06
0.063,3.746136E-06
0.064,3.841166E-06
0.065,3.933131E-06
0.066,4.120126E-06
0.067,4.300989E-06
0.068,4.5309E-06
0.069,4.674977E-06
0.07,4.779204E-06
0.071,4.923282E-06
0.072,4.990723E-06
0.073,5.107211E-06
0.074,5.174651E-06
0.075,5.266616E-06
0.076,5.472003E-06
0.077,5.619146E-06
0.078,5.787748E-06
0.079,6.014594E-06
0.08,6.115754E-06
0.081,6.201588E-06
0.082,6.339534E-06
0.083,6.431499E-06
0.084,6.554118E-06
0.085,6.621559E-06
0.086,6.676737E-06
0.087,6.866798E-06
0.088,7.001679E-06
0.089,7.191739E-06
0.09,7.415519E-06
0.091,7.541204E-06
0.092,7.623972E-06
0.093,7.731263E-06
0.094,7.774181E-06
0.095,7.93052E-06
0.096,7.979568E-06
0.097,8.105253E-06
0.098,8.264657E-06
0.099,8.427128E-06
0.1,8.638646E-06
0.101,8.712218E-06
0.102,8.859362E-06
0.103,8.98198E-06
0.104,9.04329E-06
0.105,9.129123E-06
0.106,9.239481E-06
0.107,9.291594E-06
0.108,9.438738E-06
0.109,9.530702E-06
0.11,9.683976E-06
0.111,9.831119E-06
0.112,9.916953E-06
0.113,1.01254E-05
0.114,1.024496E-05
0.115,1.041663E-05
0.116,1.05607E-05
0.117,1.061895E-05
0.118,1.080594E-05
0.119,1.09071E-05
0.12,1.096228E-05
0.121,1.106957E-05
0.122,1.115847E-05
0.123,1.122591E-05
0.124,1.136386E-05
0.125,1.153553E-05
0.126,1.158764E-05
0.127,1.175318E-05
0.128,1.195243E-05
0.129,1.213636E-05
0.13,1.229883E-05
0.131,1.240306E-05
0.132,1.246437E-05
0.133,1.261764E-05
0.134,1.273413E-05
0.135,1.283223E-05
0.136,1.290886E-05
0.137,1.303761E-05
0.138,1.313571E-05
0.139,1.320621E-05
0.14,1.336869E-05
0.141,1.349437E-05
0.142,1.360779E-05
0.143,1.38469E-05
0.144,1.392354E-05
0.145,1.406455E-05
0.146,1.426074E-05
0.147,1.437416E-05
0.148,1.461021E-05
0.149,1.475735E-05
0.15,1.484318E-05
0.151,1.496887E-05
0.152,1.510988E-05
0.153,1.522637E-05
0.154,1.537658E-05
0.155,1.545934E-05
0.156,1.562488E-05
0.157,1.57383E-05
0.158,1.584253E-05
0.159,1.597741E-05
0.16,1.614908E-05
0.161,1.619506E-05
0.162,1.632994E-05
0.163,1.64403E-05
0.164,1.655679E-05
0.165,1.667021E-05
0.166,1.682042E-05
0.167,1.697369E-05
0.168,1.706566E-05
0.169,1.720054E-05
0.17,1.739673E-05
0.171,1.748869E-05
0.172,1.768488E-05
0.173,1.786881E-05
0.174,1.799756E-05
0.175,1.819989E-05
0.176,1.829798E-05
0.177,1.84206E-05
0.178,1.858307E-05
0.179,1.86689E-05
0.18,1.879459E-05
0.181,1.891721E-05
0.182,1.897239E-05
0.183,1.914405E-05
0.184,1.926361E-05
0.185,1.933718E-05
0.186,1.949659E-05
0.187,1.957322E-05
0.188,1.972343E-05
0.189,1.989816E-05
0.19,2.004224E-05
0.191,2.018019E-05
0.192,2.035186E-05
0.193,2.049593E-05
0.194,2.072278E-05
0.195,2.082087E-05
0.196,2.098641E-05
0.197,2.110903E-05
0.198,2.124391E-05
0.199,2.138492E-05
0.2,2.150448E-05
0.201,2.165469E-05
0.202,2.178344E-05
0.203,2.184781E-05
0.204,2.193671E-05
0.205,2.214516E-05
0.206,2.227085E-05
0.207,2.237508E-05
0.208,2.251302E-05
0.209,2.266323E-05
0.21,2.279198E-05
0.211,2.286862E-05
0.212,2.304948E-05
0.213,2.310159E-05
0.214,2.326713E-05
0.215,2.346945E-05
0.216,2.356448E-05
0.217,2.373002E-05
0.218,2.393234E-05
0.219,2.40243E-05
0.22,2.420517E-05
0.221,2.473961E-05
0.222,2.489288E-05
0.223,2.510747E-05
0.224,2.52914E-05
0.225,2.538336E-05
0.226,2.553664E-05
0.227,2.565926E-05
0.228,2.581253E-05
0.229,2.599646E-05
0.23,2.608842E-05
0.231,2.630301E-05
0.232,2.642563E-05
0.233,2.654824E-05
0.234,2.670152E-05
0.235,2.682414E-05
0.236,2.697741E-05
0.237,2.706938E-05
0.238,2.725331E-05
0.239,2.740658E-05
0.24,2.759051E-05
0.241,2.768247E-05
0.242,2.789706E-05
0.243,2.801968E-05
0.244,2.826491E-05
0.245,2.841819E-05
0.246,2.857147E-05
0.247,2.88167E-05
0.248,2.900063E-05
0.249,2.918456E-05
0.25,2.939914E-05
0.251,2.955242E-05
0.252,2.973635E-05
0.253,2.985897E-05
0.254,3.004289E-05
0.255,3.016552E-05
0.256,3.03801E-05
0.257,3.053337E-05
0.258,3.068665E-05
0.259,3.080927E-05
0.26,3.102385E-05
0.261,3.114647E-05
0.262,3.129974E-05
0.263,3.157564E-05
0.264,3.169826E-05
0.265,3.191284E-05
0.266,3.212742E-05
0.267,3.234201E-05
0.268,3.267921E-05
0.269,3.286314E-05
0.27,3.292445E-05
0.271,3.313903E-05
0.272,3.332296E-05
0.273,3.347624E-05
0.274,3.372148E-05
0.275,3.38441E-05
0.276,3.399737E-05
0.277,3.424261E-05
0.278,3.442654E-05
0.279,3.470243E-05
0.28,3.494767E-05
0.281,3.516225E-05
0.282,3.537684E-05
0.283,3.556077E-05
0.284,3.583666E-05
0.285,3.598993E-05
0.286,3.614321E-05
0.287,3.64191E-05
0.288,3.654172E-05
0.289,3.672565E-05
0.29,3.700154E-05
0.291,3.715482E-05
0.292,3.743071E-05
0.293,3.767595E-05
0.294,3.795184E-05
0.295,3.822774E-05
0.296,3.847297E-05
0.297,3.86569E-05
0.298,3.890214E-05
0.299,3.911672E-05
0.3,3.933131E-05
0.301,3.948458E-05
0.302,3.969917E-05
0.303,3.99444E-05
0.304,4.028161E-05
0.305,4.061881E-05
0.306,4.089471E-05
0.307,4.11706E-05
0.308,4.135453E-05
0.309,4.156911E-05
0.31,4.181435E-05
0.311,4.202893E-05
0.312,4.224352E-05
0.313,4.248875E-05
0.314,4.27953E-05
0.315,4.313251E-05
0.316,4.346971E-05
0.317,4.371495E-05
0.318,4.396019E-05
0.319,4.426674E-05
0.32,4.451197E-05
0.321,4.472656E-05
0.322,4.500245E-05
0.323,4.518638E-05
0.324,4.552358E-05
0.325,4.583013E-05
0.326,4.613668E-05
0.327,4.647388E-05
0.328,4.681108E-05
0.329,4.711764E-05
0.33,4.742418E-05
0.331,4.770008E-05
0.332,4.803728E-05
0.333,4.822121E-05
0.334,4.852776E-05
0.335,4.886496E-05
0.336,4.914085E-05
0.337,4.941675E-05
0.338,4.975395E-05
0.339,5.002984E-05
0.34,5.045901E-05
0.341,5.079621E-05
0.342,5.116407E-05
0.343,5.156258E-05
0.344,5.193044E-05
0.345,5.226765E-05
0.346,5.260485E-05
0.347,5.288074E-05
0.348,5.330991E-05
0.349,5.35858E-05
0.35,5.389235E-05
0.351,5.429086E-05
0.352,5.456676E-05
0.353,5.493462E-05
0.354,5.527182E-05
0.355,5.567033E-05
0.356,5.613015E-05
0.357,5.655932E-05
0.358,5.698849E-05
0.359,5.741765E-05
0.36,5.775486E-05
0.361,5.815337E-05
0.362,5.858254E-05
0.363,5.891974E-05
0.364,5.931826E-05
0.365,5.974742E-05
0.366,6.011528E-05
0.367,6.054445E-05
0.368,6.100427E-05
0.369,6.14641E-05
0.37,6.189326E-05
0.371,6.241439E-05
0.372,6.296618E-05
0.373,6.345665E-05
0.374,6.397779E-05
0.375,6.440695E-05
0.376,6.486678E-05
0.377,6.541856E-05
0.378,6.581708E-05
0.379,6.630756E-05
0.38,6.689E-05
0.381,6.738048E-05
0.382,6.79016E-05
0.383,6.839208E-05
0.384,6.894387E-05
0.385,6.9465E-05
0.386,7.004744E-05
0.387,7.062989E-05
0.388,7.130429E-05
0.389,7.194804E-05
0.39,7.262245E-05
0.391,7.317423E-05
0.392,7.378733E-05
0.393,7.436977E-05
0.394,7.507483E-05
0.395,7.562662E-05
0.396,7.630103E-05
0.397,7.703674E-05
0.398,7.764984E-05
0.399,7.838555E-05
0.4,7.905996E-05
0.401,7.976502E-05
0.402,8.047008E-05
0.403,8.114449E-05
0.404,8.206413E-05
0.405,8.279985E-05
0.406,8.356622E-05
0.407,8.442456E-05
0.408,8.512961E-05
0.409,8.620253E-05
0.41,8.715284E-05
0.411,8.798052E-05
0.412,8.899212E-05
0.413,8.988111E-05
0.414,9.080076E-05
0.415,9.190433E-05
0.416,9.288529E-05
0.417,9.377428E-05
0.418,9.490851E-05
0.419,9.592011E-05
0.42,9.711565E-05
0.421,9.812726E-05
0.422,9.93228E-05
0.423,0.000100549
0.424,0.0001017445
0.425,0.0001029707
0.426,0.0001043195
0.427,0.0001056683
0.428,0.0001072317
0.429,0.0001086419
0.43,0.0001101746
0.431,0.00011183
0.432,0.0001134547
0.433,0.000115202
0.434,0.0001170106
0.435,0.0001186353
0.436,0.0001206892
0.437,0.0001226205
0.438,0.0001246743
0.439,0.0001270041
0.44,0.0001291806
0.441,0.0001315717
0.442,0.0001342693
0.443,0.0001368136
0.444,0.0001397565
0.445,0.0001426994
0.446,0.0001458262
0.447,0.0001493208
0.448,0.0001528768
0.449,0.0001567393
0.45,0.0001607551
0.451,0.0001649854
0.452,0.0001697982
0.453,0.0001745191
0.454,0.0001798224
0.455,0.0001857694
0.456,0.0001917471
0.457,0.0001984912
0.458,0.0002059096
0.459,0.0002133281
0.46,0.0002222793
0.461,0.0002315984
0.462,0.0002414386
0.463,0.0002525356
0.464,0.0002643684
0.465,0.0002773967
0.466,0.0002918045
0.467,0.0003111582
0.468,0.0003280183
0.469,0.0003464112
0.47,0.0003666434
0.471,0.0003890214
0.472,0.0004129322
0.473,0.000440215
0.474,0.0004693371
0.475,0.000500605
0.476,0.0005355515
0.477,0.0005726438
0.478,0.0006131082
0.479,0.0006572512
0.48,0.0007035399
0.481,0.0007532008
0.482,0.0008050074
0.483,0.0008580403
0.484,0.0009144452
0.485,0.0009693173
0.486,0.001024496
0.487,0.001080594
0.488,0.00113424
0.489,0.001186966
0.49,0.001239386
0.491,0.001289354
0.492,0.001339321
0.493,0.001388062
0.494,0.001436497
0.495,0.001486464
0.496,0.001535818
0.497,0.001587625
0.498,0.001641271
0.499,0.001697369
0.5,0.001757453
0.501,0.001817843
0.502,0.001883444
0.503,0.001953337
0.504,0.002025376
0.505,0.002104159
0.506,0.002187234
0.507,0.002273067
0.508,0.002367178
0.509,0.00246374
0.51,0.002566127
0.511,0.002675259
0.512,0.00279144
0.513,0.002910688
0.514,0.003036372
0.515,0.003197415
0.516,0.003335362
0.517,0.003476374
0.518,0.003623517
0.519,0.003779857
0.52,0.003939262
0.521,0.004107863
0.522,0.00427953
0.523,0.004457328
0.524,0.004641257
0.525,0.004831317
0.526,0.005027508
0.527,0.005226764
0.528,0.005432152
0.529,0.005646735
0.53,0.005861319
0.531,0.0060851
0.532,0.006311945
0.533,0.006541857
0.534,0.006780964
0.535,0.007023137
0.536,0.00726531
0.537,0.00751668
0.538,0.007774181
0.539,0.008031681
0.54,0.008295313
0.541,0.00856201
0.542,0.008831772
0.543,0.009110731
0.544,0.00938969
0.545,0.009668648
0.546,0.009956804
0.547,0.01024496
0.548,0.01053618
0.549,0.01083353
0.55,0.01112782
0.551,0.0114313
0.552,0.01173478
0.553,0.01204133
0.554,0.01235094
0.555,0.01266056
0.556,0.01297324
0.557,0.01329205
0.558,0.01361392
0.559,0.01392967
0.56,0.01425768
0.561,0.01458568
0.562,0.01490756
0.563,0.01524476
0.564,0.01558196
0.565,0.0159069
0.566,0.01625024
0.567,0.01659357
0.568,0.01692771
0.569,0.01728024
0.57,0.01762664
0.571,0.01796998
0.572,0.01832251
0.573,0.01867197
0.574,0.0190245
0.575,0.01938316
0.576,0.01974182
0.577,0.02010049
0.578,0.02045915
0.579,0.02082394
0.58,0.0211826
0.581,0.02154433
0.582,0.02191832
0.583,0.02227698
0.584,0.02265097
0.585,0.02302496
0.586,0.02338975
0.587,0.0237668
0.588,0.02414692
0.589,0.02451172
0.59,0.0248949
0.591,0.02527502
0.592,0.02564595
0.593,0.02603219
0.594,0.02641232
0.595,0.02679243
0.596,0.02718788
0.597,0.02756494
0.598,0.02794812
0.599,0.02833744
0.6,0.02871756
0.601,0.02910994
0.602,0.02950539
0.603,0.02988857
0.604,0.03105451
0.605,0.03145302
0.606,0.03182088
0.607,0.03225004
0.608,0.0326179
0.609,0.03301642
0.61,0.03344558
0.611,0.03384409
0.612,0.03424261
0.613,0.03464112
0.614,0.03503963
0.615,0.03543815
0.616,0.03583666
0.617,0.03626583
0.618,0.03666434
0.619,0.03706285
0.62,0.03749202
0.621,0.03789053
0.622,0.0383197
0.623,0.03874887
0.624,0.03914738
0.625,0.03957655
0.626,0.03997506
0.627,0.04037357
0.628,0.04080274
0.629,0.04123191
0.63,0.04163042
0.631,0.04205959
0.632,0.04248876
0.633,0.04288727
0.634,0.04331644
0.635,0.04371495
0.636,0.04414412
0.637,0.04457328
0.638,0.0449718
0.639,0.04540097
0.64,0.04583013
0.641,0.0462593
0.642,0.04665781
0.643,0.04708698
0.644,0.04751615
0.645,0.04794532
0.646,0.04837449
0.647,0.04880365
0.648,0.04923282
0.649,0.04966199
0.65,0.0500605
0.651,0.05048966
0.652,0.05091884
0.653,0.051348
0.654,0.05177717
0.655,0.05220634
0.656,0.0526355
0.657,0.05306467
0.658,0.05349384
0.659,0.05392301
0.66,0.05435218
0.661,0.05478134
0.662,0.05521051
0.663,0.05567033
0.664,0.0560995
0.665,0.05649801
0.666,0.05695784
0.667,0.057387
0.668,0.05781617
0.669,0.05824534
0.67,0.05870516
0.671,0.05913433
0.672,0.0595635
0.673,0.05999266
0.674,0.06042183
0.675,0.06088165
0.676,0.06131082
0.677,0.06173999
0.678,0.06216915
0.679,0.06262898
0.68,0.06305815
0.681,0.06351797
0.682,0.06394713
0.683,0.0643763
0.684,0.06483613
0.685,0.06526529
0.686,0.06569446
0.687,0.06615429
0.688,0.06658345
0.689,0.06701262
0.69,0.06747244
0.691,0.0679016
0.692,0.06833078
0.693,0.0687906
0.694,0.06921976
0.695,0.06967959
0.696,0.07013941
0.697,0.07056858
0.698,0.07099774
0.699,0.07145756
0.7,0.07161084
0.6990001,0.07115102
0.6980001,0.07075251
0.6970001,0.07029268
0.6960001,0.06986352
0.6950001,0.069465
0.6940001,0.06900518
0.6930001,0.06857602
0.6920001,0.06814685
0.6910001,0.06771768
0.6900001,0.06728851
0.6890001,0.06688999
0.6880001,0.06646083
0.6870001,0.06603166
0.6860001,0.0656025
0.6850001,0.06517333
0.6840001,0.06474417
0.6830001,0.06434565
0.6820001,0.06391648
0.6810001,0.06345665
0.6800001,0.06305815
0.6790001,0.06265964
0.6780001,0.06219981
0.6770001,0.0618013
0.6760001,0.06137213
0.6750001,0.06091231
0.6740001,0.06051379
0.6730001,0.06008463
0.6720001,0.05965546
0.6710001,0.05925695
0.6700001,0.05882778
0.6690001,0.05839861
0.6680001,0.0580001
0.6670001,0.05757093
0.6660001,0.05714176
0.6650001,0.0567126
0.6640001,0.05631408
0.6630001,0.05588492
0.6620001,0.05548641
0.6610001,0.05505724
0.6600001,0.05462807
0.6590001,0.0541989
0.6580001,0.05380039
0.6570001,0.05337122
0.6560001,0.05294205
0.6550001,0.05254354
0.6540001,0.05214503
0.6530001,0.05171586
0.6520001,0.05128669
0.6510001,0.05088818
0.6500001,0.05045901
0.6490001,0.0500605
0.6480001,0.04966199
0.6470001,0.04923282
0.6460001,0.04883431
0.6450001,0.04843579
0.6440001,0.04800662
0.6430001,0.04760811
0.6420001,0.04717895
0.6410001,0.04678043
0.6400001,0.04638192
0.6390001,0.04595275
0.6380001,0.04555424
0.6370001,0.04515573
0.6360001,0.04472656
0.6350001,0.04432805
0.6340001,0.04392953
0.6330001,0.04353102
0.6320001,0.04310185
0.6310001,0.04270334
0.6300001,0.04230483
0.6290001,0.04190632
0.6280001,0.0415078
0.6270001,0.04110929
0.6260001,0.04068012
0.6250001,0.04031226
0.6240001,0.03991375
0.6230001,0.03948459
0.6220001,0.03908607
0.6210001,0.03871821
0.6200001,0.03828905
0.6190001,0.03789053
0.6180001,0.03752267
0.6170001,0.03709351
0.6160001,0.03672565
0.6150001,0.03632713
0.6140001,0.03592863
0.6130001,0.03553011
0.6120001,0.0351316
0.6110001,0.03476374
0.6100001,0.03436523
0.6090001,0.03399737
0.6080001,0.03359886
0.6070001,0.03320035
0.6060001,0.03283248
0.6050001,0.03243398
0.6040001,0.03203546
0.6030001,0.0316676
0.6020001,0.03126909
0.6010001,0.03090123
0.6000001,0.03050272
0.5990001,0.03013486
0.5980001,0.02973635
0.5970001,0.02936849
0.5960001,0.02896998
0.5950001,0.02860212
0.5940001,0.02823426
0.5930001,0.02786641
0.5920001,0.02746789
0.5910001,0.02713069
0.5900001,0.02673218
0.5890001,0.02639497
0.5880001,0.02599646
0.5870001,0.0256286
0.5860001,0.02526074
0.5850001,0.02489289
0.5840001,0.02455568
0.5830001,0.02418783
0.5820001,0.02381997
0.5810001,0.02345211
0.5800001,0.02311491
0.5790001,0.02274705
0.5780001,0.02237919
0.5770001,0.02201133
0.5760001,0.02167413
0.5750001,0.02130627
0.5740001,0.02096907
0.5730001,0.02063187
0.5720001,0.02026401
0.5710001,0.01992681
0.5700001,0.0195896
0.5690001,0.0192524
0.5680001,0.0189152
0.5670001,0.01857799
0.5660001,0.01824079
0.5650001,0.01790359
0.5640001,0.01756638
0.5630001,0.01722918
0.5620001,0.01689198
0.5610001,0.01658543
0.5600001,0.01624822
0.5590001,0.01591102
0.5580001,0.01560447
0.5570001,0.01529793
0.5560001,0.01496072
0.5550001,0.01465417
0.5540001,0.01431697
0.5530001,0.01401042
0.5520001,0.01370388
0.5510001,0.01339733
0.5500001,0.01259925
0.5490001,0.01229577
0.5480001,0.01200761
0.5470001,0.01171332
0.5460001,0.01141904
0.5450001,0.01113701
0.5440001,0.01085192
0.5430001,0.01056377
0.5420001,0.01029094
0.5410001,0.01001198
0.5400001,0.009736089
0.5390001,0.009469392
0.5380001,0.009202695
0.5370001,0.008935998
0.5360001,0.008678498
0.5350001,0.008417931
0.5340001,0.008163497
0.5330001,0.007915192
0.5320001,0.007666889
0.5310001,0.00742165
0.5300001,0.007182543
0.5290001,0.0069465
0.5280001,0.006713524
0.5270001,0.006480547
0.5260001,0.006256767
0.5250001,0.006032987
0.5240001,0.005812271
0.5230001,0.005603819
0.5220001,0.0053923
0.5210001,0.005183848
0.5200001,0.004984592
0.5190001,0.004785335
0.5180001,0.00459221
0.5170001,0.004405215
0.5160001,0.004218221
0.5150001,0.004040423
0.5140001,0.003862625
0.5130001,0.003690958
0.5120001,0.003522356
0.5110001,0.00335682
0.5100001,0.00320048
0.5090001,0.003047206
0.5080001,0.002896998
0.5070001,0.00275292
0.5060001,0.002611908
0.5050001,0.002477027
0.5040001,0.002345211
0.5030001,0.002216461
0.5020001,0.002093841
0.5010001,0.001977353
0.5000001,0.001860865
0.4990001,0.001753573
0.4980001,0.001646281
0.4970001,0.001548185
0.4960001,0.00145009
0.4950001,0.00135506
0.4940001,0.001266161
0.4930001,0.001149568
0.4920001,0.001067106
0.4910001,0.0009901626
0.4900001,0.0009156714
0.4890001,0.0008436325
0.4880001,0.0007780312
0.4870001,0.0007121233
0.4860001,0.0006514268
0.4850001,0.0005941023
0.4840001,0.0005383104
0.4830001,0.0004861972
0.4820001,0.0004371495
0.4810001,0.0003902476
0.4800001,0.0003464112
0.4790001,0.0003041076
0.4780001,0.0002648694
0.4770001,0.0002283901
0.4760001,0.000192524
0.4750001,0.0001609495
0.4740001,0.0001290685
0.4730001,9.963987E-05
0.4720001,6.952632E-05
0.4710001,4.377626E-05
0.4700001,2.05399E-05
0.4690001,-1.225026E-06
0.4680001,-2.323519E-05
0.4670001,-4.196529E-05
0.4660001,-5.971443E-05
0.4650001,-7.786209E-05
0.4640001,-9.236182E-05
0.4630001,-0.0001080264
0.4620001,-0.0001219131
0.4610001,-0.0001347268
0.4600001,-0.0001472953
0.4590001,-0.0001575646
0.4580001,-0.0001676194
0.4570001,-0.0001775822
0.4560001,-0.0001853073
0.4550001,-0.0001945957
0.4540001,-0.0002017382
0.4530001,-0.0002082064
0.4520001,-0.000215165
0.4510001,-0.0002206523
0.4500001,-0.0002262314
0.4490001,-0.0002315654
0.4480001,-0.0002354279
0.4470001,-0.0002406392
0.4460001,-0.0002439806
0.4450001,-0.0002468622
0.4440001,-0.0002509699
0.4430001,-0.0002529624
0.4420001,-0.0002555068
0.4410001,-0.0002584803
0.4400001,-0.0002592467
0.4390001,-0.0002615765
0.4380001,-0.0002630785
0.4370001,-0.0002637836
0.4360001,-0.0002656842
0.4350001,-0.0002660827
0.4340001,-0.0002664812
0.4330001,-0.0002673089
0.4320001,-0.0002669717
0.4310001,-0.0002675848
0.4300001,-0.0002674009
0.4290001,-0.000267125
0.4280001,-0.0002673089
0.4270001,-0.0002660214
0.4260001,-0.0002655003
0.4250001,-0.0002647952
0.4240001,-0.0002630479
0.4230001,-0.0002626494
0.4220001,-0.0002612086
0.4210001,-0.000259308
0.4200001,-0.0002582044
0.4190001,-0.0002560892
0.4180001,-0.0002542193
0.4170001,-0.0002526252
0.4160001,-0.0002502955
0.4150001,-0.0002484255
0.4140001,-0.0002460344
0.4130001,-0.0002432449
0.4120001,-0.000241099
0.4110001,-0.0002382175
0.4100001,-0.0002362249
0.4090001,-0.0002334966
0.4080001,-0.00022991
0.4070001,-0.0002269058
0.4060001,-0.0002237484
0.4050001,-0.0002202537
0.4040001,-0.0002171883
0.4030001,-0.0002137243
0.4020001,-0.0002102603
0.4010001,-0.0002069496
0.4000001,-0.0002032403
0.3990001,-0.0001999909
0.3980001,-0.0001963736
0.3970001,-0.0001926338
0.3960001,-0.0001892617
0.3950001,-0.0001853992
0.3940001,-0.0001818433
0.3930001,-0.0001784099
0.3920001,-0.0001746394
0.3910001,-0.0001712674
0.3900001,-0.0001679566
0.3890001,-0.0001644313
0.3880001,-0.0001611513
0.3870001,-0.0001577486
0.3860001,-0.0001544992
0.3850001,-0.0001513111
0.3840001,-0.0001479697
0.3830001,-0.0001448735
0.3820001,-0.0001418387
0.3810001,-0.0001388345
0.3800001,-0.0001361063
0.3790001,-0.0001332554
0.3780001,-0.0001305884
0.3770001,-0.0001281054
0.3760001,-0.0001253771
0.3750001,-0.0001230473
0.3740001,-0.0001206869
0.3730001,-0.0001182345
0.3720001,-0.00011615
0.3710001,-0.0001138509
0.3700001,-0.0001117663
0.3690001,-0.0001098351
0.3680001,-0.0001076279
0.3670001,-0.000105758
0.3660001,-0.0001039187
0.3650001,-0.0001019568
0.3640001,-0.0001002401
0.3630001,-9.846213E-05
0.3620001,-9.67148E-05
0.3610001,-9.512075E-05
0.3600001,-9.340408E-05
0.3590001,-9.193265E-05
0.3580001,-9.039991E-05
0.3570001,-8.892849E-05
0.3560001,-8.757967E-05
0.3550001,-8.616954E-05
0.3540001,-8.488204E-05
0.3530001,-8.359454E-05
0.3520001,-8.227638E-05
0.3510001,-8.114216E-05
0.3500001,-8.003858E-05
0.3490001,-7.890436E-05
0.3480001,-7.79234E-05
0.3470001,-7.678917E-05
0.3460001,-7.586952E-05
0.3450001,-7.501119E-05
0.3440001,-7.399958E-05
0.3430001,-7.31719E-05
0.3420001,-7.237487E-05
0.3410001,-7.151654E-05
0.3400001,-7.075017E-05
0.3390001,-6.995314E-05
0.3380001,-6.921743E-05
0.3370001,-6.854302E-05
0.3360001,-6.786862E-05
0.3350001,-6.719421E-05
0.3340001,-6.658111E-05
0.3330001,-6.596802E-05
0.3320001,-6.544688E-05
0.3310001,-6.48951E-05
0.3300001,-6.440462E-05
0.3290001,-6.39448E-05
0.3280001,-6.345432E-05
0.3270001,-6.308646E-05
0.3260001,-6.265729E-05
0.3250001,-6.216682E-05
0.3240001,-6.186026E-05
0.3230001,-6.152307E-05
0.3220001,-6.106325E-05
0.3210001,-6.084866E-05
0.3200001,-6.04808E-05
0.3190001,-6.008229E-05
0.3180001,-5.98064E-05
0.3170001,-5.937723E-05
0.3160001,-5.907068E-05
0.3150001,-5.870283E-05
0.3140001,-5.848824E-05
0.3130001,-5.821234E-05
0.3120001,-5.793645E-05
0.3110001,-5.766056E-05
0.3100001,-5.741532E-05
0.3090001,-5.723139E-05
0.3080001,-5.70168E-05
0.3070001,-5.680222E-05
0.3060001,-5.658764E-05
0.3050001,-5.637306E-05
0.3040001,-5.621978E-05
0.3030001,-5.606651E-05
0.3020001,-5.579061E-05
0.3010001,-5.560668E-05
0.3000001,-5.548407E-05
0.2990001,-5.520818E-05
0.2980001,-5.493228E-05
0.2970001,-5.480966E-05
0.2960001,-5.462573E-05
0.2950001,-5.44418E-05
0.2940001,-5.428853E-05
0.2930001,-5.413526E-05
0.2920001,-5.404329E-05
0.2910001,-5.392067E-05
0.2900001,-5.379805E-05
0.2890001,-5.370608E-05
0.2880001,-5.358347E-05
0.2870001,-5.343019E-05
0.2860001,-5.330757E-05
0.2850001,-5.321561E-05
0.2840001,-5.312365E-05
0.2830001,-5.306234E-05
0.2820001,-5.293972E-05
0.2810001,-5.290906E-05
0.2800001,-5.269448E-05
0.2790001,-5.260251E-05
0.2780001,-5.247989E-05
0.2770001,-5.226531E-05
0.2760001,-5.229596E-05
0.2750001,-5.217335E-05
0.2740001,-5.205073E-05
0.2730001,-5.205073E-05
0.2720001,-5.195876E-05
0.2710001,-5.192811E-05
0.2700001,-5.192811E-05
0.2690001,-5.18668E-05
0.2680001,-5.183614E-05
0.2670001,-5.171352E-05
0.2660001,-5.152959E-05
0.2650001,-5.143763E-05
0.2640001,-5.137632E-05
0.2630001,-5.134566E-05
0.2620001,-5.131501E-05
0.2610001,-5.128435E-05
0.2600001,-5.12537E-05
0.2590001,-5.12537E-05
0.2580001,-5.116174E-05
0.2570001,-5.116174E-05
0.2560001,-5.110043E-05
0.2550001,-5.097781E-05
0.2540001,-5.088584E-05
0.2530001,-5.082453E-05
0.2520001,-5.079388E-05
0.2510001,-5.079388E-05
0.2500001,-5.073257E-05
0.2490001,-5.076322E-05
0.2480001,-5.070191E-05
0.2470001,-5.076322E-05
0.2460001,-5.079388E-05
0.2450001,-5.073257E-05
0.2440001,-5.073257E-05
0.2430001,-5.070191E-05
0.2420001,-5.060995E-05
0.2410001,-5.067126E-05
0.2400001,-5.064061E-05
0.2390001,-5.05793E-05
0.2380001,-5.051799E-05
0.2370001,-5.045668E-05
0.2360001,-5.045668E-05
0.2350001,-5.039536E-05
0.2340001,-5.039536E-05
0.2330001,-5.036471E-05
0.2320001,-5.033405E-05
0.2310001,-5.039536E-05
0.2300001,-5.039536E-05
0.2290001,-5.033405E-05
0.2280001,-5.036471E-05
0.2270001,-5.033405E-05
0.2260001,-5.036471E-05
0.2250001,-5.048733E-05
0.2240001,-5.042602E-05
0.2230001,-5.042602E-05
0.2220001,-5.045668E-05
0.2210001,-5.039536E-05
0.2200001,-5.036471E-05
0.2190001,-5.033405E-05
0.2180001,-5.03034E-05
0.2170001,-5.03034E-05
0.2160001,-5.027275E-05
0.2150001,-5.03034E-05
0.2140001,-5.033405E-05
0.2130001,-5.036471E-05
0.2120001,-5.039536E-05
0.2110001,-5.033405E-05
0.2100001,-5.036471E-05
0.2090001,-5.045668E-05
0.2080001,-5.045668E-05
0.2070001,-5.045668E-05
0.2060001,-5.039536E-05
0.2050001,-5.045668E-05
0.2040001,-5.039536E-05
0.2030001,-5.036471E-05
0.2020001,-5.03034E-05
0.2010001,-5.03034E-05
0.2000001,-5.03034E-05
0.1990001,-5.033405E-05
0.1980001,-5.039536E-05
0.1970001,-5.039536E-05
0.1960001,-5.045668E-05
0.1950001,-5.039536E-05
0.1940001,-5.042602E-05
0.1930001,-5.048733E-05
0.1920001,-5.048733E-05
0.1910001,-5.051799E-05
0.1900001,-5.054864E-05
0.1890001,-5.054864E-05
0.1880001,-5.045668E-05
0.1870001,-5.045668E-05
0.1860001,-5.045668E-05
0.1850001,-5.042602E-05
0.1840001,-5.036471E-05
0.1830001,-5.042602E-05
0.1820001,-5.048733E-05
0.1810001,-5.051799E-05
0.1800001,-5.054864E-05
0.1790001,-5.051799E-05
0.1780001,-5.051799E-05
0.1770001,-5.067126E-05
0.1760001,-5.060995E-05
0.1750001,-5.064061E-05
0.1740001,-5.067126E-05
0.1730001,-5.060995E-05
0.1720001,-5.051799E-05
0.1710001,-5.054864E-05
0.1700001,-5.054864E-05
0.1690001,-5.054864E-05
0.1680001,-5.060995E-05
0.1670001,-5.060995E-05
0.1660001,-5.060995E-05
0.1650001,-5.064061E-05
0.1640001,-5.067126E-05
0.1630001,-5.070191E-05
0.1620001,-5.076322E-05
0.1610001,-5.085519E-05
0.1600001,-5.079388E-05
0.1590001,-5.085519E-05
0.1580001,-5.085519E-05
0.1570001,-5.079388E-05
0.1560001,-5.082453E-05
0.1550001,-5.073257E-05
0.1540001,-5.073257E-05
0.1530001,-5.085519E-05
0.1520001,-5.085519E-05
0.1510001,-5.082453E-05
0.1500001,-5.088584E-05
0.1490001,-5.088584E-05
0.1480001,-5.094715E-05
0.1470001,-5.100846E-05
0.1460001,-5.106977E-05
0.1450001,-5.103911E-05
0.1440001,-5.113108E-05
0.1430001,-5.116174E-05
0.1420001,-5.116174E-05
0.1410001,-5.119239E-05
0.1400001,-5.128435E-05
0.1390001,-5.12537E-05
0.1380001,-5.122304E-05
0.1370001,-5.122304E-05
0.1360001,-5.113108E-05
0.1350001,-5.122304E-05
0.1340001,-5.128435E-05
0.1330001,-5.122304E-05
0.1320001,-5.134566E-05
0.1310001,-5.131501E-05
0.1300001,-5.137632E-05
0.1290001,-5.146828E-05
0.1280001,-5.146828E-05
0.1270001,-5.143763E-05
0.1260001,-5.159091E-05
0.1250001,-5.165222E-05
0.1240001,-5.165222E-05
0.1230001,-5.168287E-05
0.1220001,-5.171352E-05
0.1210001,-5.171352E-05
0.1200001,-5.174418E-05
0.1190001,-5.177483E-05
0.1180001,-5.168287E-05
0.1170001,-5.168287E-05
0.1160001,-5.171352E-05
0.1150001,-5.177483E-05
0.1140001,-5.180549E-05
0.1130001,-5.18668E-05
0.1120001,-5.183614E-05
0.1110001,-5.202007E-05
0.1100001,-5.205073E-05
0.1090001,-5.202007E-05
0.1080001,-5.214269E-05
0.1070001,-5.2204E-05
0.1060001,-5.217335E-05
0.1050001,-5.229596E-05
0.1040001,-5.223465E-05
0.1030001,-5.226531E-05
0.1020001,-5.229596E-05
0.1010001,-5.235727E-05
0.1000001,-5.223465E-05
0.0990001,-5.235727E-05
0.09800009,-5.241858E-05
0.09700009,-5.241858E-05
0.0960001,-5.244924E-05
0.0950001,-5.257186E-05
0.09400009,-5.260251E-05
0.0930001,-5.263316E-05
0.0920001,-5.272513E-05
0.0910001,-5.272513E-05
0.09000009,-5.284775E-05
0.0890001,-5.290906E-05
0.0880001,-5.290906E-05
0.08700009,-5.300103E-05
0.08600009,-5.306234E-05
0.0850001,-5.309299E-05
0.0840001,-5.312365E-05
0.08300009,-5.31543E-05
0.08200009,-5.312365E-05
0.0810001,-5.318495E-05
0.0800001,-5.318495E-05
0.07900009,-5.321561E-05
0.0780001,-5.333823E-05
0.0770001,-5.333823E-05
0.07600009,-5.336888E-05
0.07500009,-5.346085E-05
0.0740001,-5.355281E-05
0.0730001,-5.358347E-05
0.07200009,-5.367543E-05
0.07100009,-5.37674E-05
0.0700001,-5.38287E-05
0.0690001,-5.38287E-05
0.06800009,-5.395133E-05
0.0670001,-5.395133E-05
0.0660001,-5.398198E-05
0.06500009,-5.395133E-05
0.06400009,-5.395133E-05
0.0630001,-5.404329E-05
0.0620001,-5.404329E-05
0.06100009,-5.41046E-05
0.0600001,-5.422722E-05
0.0590001,-5.428853E-05
0.0580001,-5.428853E-05
0.0570001,-5.447246E-05
0.05600009,-5.447246E-05
0.0550001,-5.453377E-05
0.05400009,-5.459508E-05
0.0530001,-5.450311E-05
0.05200009,-5.453377E-05
0.0510001,-5.459508E-05
0.05000009,-5.465639E-05
0.0490001,-5.471769E-05
0.04800009,-5.4779E-05
0.0470001,-5.487097E-05
0.0460001,-5.493228E-05
0.04500009,-5.496293E-05
0.0440001,-5.505489E-05
0.04300009,-5.499359E-05
0.0420001,-5.493228E-05
0.04100009,-5.505489E-05
0.0400001,-5.508555E-05
0.03900009,-5.508555E-05
0.0380001,-5.517752E-05
0.03700009,-5.526948E-05
0.0360001,-5.536145E-05
0.0350001,-5.523883E-05
0.03400009,-5.523883E-05
0.0330001,-5.523883E-05
0.03200009,-5.526948E-05
0.03100009,-5.530014E-05
0.0300001,-5.542276E-05
0.0290001,-5.551472E-05
0.0280001,-5.551472E-05
0.0270001,-5.554538E-05
0.0260001,-5.542276E-05
0.0250001,-5.542276E-05
0.0240001,-5.548407E-05
0.0230001,-5.554538E-05
0.02200009,-5.554538E-05
0.02100009,-5.557603E-05
0.02000009,-5.563734E-05
0.0190001,-5.560668E-05
0.0180001,-5.554538E-05
0.0170001,-5.554538E-05
0.0160001,-5.548407E-05
0.0150001,-5.560668E-05
0.0140001,-5.560668E-05
0.0130001,-5.569865E-05
0.0120001,-5.5668E-05
0.01100009,-5.563734E-05
0.0100001,-5.551472E-05
0.009000096,-5.554538E-05
0.008000095,-5.551472E-05
0.007000095,-5.551472E-05
0.006000096,-5.554538E-05
0.005000095,-5.560668E-05
0.004000095,-5.554538E-05
0.003000095,-5.545341E-05
0.002000095,-5.530014E-05
0.001000095,-5.530014E-05
9.536743E-08,-5.324627E-05
0.0009999046,-5.202007E-05
0.001999905,-5.128435E-05
0.002999905,-5.067126E-05
0.003999905,-4.999685E-05
0.004999904,-4.93531E-05
0.005999905,-4.864804E-05
0.006999905,-4.803494E-05
0.007999904,-4.74525E-05
0.008999905,-4.699268E-05
0.009999905,-4.644089E-05
0.0109999,-4.595042E-05
0.0119999,-4.549059E-05
0.0129999,-4.493881E-05
0.0139999,-4.444833E-05
0.0149999,-4.386589E-05
0.0159999,-4.33141E-05
0.0169999,-4.282362E-05
0.0179999,-4.230249E-05
0.0189999,-4.187332E-05
0.0199999,-4.14135E-05
0.0209999,-4.095368E-05
0.0219999,-4.058582E-05
0.02299991,-4.009534E-05
0.02399991,-3.963552E-05
0.02499991,-3.914504E-05
0.02599991,-3.862391E-05
0.0269999,-3.816409E-05
0.0279999,-3.767361E-05
0.0289999,-3.721379E-05
0.0299999,-3.687659E-05
0.0309999,-3.641676E-05
0.0319999,-3.595694E-05
0.0329999,-3.568105E-05
0.0339999,-3.519057E-05
0.0349999,-3.479206E-05
0.03599991,-3.430158E-05
0.0369999,-3.387242E-05
0.03799991,-3.338194E-05
0.0389999,-3.298343E-05
0.03999991,-3.261556E-05
0.0409999,-3.221706E-05
0.04199991,-3.178789E-05
0.0429999,-3.142003E-05
0.0439999,-3.105217E-05
0.0449999,-3.068431E-05
0.0459999,-3.031645E-05
0.04699991,-2.997925E-05
0.0479999,-2.964205E-05
0.04899991,-2.930485E-05
0.0499999,-2.890633E-05
0.05099991,-2.856913E-05
0.0519999,-2.817062E-05
0.05299991,-2.780276E-05
0.0539999,-2.749621E-05
0.0549999,-2.703639E-05
0.0559999,-2.663788E-05
0.0569999,-2.636198E-05
0.05799991,-2.602478E-05
0.0589999,-2.571823E-05
0.05999991,-2.535037E-05
0.0609999,-2.507448E-05
0.06199991,-2.476793E-05
0.0629999,-2.440007E-05
0.06399991,-2.418549E-05
0.06499991,-2.387894E-05
0.0659999,-2.360305E-05
0.0669999,-2.32965E-05
0.06799991,-2.298995E-05
0.0689999,-2.271406E-05
0.0699999,-2.240751E-05
0.07099991,-2.207031E-05
0.07199991,-2.182507E-05
0.0729999,-2.145721E-05
0.0739999,-2.112001E-05
0.07499991,-2.090542E-05
0.07599991,-2.062953E-05
0.0769999,-2.032298E-05
0.0779999,-2.01084E-05
0.07899991,-1.983251E-05
0.0799999,-1.958727E-05
0.0809999,-1.937268E-05
0.08199991,-1.909679E-05
0.08299991,-1.88822E-05
0.0839999,-1.869828E-05
0.0849999,-1.842238E-05
0.08599991,-1.82078E-05
0.08699991,-1.790125E-05
0.0879999,-1.768667E-05
0.0889999,-1.731881E-05
0.08999991,-1.710422E-05
0.0909999,-1.688964E-05
0.0919999,-1.661375E-05
0.09299991,-1.649113E-05
0.09399991,-1.624589E-05
0.0949999,-1.603131E-05
0.0959999,-1.581672E-05
0.09699991,-1.563279E-05
0.09799991,-1.544886E-05
0.0989999,-1.526494E-05
0.0999999,-1.505035E-05
0.1009999,-1.483577E-05
0.1019999,-1.462118E-05
0.1029999,-1.437595E-05
0.1039999,-1.413071E-05
0.1049999,-1.391612E-05
0.1059999,-1.398155E-05
0.1069999,-1.387732E-05
0.1079999,-1.365661E-05
0.1089999,-1.346655E-05
0.1099999,-1.332554E-05
0.1109999,-1.318146E-05
0.1119999,-1.303738E-05
0.1129999,-1.289943E-05
0.1139999,-1.26358E-05
0.1149999,-1.241509E-05
0.1159999,-1.215146E-05
0.1169999,-1.198286E-05
0.1179999,-1.187556E-05
0.1189999,-1.167937E-05
0.1199999,-1.155982E-05
0.1209999,-1.137589E-05
0.1219999,-1.121342E-05
0.1229999,-1.108467E-05
0.1239999,-1.095285E-05
0.1249999,-1.079345E-05
0.1259999,-1.064937E-05
0.1269999,-1.037654E-05
0.1279999,-1.018035E-05
0.1289999,-1.000562E-05
0.1299999,-9.843147E-06
0.1309999,-9.69907E-06
0.1319999,-9.539664E-06
0.1329999,-9.386391E-06
0.1339999,-9.288296E-06
0.1349999,-9.098235E-06
0.1359999,-9.003205E-06
0.1369999,-8.87752E-06
0.1379999,-8.757966E-06
0.1389999,-8.656806E-06
0.1399999,-8.515794E-06
0.1409999,-8.350257E-06
0.1419999,-8.221507E-06
0.1429999,-8.01612E-06
0.1439999,-7.856715E-06
0.1449999,-7.694244E-06
0.1459999,-7.470464E-06
0.1469999,-7.384631E-06
0.1479999,-7.179243E-06
0.1489999,-7.065821E-06
0.1499999,-6.943201E-06
0.1509999,-6.811385E-06
0.1519999,-6.667307E-06
0.1529999,-6.569212E-06
0.1539999,-6.419004E-06
0.1549999,-6.30558E-06
0.1559999,-6.176831E-06
0.1569999,-6.090997E-06
0.1579999,-5.949985E-06
0.1589999,-5.833496E-06
0.1599999,-5.738466E-06
0.1609999,-5.609716E-06
0.1619999,-5.496293E-06
0.1629999,-5.376739E-06
0.1639999,-5.232662E-06
0.1649999,-5.103911E-06
0.1659999,-4.947572E-06
0.1669999,-4.812691E-06
0.1679999,-4.613435E-06
0.1689999,-4.490815E-06
0.1699999,-4.371261E-06
0.1709999,-4.239445E-06
0.1719999,-4.070844E-06
0.1729999,-3.972749E-06
0.1739999,-3.902242E-06
0.1749999,-3.770427E-06
0.1759999,-3.580367E-06
0.1769999,-3.470009E-06
0.1779999,-3.368848E-06
0.1789999,-3.264622E-06
0.1799999,-3.151199E-06
0.1809999,-2.96727E-06
0.1819999,-2.909026E-06
0.1829999,-2.826258E-06
0.1839999,-2.706704E-06
0.1849999,-2.51971E-06
0.1859999,-2.403222E-06
0.1869999,-2.326585E-06
0.1879999,-2.225423E-06
0.1889999,-2.096673E-06
0.1899999,-2.013905E-06
0.1909999,-1.872893E-06
0.1919999,-1.750274E-06
0.1929999,-1.66444E-06
0.1939999,-1.50197E-06
0.1949999,-1.419202E-06
0.1959999,-1.28432E-06
0.1969999,-1.170898E-06
0.1979999,-1.081999E-06
0.1989999,-9.716413E-07
0.1999999,-8.336945E-07
0.2009999,-7.447955E-07
0.2019999,-6.037833E-07
0.2029999,-5.118188E-07
0.2039999,-3.616102E-07
0.2049999,-2.604493E-07
0.2059999,-1.776813E-07
0.2069999,-6.014232E-09
0.2079999,7.368831E-08
0.2089999,1.687183E-07
0.2099999,3.097305E-07
0.2109999,3.679747E-07
0.2119999,5.549691E-07
0.2129999,7.113087E-07
0.2139999,8.002077E-07
0.2149999,9.473508E-07
0.2159999,1.054643E-06
0.2169999,1.174197E-06
0.2179999,1.290685E-06
0.2189999,1.431697E-06
0.2199999,1.594168E-06
0.2209999,1.695329E-06
0.2219999,1.784228E-06
0.2229999,1.922174E-06
0.2239999,2.060121E-06
0.2249999,2.21033E-06
0.2259999,2.418783E-06
0.2269999,2.544467E-06
0.2279999,2.68548E-06
0.2289999,2.808099E-06
0.2299999,2.915391E-06
0.2309999,3.034944E-06
0.2319999,3.160629E-06
0.2329999,3.277117E-06
0.2339999,3.424261E-06
0.2349999,3.528487E-06
0.2359999,3.620452E-06
0.2369999,3.782922E-06
0.2379999,3.887149E-06
0.2389999,4.101732E-06
0.2399999,4.172239E-06
0.2409999,4.258072E-06
0.2419999,4.408281E-06
0.2429999,4.555424E-06
0.2439999,4.711763E-06
0.2449999,4.819055E-06
0.2459999,4.880365E-06
0.2469999,5.091883E-06
0.2479999,5.214503E-06
0.2489999,5.306467E-06
0.2499999,5.484265E-06
0.2509999,5.573164E-06
0.2519999,5.689652E-06
0.2529999,5.812272E-06
0.2539999,5.891975E-06
0.2549999,6.103492E-06
0.2559999,6.235308E-06
0.2569999,6.37019E-06
0.2579999,6.56638E-06
0.2589999,6.704327E-06
0.2599999,6.897452E-06
0.2609999,7.087513E-06
0.2619999,7.277572E-06
0.2629999,7.430846E-06
0.2639999,7.556531E-06
0.2649999,7.682216E-06
0.2659999,7.807901E-06
0.2669999,7.945848E-06
0.2679999,8.111384E-06
0.2689999,8.218675E-06
0.2699999,8.319836E-06
0.2709999,8.528289E-06
0.2719999,8.589599E-06
0.2729999,8.755134E-06
0.2739999,8.94826E-06
0.2749999,9.055552E-06
0.2759999,9.248677E-06
0.2769999,9.490851E-06
0.2779999,9.687042E-06
0.2789999,9.858709E-06
0.2799999,1.003038E-05
0.2809999,1.009475E-05
0.2819999,1.029401E-05
0.2829999,1.044422E-05
0.2839999,1.058216E-05
0.2849999,1.067413E-05
0.2859999,1.083047E-05
0.2869999,1.102053E-05
0.2879999,1.124124E-05
0.2889999,1.138838E-05
0.2899999,1.157844E-05
0.2909999,1.174398E-05
0.2919999,1.194937E-05
0.2929999,1.217928E-05
0.2939999,1.239693E-05
0.2949999,1.259312E-05
0.2959999,1.282916E-05
0.2969999,1.294871E-05
0.2979999,1.319089E-05
0.2989999,1.333803E-05
0.2999999,1.353729E-05
0.3009999,1.371508E-05
0.3019999,1.386836E-05
0.3029999,1.407988E-05
0.3039999,1.425461E-05
0.3049999,1.434351E-05
0.3059999,1.460714E-05
0.3069999,1.480027E-05
0.3079999,1.499339E-05
0.3089999,1.520184E-05
0.3099999,1.537045E-05
0.3109999,1.560649E-05
0.3119999,1.581187E-05
0.3129999,1.613069E-05
0.3139999,1.632381E-05
0.3149999,1.657212E-05
0.3159999,1.684188E-05
0.3169999,1.699822E-05
0.3179999,1.724959E-05
0.3189999,1.747337E-05
0.3199999,1.76481E-05
0.3209999,1.787188E-05
0.3219999,1.808033E-05
0.3229999,1.828572E-05
0.3239999,1.85187E-05
0.3249999,1.873328E-05
0.3259999,1.890495E-05
0.3269999,1.919004E-05
0.3279999,1.940769E-05
0.3289999,1.96284E-05
0.3299999,1.994415E-05
0.3309999,2.018632E-05
0.3319999,2.044076E-05
0.3329999,2.068906E-05
0.3339999,2.10048E-05
0.3349999,2.12715E-05
0.3359999,2.149528E-05
0.3369999,2.182329E-05
0.3379999,2.212064E-05
0.3389999,2.242719E-05
0.3399999,2.268775E-05
0.3409999,2.29943E-05
0.3419999,2.329778E-05
0.3429999,2.355222E-05
0.3439999,2.380666E-05
0.3449999,2.404576E-05
0.3459999,2.477027E-05
0.3469999,2.49542E-05
0.3479999,2.52914E-05
0.3489999,2.550598E-05
0.3499999,2.581253E-05
0.3509999,2.611908E-05
0.3519999,2.642563E-05
0.3529999,2.670152E-05
0.3539999,2.710003E-05
0.3549999,2.737593E-05
0.3559999,2.777444E-05
0.3569999,2.823426E-05
0.3579999,2.854081E-05
0.3589999,2.884736E-05
0.3599999,2.921522E-05
0.3609999,2.952177E-05
0.3619999,2.982831E-05
0.3629999,3.016552E-05
0.3639999,3.053337E-05
0.3649999,3.087058E-05
0.3659999,3.123844E-05
0.3669999,3.163695E-05
0.3679999,3.200481E-05
0.3689999,3.237266E-05
0.3699999,3.286314E-05
0.3709999,3.329231E-05
0.3719999,3.372148E-05
0.3729999,3.421195E-05
0.3739999,3.454915E-05
0.3749999,3.500898E-05
0.3759999,3.543814E-05
0.3769999,3.583666E-05
0.3779999,3.638844E-05
0.3789999,3.678696E-05
0.3799999,3.724678E-05
0.3809999,3.773726E-05
0.3819999,3.813577E-05
0.3829999,3.859559E-05
0.3839999,3.914738E-05
0.3849999,3.957655E-05
0.3859999,4.015899E-05
0.3869999,4.058816E-05
0.3879999,4.120125E-05
0.3889999,4.169173E-05
0.3899999,4.227417E-05
0.3909999,4.288727E-05
0.3919999,4.337774E-05
0.3929999,4.402149E-05
0.3939999,4.46959E-05
0.3949999,4.524769E-05
0.3959999,4.59834E-05
0.3969999,4.668847E-05
0.3979999,4.724025E-05
0.3989999,4.803728E-05
0.3999999,4.865037E-05
0.4009999,4.941675E-05
0.4019999,5.021377E-05
0.4029999,5.094949E-05
0.4039999,5.171586E-05
0.4049999,5.251288E-05
0.4059999,5.327925E-05
0.4069999,5.416824E-05
0.4079999,5.499592E-05
0.4089999,5.594622E-05
0.4099999,5.689652E-05
0.4109999,5.781617E-05
0.4119999,5.882777E-05
0.4129999,5.971677E-05
0.4139999,6.078968E-05
0.4149999,6.183195E-05
0.4159999,6.299683E-05
0.4169999,6.406975E-05
0.4179999,6.523464E-05
0.4189999,6.639952E-05
0.4199999,6.771767E-05
0.4209999,6.894387E-05
0.4219999,7.032333E-05
0.4229999,7.176412E-05
0.4239999,7.320489E-05
0.4249999,7.467632E-05
0.4259999,7.627037E-05
0.4269999,7.789508E-05
0.4279999,7.973437E-05
0.4289999,8.151235E-05
0.4299999,8.329033E-05
0.4309999,8.537486E-05
0.4319999,8.739808E-05
0.4329999,8.960522E-05
0.4339999,9.196564E-05
0.4349999,9.426475E-05
0.4359999,9.702369E-05
0.4369999,9.975197E-05
0.4379999,0.0001026335
0.4389999,0.0001058523
0.4399999,0.0001090404
0.4409999,0.0001125963
0.4419999,0.0001165202
0.4429999,0.000120444
0.4439999,0.0001250422
0.4449999,0.0001297324
0.4459999,0.0001348211
0.4469999,0.0001406761
0.4479999,0.0001467152
0.4489999,0.0001533366
0.4499999,0.000160847
0.4509999,0.0001687253
0.4519999,0.0001778605
0.4529999,0.0001874248
0.4539999,0.0001981233
0.4549999,0.0002101706
0.4559999,0.0002227698
0.4569999,0.0002370243
0.4579999,0.0002528115
0.4589999,0.0002695491
0.4599999,0.0002886164
0.4609999,0.0003126909
0.4619999,0.0003341493
0.4629999,0.0003580601
0.4639999,0.000383197
0.4649999,0.0004086405
0.4659999,0.0004359233
0.4669999,0.0004619799
0.4679999,0.0004880365
0.4689999,0.0005122538
0.4699999,0.0005349384
0.4709999,0.0005563968
0.4719999,0.0005750962
0.4729999,0.0005931826
0.4739999,0.0006100427
0.4749999,0.0006259833
0.4759999,0.0006422303
0.4769999,0.0006566381
0.4779999,0.000671659
0.4789999,0.0006882126
0.4799999,0.0007038465
0.4809999,0.0007207067
0.4819999,0.000738793
0.4829999,0.0007562663
0.4839999,0.0007774181
0.4849999,0.0007979569
0.4859999,0.0008194152
0.4869999,0.0008445522
0.4879999,0.0008693826
0.4889999,0.0008972785
0.4899999,0.0009276268
0.4909999,0.0009585881
0.4919999,0.0009938412
0.4929999,0.001030933
0.4939999,0.001070172
0.4949999,0.001113395
0.4959999,0.001158458
0.4969999,0.001207505
0.4979999,0.001259618
0.4989999,0.001315104
0.4999999,0.001375494
0.5009999,0.00143711
0.5019999,0.001504551
0.5029999,0.001576283
0.5039999,0.001650468
0.5049999,0.001730783
0.5059999,0.001815084
0.5069999,0.00190337
0.5079999,0.001997787
0.5089999,0.002094656
0.5099999,0.002197963
0.5109999,0.002305868
0.5119999,0.00242113
0.5129999,0.002539458
0.5139999,0.00266269
0.5149999,0.002790214
0.5159999,0.002926015
0.5169999,0.003063655
0.5179999,0.003237266
0.5189999,0.003384409
0.5199999,0.003537684
0.5209999,0.003697089
0.5219999,0.00386569
0.5229999,0.004034291
0.5239999,0.004209024
0.5249999,0.004389888
0.5259999,0.004576882
0.5269999,0.004766942
0.5279999,0.004963133
0.5289999,0.005162389
0.5299999,0.005370842
0.5309999,0.005582361
0.5319999,0.005796944
0.5329999,0.006014594
0.5339999,0.006241439
0.5349999,0.006471351
0.5359999,0.006701262
0.5369999,0.006940369
0.5379999,0.007182543
0.5389999,0.007424715
0.5399999,0.00767915
0.5409999,0.00793052
0.5419999,0.00818802
0.5429999,0.008451653
0.5439999,0.008715284
0.5449999,0.008988111
0.5459999,0.009257874
0.5469999,0.009533768
0.5479999,0.009818858
0.5489999,0.01009782
0.5499999,0.01038291
0.5509999,0.01067413
0.5519999,0.01096535
0.5529999,0.01125963
0.5539999,0.01156005
0.5549999,0.0118574
0.5559999,0.01216395
0.5569999,0.01246743
0.5579999,0.01278011
0.5589999,0.01308973
0.5599999,0.01340547
0.5609999,0.01371815
0.5619999,0.01403696
0.5629999,0.0143619
0.5639999,0.01468378
0.5649999,0.01501178
0.5659999,0.01534286
0.5669999,0.0156678
0.5679999,0.01599887
0.5689999,0.01633607
0.5699999,0.01667021
0.5709999,0.01701048
0.5719999,0.01735381
0.5729999,0.01768488
0.5739999,0.01803128
0.5749999,0.01838075
0.5759999,0.01872102
0.5769999,0.01907355
0.5779999,0.01942914
0.5789999,0.01977554
0.5799999,0.02013421
0.5809999,0.02048674
0.5819999,0.02083927
0.5829999,0.021201
0.5839999,0.02156579
0.5849999,0.02192138
0.5859999,0.02228311
0.5869999,0.0226479
0.5879999,0.02301576
0.5889999,0.02337442
0.5899999,0.02373921
0.5909999,0.0241132
0.5919999,0.02448106
0.5929999,0.02484892
0.5939999,0.02522291
0.5949999,0.02559076
0.5959999,0.02596782
0.5969999,0.026351
0.5979999,0.02672193
0.5989999,0.02709592
0.5999999,0.02748217
0.6009999,0.02785616
0.6019999,0.02823934
0.6029999,0.02862866
0.6039999,0.02900571
0.6049999,0.0293797
0.6059999,0.02977515
0.6069999,0.03015527
0.6079999,0.03129975
0.6089999,0.0316676
0.6099999,0.03206612
0.6109999,0.03246463
0.6119999,0.03286314
0.6129999,0.03326165
0.6139999,0.03366017
0.6149999,0.03405868
0.6159999,0.03442654
0.6169999,0.0348557
0.6179999,0.03522356
0.6189999,0.03565273
0.6199999,0.03605124
0.6209999,0.03644976
0.6219999,0.03684827
0.6229999,0.03724678
0.6239999,0.0376453
0.6249999,0.03804381
0.6259999,0.03847298
0.6269999,0.03887149
0.6279999,0.03930065
0.6289999,0.03969917
0.6299999,0.04009768
0.6309999,0.04049619
0.6319999,0.04092536
0.6329999,0.04132387
0.6339999,0.04175304
0.6349999,0.04215155
0.6359999,0.04258072
0.6369999,0.04297924
0.6379999,0.0434084
0.6389999,0.04380691
0.6399999,0.04420543
0.6409999,0.0446346
0.6419999,0.04503311
0.6429999,0.04543162
0.6439999,0.04586079
0.6449999,0.04628995
0.6459999,0.04671912
0.6469999,0.04714829
0.6479999,0.0475468
0.6489999,0.04797597
0.6499999,0.04840514
0.6509999,0.04880365
0.6519999,0.04923282
0.6529999,0.04966199
0.6539999,0.0500605
0.6549999,0.05045901
0.6559999,0.05091884
0.6569999,0.05131735
0.6579999,0.05174651
0.6589999,0.05217568
0.6599999,0.05260485
0.6609999,0.05303402
0.6619999,0.05346319
0.6629999,0.05389235
0.6639999,0.05432152
0.6649999,0.05475069
0.6659999,0.05517985
0.6669999,0.05560903
0.6679999,0.05603819
0.6689999,0.05646735
0.6699999,0.05689653
0.6709999,0.05732569
0.6719999,0.05775486
0.6729999,0.05818403
0.6739999,0.05861319
0.6749999,0.05907302
0.6759999,0.05947153
0.6769999,0.0599007
0.6779999,0.06032987
0.6789999,0.06078969
0.6799999,0.06121886
0.6809999,0.06164802
0.6819999,0.06210784
0.6829999,0.06253701
0.6839999,0.06296618
0.6849999,0.06339534
0.6859999,0.06385517
0.6869999,0.06428434
0.6879999,0.06471351
0.6889999,0.06517333
0.6899999,0.0656025
0.6909999,0.06603166
0.6919999,0.06649148
0.6929999,0.06688999
0.6939999,0.06734982
0.6949999,0.06777899
0.6959999,0.06820816
0.6969999,0.06863733
0.6979999,0.06909715
0.6989999,0.06952631
0.6999999,0.06967959
0.6990002,0.06928107
0.6980002,0.06882125
0.6970002,0.06839209
0.6960002,0.06799357
0.6950002,0.06753375
0.6940002,0.06713524
0.6930002,0.06670607
0.6920002,0.0662769
0.6910002,0.06587839
0.6900002,0.06544922
0.6890002,0.06502005
0.6880002,0.06462154
0.6870002,0.06416172
0.6860002,0.06373256
0.6850002,0.06333404
0.6840002,0.06290487
0.6830002,0.06247571
0.6820002,0.06204654
0.6810002,0.06164802
0.6800002,0.0611882
0.6790002,0.06078969
0.6780002,0.06036052
0.6770002,0.05993135
0.6760002,0.05953284
0.6750002,0.05910368
0.6740002,0.0586745
0.6730002,0.05827599
0.6720002,0.05784683
0.6710002,0.05741766
0.6700002,0.05701914
0.6690002,0.05658998
0.6680002,0.05616081
0.6670002,0.0557623
0.6660002,0.05533313
0.6650002,0.05490396
0.6640002,0.05450545
0.6630002,0.05407628
0.6620002,0.05367777
0.6610002,0.05327926
0.6600002,0.05281943
0.6590002,0.05245158
0.6580002,0.05202241
0.6570002,0.05159324
0.6560002,0.05119473
0.6550002,0.05076556
0.6540002,0.05036705
0.6530002,0.04996854
0.6520002,0.04957002
0.6510002,0.04914085
0.6500002,0.04874234
0.6490002,0.04834383
0.6480002,0.04791466
0.6470002,0.04751615
0.6460002,0.04711764
0.6450002,0.04668847
0.6440002,0.04628995
0.6430002,0.04589145
0.6420002,0.04546228
0.6410002,0.04506376
0.6400002,0.04469591
0.6390002,0.04426674
0.6380002,0.04386823
0.6370002,0.04346971
0.6360002,0.0430712
0.6350002,0.04267269
0.6340002,0.04227417
0.6330002,0.04187566
0.6320002,0.04147715
0.6310002,0.04107863
0.6300002,0.04064947
0.6290002,0.04028161
0.6280002,0.0398831
0.6270002,0.03948459
0.6260002,0.03908607
0.6250002,0.03868756
0.6240002,0.03828905
0.6230002,0.03789053
0.6220002,0.03749202
0.6210002,0.03709351
0.6200002,0.036695
0.6190002,0.03632713
0.6180002,0.03592863
0.6170002,0.03553011
0.6160002,0.03516225
0.6150002,0.03476374
0.6140002,0.03436523
0.6130002,0.03399737
0.6120002,0.03359886
0.6110002,0.033231
0.6100002,0.03283248
0.6090002,0.03246463
0.6080002,0.03206612
0.6070002,0.03169826
0.6060002,0.0313304
0.6050002,0.03093189
0.6040002,0.03056403
0.6030002,0.03016552
0.6020002,0.02979766
0.6010002,0.0294298
0.6000002,0.02906194
0.5990002,0.02866343
0.5980002,0.02832623
0.5970002,0.02792772
0.5960002,0.02755986
0.5950002,0.027192
0.5940002,0.02682414
0.5930002,0.02645628
0.5920002,0.02611908
0.5910002,0.02575122
0.5900002,0.02538336
0.5890002,0.02501551
0.5880002,0.02464765
0.5870002,0.02431045
0.5860002,0.02394259
0.5850002,0.02357473
0.5840002,0.02323752
0.5830002,0.02286967
0.5820002,0.02253246
0.5810002,0.02216461
0.5800002,0.02182741
0.5790002,0.02145955
0.5780002,0.02112234
0.5770002,0.02078514
0.5760002,0.02041728
0.5750002,0.02008008
0.5740002,0.01974287
0.5730002,0.01940567
0.5720002,0.01906847
0.5710002,0.01873127
0.5700002,0.01842472
0.5690002,0.01808752
0.5680002,0.01775031
0.5670002,0.01741311
0.5660002,0.01710656
0.5650002,0.01676936
0.5640002,0.01646281
0.5630002,0.01612561
0.5620002,0.01581906
0.5610002,0.01551251
0.5600002,0.01517531
0.5590002,0.01486876
0.5580002,0.01456221
0.5570002,0.01425566
0.5560002,0.01394911
0.5550002,0.01364256
0.5540002,0.01333602
0.5530002,0.0125502
0.5520002,0.01226511
0.5510002,0.01197082
0.5500002,0.01168267
0.5490002,0.01139758
0.5480002,0.01111556
0.5470002,0.01083966
0.5460002,0.0105607
0.5450002,0.01028481
0.5440002,0.01001505
0.5430002,0.009745286
0.5420002,0.009481654
0.5410002,0.009218022
0.5400002,0.008957457
0.5390002,0.008706087
0.5380002,0.008448587
0.5370002,0.008200282
0.5360002,0.007955044
0.5350002,0.007709805
0.5340002,0.007473763
0.5330002,0.007234655
0.5320002,0.007001679
0.5310002,0.006771768
0.5300002,0.006544922
0.5290002,0.006324207
0.5280002,0.006106558
0.5270002,0.005891975
0.5260002,0.00567739
0.5250002,0.005472003
0.5240002,0.005266616
0.5230002,0.005070425
0.5220002,0.0048773
0.5210002,0.004687239
0.5200002,0.004500245
0.5190002,0.004316316
0.5180002,0.004135453
0.5170002,0.003963786
0.5160002,0.003792119
0.5150002,0.003626582
0.5140002,0.003467177
0.5130002,0.003310838
0.5120002,0.003154498
0.5110002,0.003007355
0.5100002,0.002863277
0.5090002,0.002722265
0.5080002,0.002587384
0.5070002,0.002458634
0.5060002,0.002329884
0.5050002,0.002207264
0.5040002,0.002090776
0.5030002,0.001974287
0.5020002,0.001866996
0.5010002,0.001762769
0.5000002,0.001658543
0.4990002,0.001563513
0.4980002,0.001468483
0.4970002,0.001379584
0.4960002,0.00129375
0.4950002,0.001178996
0.4940002,0.001102053
0.4930002,0.001026948
0.4920002,0.0009536833
0.4910002,0.0008865493
0.4900002,0.000820948
0.4890002,0.0007581055
0.4880002,0.0007001679
0.4870002,0.0006431499
0.4860002,0.0005898106
0.4850002,0.0005401497
0.4840002,0.0004914086
0.4830002,0.0004460394
0.4820002,0.0004037358
0.4810002,0.0003623517
0.4800002,0.0003246463
0.4790002,0.000288167
0.4780002,0.0002541402
0.4770002,0.0002225657
0.4760002,0.0001912978
0.4750002,0.0001637084
0.4740002,0.0001367322
0.4730002,0.0001109821
0.4720002,8.891067E-05
0.4710002,6.112688E-05
0.4700002,4.163042E-05
0.4690002,2.30536E-05
0.4680002,3.526472E-06
0.4670002,-1.293517E-05
0.4660002,-2.86611E-05
0.4650002,-4.380458E-05
0.4640002,-5.698615E-05
0.4630002,-7.075017E-05
0.4620002,-8.288948E-05
0.4610002,-9.401718E-05
0.4600002,-0.0001052368
0.4590002,-0.0001142494
0.4580002,-0.0001234458
0.4570002,-0.0001324277
0.4560002,-0.0001390185
0.4550002,-0.0001476018
0.4540002,-0.0001544992
0.4530002,-0.000160109
0.4520002,-0.0001669757
0.4510002,-0.0001718191
0.4500002,-0.0001770305
0.4490002,-0.000182487
0.4480002,-0.000186043
0.4470002,-0.0001906105
0.4460002,-0.000194565
0.4450002,-0.0001974466
0.4440002,-0.0002011864
0.4430002,-0.0002038228
0.4420002,-0.0002066123
0.4410002,-0.0002093713
0.4400002,-0.0002109653
0.4390002,-0.0002136936
0.4380002,-0.000215349
0.4370002,-0.0002169737
0.4360002,-0.0002190889
0.4350002,-0.0002197939
0.4340002,-0.0002211121
0.4330002,-0.0002226755
0.4320002,-0.0002226755
0.4310002,-0.0002243002
0.4300002,-0.0002246374
0.4290002,-0.0002248213
0.4280002,-0.0002261088
0.4270002,-0.0002255877
0.4260002,-0.000225649
0.4250002,-0.0002262927
0.4240002,-0.0002254038
0.4230002,-0.0002257103
0.4220002,-0.0002253731
0.4210002,-0.0002245454
0.4200002,-0.0002243921
0.4190002,-0.0002233805
0.4180002,-0.0002223996
0.4170002,-0.0002216639
0.4160002,-0.0002203457
0.4150002,-0.0002194261
0.4140002,-0.0002178627
0.4130002,-0.0002162993
0.4120002,-0.0002152877
0.4110002,-0.0002133564
0.4100002,-0.0002124061
0.4090002,-0.0002106281
0.4080002,-0.0002080225
0.4070002,-0.0002062751
0.4060002,-0.0002040067
0.4050002,-0.0002014623
0.4040002,-0.0001995311
0.4030002,-0.0001970174
0.4020002,-0.0001943504
0.4010002,-0.00019199
0.4000002,-0.0001890471
0.3990002,-0.0001865641
0.3980002,-0.0001839584
0.3970002,-0.0001811075
0.3960002,-0.0001784406
0.3950002,-0.000175559
0.3940002,-0.0001726162
0.3930002,-0.0001698879
0.3920002,-0.0001669144
0.3910002,-0.0001641861
0.3900002,-0.0001613045
0.3890002,-0.0001584843
0.3880002,-0.0001559093
0.3870002,-0.0001529358
0.3860002,-0.0001502688
0.3850002,-0.0001476938
0.3840002,-0.0001447816
0.3830002,-0.0001424212
0.3820002,-0.0001398462
0.3810002,-0.0001372712
0.3800002,-0.0001350027
0.3790002,-0.000132489
0.3780002,-0.0001301592
0.3770002,-0.0001280134
0.3760002,-0.000125653
0.3750002,-0.0001235684
0.3740002,-0.0001215146
0.3730002,-0.0001193074
0.3720002,-0.0001174681
0.3710002,-0.0001155675
0.3700002,-0.0001136669
0.3690002,-0.0001118276
0.3680002,-0.0001100497
0.3670002,-0.0001083023
0.3660002,-0.000106555
0.3650002,-0.000104961
0.3640002,-0.0001033976
0.3630002,-0.0001017422
0.3620002,-0.0001001788
0.3610002,-9.873803E-05
0.3600002,-9.720529E-05
0.3590002,-9.588713E-05
0.3580002,-9.450765E-05
0.3570002,-9.306688E-05
0.3560002,-9.184069E-05
0.3550002,-9.052253E-05
0.3540002,-8.929634E-05
0.3530002,-8.813146E-05
0.3520002,-8.696657E-05
0.3510002,-8.583234E-05
0.3500002,-8.482073E-05
0.3490002,-8.371716E-05
0.3480002,-8.282817E-05
0.3470002,-8.187787E-05
0.3460002,-8.095823E-05
0.3450002,-8.006924E-05
0.3440002,-7.92109E-05
0.3430002,-7.85365E-05
0.3420002,-7.770881E-05
0.3410002,-7.691179E-05
0.3400002,-7.632935E-05
0.3390002,-7.562429E-05
0.3380002,-7.504185E-05
0.3370002,-7.452071E-05
0.3360002,-7.390762E-05
0.3350002,-7.335583E-05
0.3340002,-7.286535E-05
0.3330002,-7.231356E-05
0.3320002,-7.194571E-05
0.3310002,-7.145523E-05
0.3300002,-7.102606E-05
0.3290002,-7.068886E-05
0.3280002,-7.02597E-05
0.3270002,-6.992248E-05
0.3260002,-6.958529E-05
0.3250002,-6.921743E-05
0.3240002,-6.894153E-05
0.3230002,-6.863499E-05
0.3220002,-6.832844E-05
0.3210002,-6.802189E-05
0.3200002,-6.78073E-05
0.3190002,-6.750075E-05
0.3180002,-6.728617E-05
0.3170002,-6.704094E-05
0.3160002,-6.682635E-05
0.3150002,-6.65198E-05
0.3140002,-6.633587E-05
0.3130002,-6.615194E-05
0.3120002,-6.587605E-05
0.3110002,-6.572278E-05
0.3100002,-6.55695E-05
0.3090002,-6.538557E-05
0.3080002,-6.52323E-05
0.3070002,-6.507902E-05
0.3060002,-6.492575E-05
0.3050002,-6.486444E-05
0.3040002,-6.458855E-05
0.3030002,-6.449658E-05
0.3020002,-6.443528E-05
0.3010002,-6.422069E-05
0.3000002,-6.419003E-05
0.2990002,-6.406742E-05
0.2980002,-6.39448E-05
0.2970002,-6.391414E-05
0.2960002,-6.373021E-05
0.2950002,-6.363825E-05
0.2940002,-6.363825E-05
0.2930002,-6.351563E-05
0.2920002,-6.348498E-05
0.2910002,-6.336236E-05
0.2900002,-6.32704E-05
0.2890002,-6.323974E-05
0.2880002,-6.317843E-05
0.2870002,-6.320909E-05
0.2860002,-6.305581E-05
0.2850002,-6.29945E-05
0.2840002,-6.29945E-05
0.2830002,-6.302515E-05
0.2820002,-6.293318E-05
0.2810002,-6.293318E-05
0.2800002,-6.284122E-05
0.2790002,-6.284122E-05
0.2780002,-6.284122E-05
0.2770002,-6.277992E-05
0.2760002,-6.284122E-05
0.2750002,-6.287188E-05
0.2740002,-6.284122E-05
0.2730002,-6.287188E-05
0.2720002,-6.281057E-05
0.2710002,-6.284122E-05
0.2700002,-6.287188E-05
0.2690002,-6.281057E-05
0.2680002,-6.284122E-05
0.2670002,-6.277992E-05
0.2660002,-6.277992E-05
0.2650002,-6.27186E-05
0.2640002,-6.262664E-05
0.2630002,-6.268795E-05
0.2620002,-6.274926E-05
0.2610002,-6.268795E-05
0.2600002,-6.274926E-05
0.2590002,-6.281057E-05
0.2580002,-6.284122E-05
0.2570002,-6.284122E-05
0.2560002,-6.281057E-05
0.2550002,-6.287188E-05
0.2540002,-6.293318E-05
0.2530002,-6.296385E-05
0.2520002,-6.302515E-05
0.2510002,-6.302515E-05
0.2500002,-6.308646E-05
0.2490002,-6.308646E-05
0.2480002,-6.302515E-05
0.2470002,-6.305581E-05
0.2460002,-6.29945E-05
0.2450002,-6.29945E-05
0.2440002,-6.308646E-05
0.2430002,-6.308646E-05
0.2420002,-6.308646E-05
0.2410002,-6.317843E-05
0.2400002,-6.320909E-05
0.2390002,-6.32704E-05
0.2380002,-6.336236E-05
0.2370002,-6.342367E-05
0.2360002,-6.351563E-05
0.2350002,-6.354629E-05
0.2340002,-6.351563E-05
0.2330002,-6.345432E-05
0.2320002,-6.348498E-05
0.2310002,-6.351563E-05
0.2300002,-6.360759E-05
0.2290002,-6.363825E-05
0.2280002,-6.366891E-05
0.2270002,-6.373021E-05
0.2260002,-6.382218E-05
0.2250002,-6.39448E-05
0.2240002,-6.388349E-05
0.2230002,-6.385284E-05
0.2220002,-6.388349E-05
0.2210002,-6.388349E-05
0.2200002,-6.39448E-05
0.2190002,-6.40061E-05
0.2180002,-6.403676E-05
0.2170002,-6.412873E-05
0.2160002,-6.415938E-05
0.2150002,-6.419003E-05
0.2140002,-6.434331E-05
0.2130002,-6.437397E-05
0.2120002,-6.437397E-05
0.2110002,-6.437397E-05
0.2100002,-6.434331E-05
0.2090002,-6.434331E-05
0.2080002,-6.437397E-05
0.2070002,-6.446593E-05
0.2060002,-6.443528E-05
0.2050002,-6.452724E-05
0.2040002,-6.458855E-05
0.2030002,-6.461921E-05
0.2020002,-6.461921E-05
0.2010002,-6.471117E-05
0.2000002,-6.471117E-05
0.1990002,-6.483379E-05
0.1980002,-6.480313E-05
0.1970002,-6.480313E-05
0.1960002,-6.480313E-05
0.1950002,-6.483379E-05
0.1940002,-6.480313E-05
0.1930002,-6.480313E-05
0.1920002,-6.477248E-05
0.1910002,-6.480313E-05
0.1900002,-6.486444E-05
0.1890002,-6.486444E-05
0.1880002,-6.48951E-05
0.1870002,-6.48951E-05
0.1860002,-6.495641E-05
0.1850002,-6.498706E-05
0.1840002,-6.495641E-05
0.1830002,-6.501772E-05
0.1820002,-6.507902E-05
0.1810002,-6.510968E-05
0.1800002,-6.507902E-05
0.1790002,-6.510968E-05
0.1780002,-6.507902E-05
0.1770002,-6.504837E-05
0.1760002,-6.495641E-05
0.1750002,-6.498706E-05
0.1740002,-6.498706E-05
0.1730002,-6.507902E-05
0.1720002,-6.510968E-05
0.1710002,-6.510968E-05
0.1700002,-6.514033E-05
0.1690002,-6.520165E-05
0.1680002,-6.517099E-05
0.1670002,-6.514033E-05
0.1660002,-6.510968E-05
0.1650002,-6.510968E-05
0.1640002,-6.517099E-05
0.1630002,-6.520165E-05
0.1620002,-6.52323E-05
0.1610002,-6.526295E-05
0.1600002,-6.529361E-05
0.1590002,-6.532426E-05
0.1580002,-6.526295E-05
0.1570002,-6.517099E-05
0.1560002,-6.520165E-05
0.1550002,-6.526295E-05
0.1540002,-6.529361E-05
0.1530002,-6.535492E-05
0.1520002,-6.529361E-05
0.1510002,-6.538557E-05
0.1500002,-6.547754E-05
0.1490002,-6.553885E-05
0.1480002,-6.547754E-05
0.1470002,-6.553885E-05
0.1460002,-6.553885E-05
0.1450002,-6.547754E-05
0.1440002,-6.547754E-05
0.1430002,-6.553885E-05
0.1420002,-6.550819E-05
0.1410002,-6.560016E-05
0.1400002,-6.569213E-05
0.1390002,-6.569213E-05
0.1380002,-6.578409E-05
0.1370002,-6.58454E-05
0.1360002,-6.578409E-05
0.1350002,-6.581475E-05
0.1340002,-6.578409E-05
0.1330002,-6.581475E-05
0.1320002,-6.590671E-05
0.1310002,-6.590671E-05
0.1300002,-6.593736E-05
0.1290002,-6.609064E-05
0.1280002,-6.609064E-05
0.1270002,-6.605998E-05
0.1260002,-6.609064E-05
0.1250002,-6.605998E-05
0.1240002,-6.612129E-05
0.1230002,-6.621325E-05
0.1220002,-6.624391E-05
0.1210002,-6.633587E-05
0.1200002,-6.642783E-05
0.1190002,-6.645849E-05
0.1180002,-6.648915E-05
0.1170002,-6.658111E-05
0.1160002,-6.664242E-05
0.1150002,-6.658111E-05
0.1140002,-6.658111E-05
0.1130002,-6.664242E-05
0.1120002,-6.667308E-05
0.1110002,-6.670374E-05
0.1100002,-6.676505E-05
0.1090002,-6.67957E-05
0.1080002,-6.691832E-05
0.1070002,-6.694897E-05
0.1060002,-6.694897E-05
0.1050002,-6.701028E-05
0.1040002,-6.710224E-05
0.1030002,-6.722486E-05
0.1020002,-6.725552E-05
0.1010002,-6.722486E-05
0.1000002,-6.740879E-05
0.09900019,-6.740879E-05
0.09800019,-6.743945E-05
0.09700019,-6.759272E-05
0.09600019,-6.765403E-05
0.09500019,-6.777665E-05
0.09400019,-6.783796E-05
0.09300019,-6.786862E-05
0.09200019,-6.792993E-05
0.09100019,-6.802189E-05
0.09000019,-6.802189E-05
0.08900019,-6.80832E-05
0.08800019,-6.80832E-05
0.08700019,-6.811386E-05
0.08600019,-6.820582E-05
0.08500019,-6.823648E-05
0.08400019,-6.829778E-05
0.08300019,-6.835909E-05
0.08200019,-6.845106E-05
0.08100019,-6.851237E-05
0.08000019,-6.854302E-05
0.07900019,-6.863499E-05
0.07800019,-6.872695E-05
0.07700019,-6.87576E-05
0.07600019,-6.881891E-05
0.07500019,-6.891088E-05
0.07400019,-6.897219E-05
0.07300019,-6.909481E-05
0.07200019,-6.90335E-05
0.07100019,-6.921743E-05
0.07000019,-6.93094E-05
0.06900019,-6.934005E-05
0.06800019,-6.943201E-05
0.06700019,-6.952398E-05
0.06600019,-6.958529E-05
0.06500019,-6.97079E-05
0.06400019,-6.97079E-05
0.06300019,-6.983052E-05
0.06200019,-6.989183E-05
0.06100019,-7.004511E-05
0.06000019,-7.010641E-05
0.05900019,-7.016773E-05
0.05800019,-7.019839E-05
0.05700019,-7.02597E-05
0.05600019,-7.029035E-05
0.05500019,-7.029035E-05
0.05400019,-7.029035E-05
0.05300019,-7.038231E-05
0.05200019,-7.047428E-05
0.05100019,-7.056624E-05
0.05000019,-7.065821E-05
0.04900019,-7.075017E-05
0.04800019,-7.075017E-05
0.04700019,-7.09341E-05
0.04600019,-7.102606E-05
0.04500019,-7.102606E-05
0.04400019,-7.114868E-05
0.04300019,-7.117933E-05
0.04200019,-7.114868E-05
0.04100019,-7.120999E-05
0.04000019,-7.124065E-05
0.03900019,-7.130195E-05
0.03800019,-7.142458E-05
0.03700019,-7.148589E-05
0.03600019,-7.151654E-05
0.03500019,-7.157785E-05
0.03400019,-7.170047E-05
0.03300019,-7.176178E-05
0.03200019,-7.182309E-05
0.03100019,-7.191506E-05
0.03000019,-7.200702E-05
0.02900019,-7.206832E-05
0.02800019,-7.212964E-05
0.02700019,-7.219095E-05
0.02600019,-7.228291E-05
0.02500019,-7.234422E-05
0.02400019,-7.237487E-05
0.02300019,-7.246684E-05
0.02200019,-7.252815E-05
0.02100019,-7.249749E-05
0.02000019,-7.262012E-05
0.01900019,-7.258946E-05
0.01800019,-7.262012E-05
0.01700019,-7.258946E-05
0.01600019,-7.262012E-05
0.01500019,-7.265077E-05
0.01400019,-7.280405E-05
0.01300019,-7.274273E-05
0.01200019,-7.286535E-05
0.01100019,-7.28347E-05
0.01000019,-7.289601E-05
0.009000191,-7.295731E-05
0.00800019,-7.301863E-05
0.007000191,-7.304928E-05
0.006000191,-7.304928E-05
0.005000191,-7.31719E-05
0.004000191,-7.320255E-05
0.003000191,-7.314124E-05
0.002000191,-7.311059E-05
0.001000191,-7.314124E-05
1.907349E-07,-7.102606E-05
0.0009998092,-6.958529E-05
0.001999809,-6.884957E-05
0.002999809,-6.811386E-05
0.003999809,-6.737814E-05
0.004999809,-6.676505E-05
0.005999809,-6.612129E-05
0.006999809,-6.547754E-05
0.007999809,-6.48951E-05
0.00899981,-6.431266E-05
0.009999809,-6.366891E-05
0.01099981,-6.308646E-05
0.01199981,-6.23814E-05
0.01299981,-6.173765E-05
0.01399981,-6.112456E-05
0.01499981,-6.057277E-05
0.01599981,-6.005164E-05
0.01699981,-5.949985E-05
0.01799981,-5.894806E-05
0.01899981,-5.842693E-05
0.01999981,-5.781384E-05
0.02099981,-5.72927E-05
0.02199981,-5.674092E-05
0.02299981,-5.618912E-05
0.02399981,-5.5668E-05
0.02499981,-5.520818E-05
0.02599981,-5.465639E-05
0.02699981,-5.407395E-05
0.02799981,-5.34915E-05
0.02899981,-5.300103E-05
0.02999981,-5.235727E-05
0.03099981,-5.183614E-05
0.03199981,-5.131501E-05
0.03299981,-5.079388E-05
0.03399981,-5.027275E-05
0.03499981,-4.981292E-05
0.03599981,-4.929179E-05
0.03699981,-4.883197E-05
0.03799981,-4.831083E-05
0.03899981,-4.782036E-05
0.03999981,-4.729923E-05
0.04099981,-4.674744E-05
0.04199981,-4.613434E-05
0.04299981,-4.570518E-05
0.04399981,-4.518405E-05
0.04499981,-4.469357E-05
0.04599981,-4.423374E-05
0.04699981,-4.374327E-05
0.04799981,-4.33141E-05
0.04899981,-4.288493E-05
0.04999981,-4.23638E-05
0.05099981,-4.193463E-05
0.05199981,-4.14135E-05
0.05299981,-4.089237E-05
0.05399981,-4.043255E-05
0.05499981,-3.985011E-05
0.05599981,-3.935963E-05
0.05699981,-3.896112E-05
0.05799981,-3.850129E-05
0.05899981,-3.801082E-05
0.05999981,-3.758165E-05
0.06099981,-3.712183E-05
0.06199981,-3.675397E-05
0.06299981,-3.63248E-05
0.06399981,-3.589563E-05
0.06499981,-3.549712E-05
0.06599981,-3.509861E-05
0.06699981,-3.466944E-05
0.06799981,-3.420962E-05
0.06899981,-3.378045E-05
0.06999981,-3.335128E-05
0.07099981,-3.286081E-05
0.07199981,-3.243164E-05
0.07299981,-3.209443E-05
0.07399981,-3.163461E-05
0.07499981,-3.132806E-05
0.07599981,-3.086824E-05
0.07699981,-3.046973E-05
0.07799981,-3.013253E-05
0.07899981,-2.979532E-05
0.07999981,-2.948877E-05
0.08099981,-2.912092E-05
0.08199981,-2.875306E-05
0.08299981,-2.83852E-05
0.08399981,-2.795603E-05
0.08499981,-2.758818E-05
0.08599981,-2.715901E-05
0.08699981,-2.688312E-05
0.08799981,-2.651526E-05
0.08899981,-2.620871E-05
0.08999981,-2.587151E-05
0.09099981,-2.559561E-05
0.09199981,-2.528906E-05
0.09299981,-2.49212E-05
0.09399981,-2.470662E-05
0.09499981,-2.42468E-05
0.09599981,-2.387894E-05
0.09699981,-2.360305E-05
0.09799981,-2.32965E-05
0.09899981,-2.305126E-05
0.09999981,-2.274471E-05
0.1009998,-2.246882E-05
0.1019998,-2.225423E-05
0.1029998,-2.2009E-05
0.1039998,-2.167179E-05
0.1049998,-2.136525E-05
0.1059998,-2.096673E-05
0.1069998,-2.075215E-05
0.1079998,-2.04456E-05
0.1089998,-2.020036E-05
0.1099998,-1.992447E-05
0.1109998,-1.964857E-05
0.1119998,-1.946465E-05
0.1129998,-1.921941E-05
0.1139998,-1.897417E-05
0.1149998,-1.875959E-05
0.1159998,-1.851435E-05
0.1169998,-1.826911E-05
0.1179998,-1.805452E-05
0.1189998,-1.780929E-05
0.1199998,-1.75947E-05
0.1209998,-1.734946E-05
0.1219998,-1.707357E-05
0.1229998,-1.682833E-05
0.1239998,-1.652178E-05
0.1249998,-1.63072E-05
0.1259998,-1.606196E-05
0.1269998,-1.587803E-05
0.1279998,-1.566345E-05
0.1289998,-1.541821E-05
0.1299998,-1.526494E-05
0.1309998,-1.508101E-05
0.1319998,-1.483577E-05
0.1329998,-1.471315E-05
0.1339998,-1.452922E-05
0.1349998,-1.428398E-05
0.1359998,-1.416136E-05
0.1369998,-1.394678E-05
0.1379998,-1.364023E-05
0.1389998,-1.367194E-05
0.1399998,-1.35064E-05
0.1409998,-1.330714E-05
0.1419998,-1.316307E-05
0.1429998,-1.292089E-05
0.1439998,-1.278295E-05
0.1449998,-1.263887E-05
0.1459998,-1.248559E-05
0.1469998,-1.233232E-05
0.1479998,-1.215452E-05
0.1489998,-1.202884E-05
0.1499998,-1.17836E-05
0.1509998,-1.162419E-05
0.1519998,-1.134524E-05
0.1529998,-1.113372E-05
0.1539998,-1.089461E-05
0.1549998,-1.07536E-05
0.1559998,-1.060339E-05
0.1569998,-1.043785E-05
0.1579998,-1.025392E-05
0.1589998,-1.008226E-05
0.1599998,-9.981094E-06
0.1609998,-9.754249E-06
0.1619998,-9.594844E-06
0.1629998,-9.515141E-06
0.1639998,-9.358801E-06
0.1649998,-9.171807E-06
0.1659998,-9.043057E-06
0.1669998,-8.895914E-06
0.1679998,-8.736508E-06
0.1689998,-8.616955E-06
0.1699998,-8.420764E-06
0.1709998,-8.230704E-06
0.1719998,-8.062102E-06
0.1729998,-7.936417E-06
0.1739998,-7.76475E-06
0.1749998,-7.617607E-06
0.1759998,-7.418351E-06
0.1769998,-7.219095E-06
0.1779998,-7.068886E-06
0.1789998,-6.909481E-06
0.1799998,-6.688766E-06
0.1809998,-6.575343E-06
0.1819998,-6.422069E-06
0.1829998,-6.228944E-06
0.1839998,-6.112456E-06
0.1849998,-5.949985E-06
0.1859998,-5.723139E-06
0.1869998,-5.597454E-06
0.1879998,-5.441115E-06
0.1889998,-5.327692E-06
0.1899998,-5.140697E-06
0.1909998,-4.999685E-06
0.1919998,-4.846411E-06
0.1929998,-4.748316E-06
0.1939998,-4.545994E-06
0.1949998,-4.441767E-06
0.1959998,-4.288493E-06
0.1969998,-4.165874E-06
0.1979998,-4.043255E-06
0.1989998,-3.935963E-06
0.1999998,-3.748969E-06
0.2009998,-3.660069E-06
0.2019998,-3.4087E-06
0.2029998,-3.298342E-06
0.2039998,-3.034711E-06
0.2049998,-2.817062E-06
0.2059998,-2.731228E-06
0.2069998,-2.547299E-06
0.2079998,-2.430811E-06
0.2089998,-2.262209E-06
0.2099998,-2.093608E-06
0.2109998,-1.955661E-06
0.2119998,-1.879024E-06
0.2129998,-1.728815E-06
0.2139998,-1.63072E-06
0.2149998,-1.452922E-06
0.2159998,-1.259797E-06
0.2169998,-9.869686E-07
0.2179998,-8.766112E-07
0.2189998,-7.202717E-07
0.2199998,-4.995569E-07
0.2209998,-4.04527E-07
0.2219998,-2.328599E-07
0.2229998,-1.163716E-07
0.2239998,1.237866E-08
0.2249998,1.503254E-07
0.2259998,3.12796E-07
0.2269998,3.649092E-07
0.2279998,5.825584E-07
0.2289998,7.45029E-07
0.2299998,8.676483E-07
0.2309998,1.168066E-06
0.2319998,1.284554E-06
0.2329998,1.45009E-06
0.2339998,1.695329E-06
0.2349998,1.885388E-06
0.2359998,1.968157E-06
0.2369998,2.14902E-06
0.2379998,2.311491E-06
0.2389998,2.473961E-06
0.2399998,2.673218E-06
0.2409998,2.759051E-06
0.2419998,2.964438E-06
0.2429998,3.136106E-06
0.2439998,3.326165E-06
0.2449998,3.445719E-06
0.2459998,3.537684E-06
0.2469998,3.80438E-06
0.2479998,3.957655E-06
0.2489998,4.101732E-06
0.2499998,4.353102E-06
0.2509998,4.515573E-06
0.2519998,4.831317E-06
0.2529998,4.996853E-06
0.2539998,5.113342E-06
0.2549998,5.346318E-06
0.2559998,5.560902E-06
0.2569998,5.717241E-06
0.2579998,5.839861E-06
0.2589998,6.008463E-06
0.2599998,6.244505E-06
0.2609998,6.364059E-06
0.2619998,6.505071E-06
0.2629998,6.744178E-06
0.2639998,6.931173E-06
0.2649998,7.176412E-06
0.2659998,7.418585E-06
0.2669998,7.70674E-06
0.2679998,7.86308E-06
0.2689998,8.092991E-06
0.2699998,8.255462E-06
0.2709998,8.445521E-06
0.2719998,8.641712E-06
0.2729998,8.801117E-06
0.2739998,9.003439E-06
0.2749998,9.165909E-06
0.2759998,9.377428E-06
0.2769998,9.57975E-06
0.2779998,9.812726E-06
0.2789998,1.005183E-05
0.2799998,1.029094E-05
0.2809998,1.053925E-05
0.2819998,1.078142E-05
0.2829998,1.101439E-05
0.2839998,1.134547E-05
0.2849998,1.148341E-05
0.2859998,1.171639E-05
0.2869998,1.199535E-05
0.2879998,1.222526E-05
0.2889998,1.241839E-05
0.2899998,1.26483E-05
0.2909998,1.286595E-05
0.2919998,1.314797E-05
0.2929998,1.335336E-05
0.2939998,1.354648E-05
0.2949998,1.384077E-05
0.2959998,1.407375E-05
0.2969998,1.430979E-05
0.2979998,1.454276E-05
0.2989998,1.472976E-05
0.2999998,1.497806E-05
0.3009998,1.523863E-05
0.3019998,1.543175E-05
0.3029998,1.572604E-05
0.3039998,1.596208E-05
0.3049998,1.62625E-05
0.3059998,1.65292E-05
0.3069998,1.689706E-05
0.3079998,1.719134E-05
0.3089998,1.743351E-05
0.3099998,1.766036E-05
0.3109998,1.794852E-05
0.3119998,1.815697E-05
0.3129998,1.844819E-05
0.3139998,1.867197E-05
0.3149998,1.893254E-05
0.3159998,1.925441E-05
0.3169998,1.951804E-05
0.3179998,1.976635E-05
0.3189998,2.010662E-05
0.3199998,2.04898E-05
0.3209998,2.078715E-05
0.3219998,2.114582E-05
0.3229998,2.14401E-05
0.3239998,2.174052E-05
0.3249998,2.200722E-05
0.3259998,2.229231E-05
0.3269998,2.261112E-05
0.3279998,2.29054E-05
0.3289998,2.315984E-05
0.3299998,2.341734E-05
0.3309998,2.372082E-05
0.3319998,2.415612E-05
0.3329998,2.44688E-05
0.3339998,2.523009E-05
0.3349998,2.550598E-05
0.3359998,2.578188E-05
0.3369998,2.614973E-05
0.3379998,2.639497E-05
0.3389998,2.667087E-05
0.3399998,2.713069E-05
0.3409998,2.75292E-05
0.3419998,2.789706E-05
0.3429998,2.826491E-05
0.3439998,2.863277E-05
0.3449998,2.893932E-05
0.3459998,2.936849E-05
0.3469998,2.958307E-05
0.3479998,2.995093E-05
0.3489998,3.034945E-05
0.3499998,3.074796E-05
0.3509998,3.111581E-05
0.3519998,3.160629E-05
0.3529998,3.200481E-05
0.3539998,3.246463E-05
0.3549998,3.283249E-05
0.3559998,3.329231E-05
0.3569998,3.362951E-05
0.3579998,3.402802E-05
0.3589998,3.45185E-05
0.3599998,3.491702E-05
0.3609998,3.525422E-05
0.3619998,3.574469E-05
0.3629998,3.614321E-05
0.3639998,3.663368E-05
0.3649998,3.703219E-05
0.3659998,3.749202E-05
0.3669998,3.792119E-05
0.3679998,3.838101E-05
0.3689998,3.884083E-05
0.3699998,3.933131E-05
0.3709998,3.982179E-05
0.3719998,4.037357E-05
0.3729998,4.077208E-05
0.3739998,4.126256E-05
0.3749998,4.190631E-05
0.3759998,4.233548E-05
0.3769998,4.300989E-05
0.3779998,4.350036E-05
0.3789998,4.399084E-05
0.3799998,4.472656E-05
0.3809998,4.5309E-05
0.3819998,4.570751E-05
0.3829998,4.641257E-05
0.3839998,4.693371E-05
0.3849998,4.751615E-05
0.3859998,4.812924E-05
0.3869998,4.8773E-05
0.3879998,4.938609E-05
0.3889998,5.00605E-05
0.3899998,5.076556E-05
0.3909998,5.140931E-05
0.3919998,5.205306E-05
0.3929998,5.269681E-05
0.3939998,5.340187E-05
0.3949998,5.407628E-05
0.3959998,5.484265E-05
0.3969998,5.551706E-05
0.3979998,5.634474E-05
0.3989998,5.720307E-05
0.3999998,5.787748E-05
0.4009998,5.882777E-05
0.4019998,5.965546E-05
0.4029998,6.048314E-05
0.4039998,6.15254E-05
0.4049998,6.235309E-05
0.4059998,6.330338E-05
0.4069998,6.43763E-05
0.4079998,6.53266E-05
0.4089998,6.639952E-05
0.4099998,6.750309E-05
0.4109998,6.857601E-05
0.4119998,6.97409E-05
0.4129998,7.07525E-05
0.4139998,7.191739E-05
0.4149998,7.317423E-05
0.4159998,7.436977E-05
0.4169998,7.562662E-05
0.4179998,7.694478E-05
0.4189998,7.83549E-05
0.4199998,7.979568E-05
0.4209998,8.12058E-05
0.4219998,8.270788E-05
0.4229998,8.433259E-05
0.4239998,8.60186E-05
0.4249998,8.767397E-05
0.4259998,8.954392E-05
0.4269998,9.126058E-05
0.4279998,9.340642E-05
0.4289998,9.549095E-05
0.4299998,9.766744E-05
0.4309998,0.0001000279
0.4319998,0.0001023576
0.4329998,0.0001048407
0.4339998,0.0001076303
0.4349998,0.0001102359
0.4359998,0.0001133627
0.4369998,0.0001165202
0.4379998,0.0001197389
0.4389998,0.0001235095
0.4399998,0.000127188
0.4409998,0.0001313877
0.4419998,0.0001361086
0.4429998,0.0001407068
0.4439998,0.0001461634
0.4449998,0.0001518958
0.4459998,0.0001581187
0.4469998,0.0001649548
0.4479998,0.0001723119
0.4489998,0.0001803128
0.4499998,0.0001892641
0.4509998,0.0001987671
0.4519998,0.0002094043
0.4529998,0.0002210225
0.4539998,0.0002337749
0.4549998,0.0002477841
0.4559998,0.0002628356
0.4569998,0.0002794199
0.4579998,0.000297353
0.4589998,0.0003197415
0.4599998,0.0003402802
0.4609998,0.0003620452
0.4619998,0.0003853429
0.4629998,0.0004092536
0.4639998,0.0004331644
0.4649998,0.0004567686
0.4659998,0.0004803728
0.4669998,0.0005015247
0.4679998,0.0005220634
0.4689998,0.0005398432
0.4699998,0.0005560903
0.4709998,0.0005717242
0.4719998,0.0005852123
0.4729998,0.0005983939
0.4739998,0.0006115754
0.4749998,0.0006232243
0.4759998,0.0006364059
0.4769998,0.0006489744
0.4779998,0.0006612363
0.4789998,0.0006753375
0.4799998,0.0006894387
0.4809998,0.0007047662
0.4819998,0.0007204001
0.4829998,0.0007372603
0.4839998,0.0007565728
0.4849998,0.0007758854
0.4859998,0.0007970372
0.4869998,0.0008203348
0.4879998,0.0008442457
0.4889998,0.000871835
0.4899998,0.0009012636
0.4909998,0.0009313053
0.4919998,0.0009656387
0.4929998,0.001001198
0.4939998,0.00103921
0.4949998,0.00108182
0.4959998,0.00112535
0.4969998,0.001172559
0.4979998,0.001223752
0.4989998,0.001277705
0.4999998,0.001336255
0.5009998,0.001396646
0.5019998,0.001461021
0.5029998,0.001529994
0.5039998,0.001602033
0.5049998,0.001679896
0.5059998,0.001761438
0.5069998,0.001845739
0.5079998,0.001937397
0.5089998,0.002030281
0.5099998,0.002129296
0.5109998,0.002234136
0.5119998,0.002343573
0.5129998,0.002457303
0.5139998,0.002575937
0.5149998,0.002697943
0.5159998,0.002828533
0.5169998,0.002961268
0.5179998,0.003126909
0.5189998,0.003270986
0.5199998,0.00341813
0.5209998,0.003568338
0.5219998,0.003727744
0.5229998,0.003890214
0.5239998,0.004061881
0.5249998,0.004236614
0.5259998,0.004414412
0.5269998,0.00459834
0.5279998,0.004785335
0.5289998,0.00497846
0.5299998,0.005174651
0.5309998,0.005376973
0.5319998,0.005588491
0.5329998,0.005796944
0.5339998,0.006011528
0.5349998,0.006235308
0.5359998,0.006459088
0.5369998,0.006688999
0.5379998,0.006921976
0.5389998,0.007158018
0.5399998,0.007400192
0.5409998,0.007645431
0.5419998,0.007893735
0.5429998,0.008148169
0.5439998,0.008402605
0.5449998,0.008666236
0.5459998,0.008926802
0.5469998,0.009196565
0.5479998,0.009469392
0.5489998,0.009739155
0.5499998,0.01001811
0.5509998,0.01030014
0.5519998,0.01058216
0.5529998,0.01087338
0.5539998,0.01116154
0.5549998,0.01144969
0.5559998,0.01175011
0.5569998,0.0120444
0.5579998,0.01234481
0.5589998,0.01265136
0.5599998,0.01295485
0.5609998,0.01326139
0.5619998,0.01357407
0.5629998,0.01388675
0.5639998,0.01420556
0.5649998,0.01451824
0.5659998,0.01484012
0.5669998,0.01516199
0.5679998,0.01548387
0.5689998,0.01581494
0.5699998,0.01613988
0.5709998,0.01647402
0.5719998,0.01680509
0.5729998,0.01713616
0.5739998,0.01747337
0.5749998,0.0178075
0.5759998,0.01815084
0.5769998,0.01849724
0.5779998,0.01883444
0.5789998,0.01918084
0.5799998,0.01952724
0.5809998,0.01986444
0.5819998,0.02022311
0.5829998,0.02057564
0.5839998,0.02091897
0.5849998,0.0212807
0.5859998,0.02163016
0.5869998,0.02197963
0.5879998,0.02235055
0.5889998,0.02270002
0.5899998,0.02306174
0.5909998,0.02343267
0.5919998,0.0237852
0.5929998,0.02414999
0.5939998,0.02451785
0.5949998,0.02488264
0.5959998,0.02524437
0.5969998,0.02561529
0.5979998,0.02598621
0.5989998,0.026351
0.5999998,0.02672499
0.6009998,0.02709898
0.6019998,0.02746378
0.6029998,0.02784083
0.6039998,0.02821482
0.6049998,0.02858574
0.6059998,0.02897506
0.6069998,0.02934905
0.6079998,0.0297261
0.6089998,0.03011848
0.6099998,0.03123844
0.6109998,0.03163695
0.6119998,0.03200481
0.6129998,0.03237266
0.6139998,0.03277118
0.6149998,0.03316969
0.6159998,0.0335682
0.6169998,0.03396672
0.6179998,0.03433457
0.6189998,0.03473309
0.6199998,0.0351316
0.6209998,0.03553011
0.6219998,0.03592863
0.6229998,0.03629648
0.6239998,0.036695
0.6249998,0.03709351
0.6259998,0.03749202
0.6269998,0.03789053
0.6279998,0.0383197
0.6289998,0.03871821
0.6299998,0.03911673
0.6309998,0.03951524
0.6319998,0.03991375
0.6329998,0.04031226
0.6339998,0.04071078
0.6349998,0.04110929
0.6359998,0.04153846
0.6369998,0.04193697
0.6379998,0.04233548
0.6389998,0.04273399
0.6399998,0.04313251
0.6409998,0.04356168
0.6419998,0.04396019
0.6429998,0.04438936
0.6439998,0.04478787
0.6449998,0.04521704
0.6459998,0.04561555
0.6469998,0.04601406
0.6479998,0.04644323
0.6489998,0.04684174
0.6499998,0.04727091
0.6509998,0.04770008
0.6519998,0.04806793
0.6529998,0.0484971
0.6539998,0.04892627
0.6549998,0.04932478
0.6559998,0.04975395
0.6569998,0.05015246
0.6579998,0.05055097
0.6589998,0.0510108
0.6599998,0.05143997
0.6609998,0.05183848
0.6619998,0.05226765
0.6629998,0.05269681
0.6639998,0.05309533
0.6649998,0.05352449
0.6659998,0.05395366
0.6669998,0.05438283
0.6679998,0.054812
0.6689998,0.05524116
0.6699998,0.05563968
0.6709998,0.0560995
0.6719998,0.05649801
0.6729998,0.05692718
0.6739998,0.057387
0.6749998,0.05778552
0.6759998,0.05821468
0.6769998,0.0586745
0.6779998,0.05910368
0.6789998,0.05953284
0.6799998,0.059962
0.6809998,0.06039118
0.6819998,0.06082034
0.6829998,0.06124951
0.6839998,0.06167868
0.6849998,0.06210784
0.6859998,0.06253701
0.6869998,0.06296618
0.6879998,0.06339534
0.6889998,0.06385517
0.6899998,0.06428434
0.6909998,0.06471351
0.6919998,0.06514268
0.6929998,0.06557184
0.6939998,0.06597035
0.6949998,0.06643017
0.6959998,0.06685934
0.6969998,0.06728851
0.6979998,0.06774833
0.6989998,0.06814685
0.6999998,0.06830012
0.6990003,0.0679016
0.6980003,0.06747244
0.6970003,0.06707393
0.6960003,0.06664476
0.6950003,0.0662156
0.6940003,0.06581708
0.6930003,0.06538791
0.6920003,0.0649894
0.6910003,0.06456023
0.6900003,0.06416172
0.6890003,0.06373256
0.6880003,0.06330338
0.6870003,0.06290487
0.6860003,0.06244505
0.6850003,0.06204654
0.6840003,0.06161737
0.6830003,0.0611882
0.6820003,0.06078969
0.6810003,0.06036052
0.6800003,0.05993135
0.6790003,0.05953284
0.6780003,0.05910368
0.6770003,0.05870516
0.6760003,0.05827599
0.6750003,0.05787748
0.6740003,0.05744831
0.6730003,0.0570498
0.6720003,0.05665129
0.6710003,0.05622212
0.6700003,0.05582361
0.6690003,0.05539444
0.6680003,0.05499592
0.6670003,0.05459742
0.6660003,0.05413759
0.6650003,0.05373908
0.6640003,0.05334057
0.6630003,0.0529114
0.6620003,0.05251288
0.6610003,0.05211437
0.6600003,0.0516852
0.6590003,0.05128669
0.6580003,0.05088818
0.6570003,0.05048966
0.6560003,0.0500605
0.6550003,0.04969264
0.6540003,0.04926347
0.6530003,0.04886496
0.6520003,0.04846645
0.6510003,0.04806793
0.6500003,0.04766942
0.6490003,0.04727091
0.6480003,0.04684174
0.6470003,0.04644323
0.6460003,0.04604472
0.6450003,0.04561555
0.6440003,0.04524769
0.6430003,0.04484918
0.6420003,0.04442001
0.6410003,0.04405215
0.6400003,0.04365364
0.6390003,0.04325513
0.6380003,0.04285662
0.6370003,0.0424581
0.6360003,0.04202893
0.6350003,0.04166108
0.6340003,0.04126256
0.6330003,0.04086405
0.6320003,0.04046554
0.6310003,0.04006703
0.6300003,0.03966851
0.6290003,0.03930065
0.6280003,0.03890214
0.6270003,0.03850363
0.6260003,0.03810512
0.6250003,0.03770661
0.6240003,0.03733874
0.6230003,0.03694023
0.6220003,0.03654172
0.6210003,0.03614321
0.6200003,0.03577535
0.6190003,0.03540749
0.6180003,0.03500898
0.6170003,0.03464112
0.6160003,0.03424261
0.6150003,0.03387475
0.6140003,0.03347624
0.6130003,0.03310838
0.6120003,0.03274052
0.6110003,0.03234201
0.6100003,0.03197415
0.6090003,0.03160629
0.6080003,0.03123844
0.6070003,0.03083992
0.6060003,0.03047206
0.6050003,0.03010421
0.6040003,0.02970569
0.6030003,0.02933784
0.6020003,0.02896998
0.6010003,0.02860212
0.6000003,0.02823426
0.5990003,0.02786641
0.5980003,0.0275292
0.5970003,0.02716134
0.5960003,0.02679349
0.5950003,0.02642563
0.5940003,0.02605777
0.5930003,0.02568991
0.5920003,0.02532205
0.5910003,0.02498485
0.5900003,0.02461699
0.5890003,0.02424913
0.5880003,0.02391193
0.5870003,0.02357473
0.5860003,0.02320687
0.5850003,0.02286967
0.5840003,0.02253246
0.5830003,0.02216461
0.5820003,0.02182741
0.5810003,0.02145955
0.5800003,0.02112234
0.5790003,0.02078514
0.5780003,0.02044794
0.5770003,0.02011073
0.5760003,0.01977353
0.5750003,0.01943633
0.5740003,0.01909912
0.5730003,0.01876192
0.5720003,0.01845537
0.5710003,0.01811817
0.5700003,0.01781162
0.5690003,0.01747442
0.5680003,0.01713721
0.5670003,0.01683067
0.5660003,0.01649346
0.5650003,0.01618692
0.5640003,0.01588037
0.5630003,0.01554316
0.5620003,0.01523662
0.5610003,0.01493007
0.5600003,0.01462352
0.5590003,0.01431697
0.5580003,0.01401042
0.5570003,0.01370388
0.5560003,0.01339733
0.5550003,0.01312143
0.5540003,0.01233868
0.5530003,0.01205666
0.5520003,0.01177463
0.5510003,0.01148341
0.5500003,0.01120446
0.5490003,0.01092856
0.5480003,0.01065267
0.5470003,0.01038291
0.5460003,0.01011314
0.5450003,0.009843381
0.5440003,0.009585881
0.5430003,0.009322249
0.5420003,0.009061683
0.5410003,0.008810313
0.5400003,0.008555878
0.5390003,0.008307574
0.5380003,0.008065402
0.5370003,0.007823228
0.5360003,0.007584121
0.5350003,0.007348078
0.5340003,0.007118167
0.5330003,0.006888256
0.5320003,0.006664475
0.5310003,0.006443761
0.5300003,0.006226112
0.5290003,0.006011528
0.5280003,0.005803075
0.5270003,0.005594622
0.5260003,0.0053923
0.5250003,0.005193044
0.5240003,0.004996853
0.5230003,0.004809859
0.5220003,0.004622865
0.5210003,0.004438935
0.5200003,0.004261137
0.5190003,0.004086405
0.5180003,0.003914738
0.5170003,0.003752267
0.5160003,0.003586731
0.5150003,0.003433457
0.5140003,0.003280183
0.5130003,0.003129974
0.5120003,0.002982831
0.5110003,0.002841819
0.5100003,0.002706938
0.5090003,0.002575122
0.5080003,0.002446372
0.5070003,0.002326818
0.5060003,0.002204199
0.5050003,0.00208771
0.5040003,0.001980419
0.5030003,0.001870061
0.5020003,0.0017689
0.5010003,0.001670805
0.5000003,0.001575775
0.4990003,0.00148381
0.4980003,0.001394911
0.4970003,0.001312143
0.4960003,0.001201681
0.4950003,0.001123818
0.4940003,0.001050553
0.4930003,0.0009809661
0.4920003,0.0009126058
0.4910003,0.0008494569
0.4900003,0.0007884538
0.4890003,0.0007295966
0.4880003,0.0006759506
0.4870003,0.0006226112
0.4860003,0.0005729504
0.4850003,0.0005263551
0.4840003,0.0004809859
0.4830003,0.0004392953
0.4820003,0.0003991375
0.4810003,0.0003611255
0.4800003,0.0003261791
0.4790003,0.0002918456
0.4780003,0.0002602712
0.4770003,0.0002302294
0.4760003,0.0002011074
0.4750003,0.0001756638
0.4740003,0.0001496072
0.4730003,0.0001256965
0.4720003,0.0001051577
0.4710003,7.869211E-05
0.4700003,6.039118E-05
0.4690003,4.288727E-05
0.4680003,2.470896E-05
0.4670003,9.197614E-06
0.4660003,-5.332772E-06
0.4650003,-2.035364E-05
0.4640003,-3.246229E-05
0.4630003,-4.533732E-05
0.4620003,-5.720073E-05
0.4610003,-6.802189E-05
0.4600003,-7.85365E-05
0.4590003,-8.742639E-05
0.4580003,-9.591779E-05
0.4570003,-0.0001043785
0.4560003,-0.0001111226
0.4550003,-0.0001192155
0.4540003,-0.0001257143
0.4530003,-0.0001318452
0.4520003,-0.0001382521
0.4510003,-0.0001428197
0.4500003,-0.0001482456
0.4490003,-0.0001533956
0.4480003,-0.0001571661
0.4470003,-0.0001618257
0.4460003,-0.0001652897
0.4450003,-0.0001685084
0.4440003,-0.0001725855
0.4430003,-0.0001752218
0.4420003,-0.000178134
0.4410003,-0.0001815367
0.4400003,-0.0001828549
0.4390003,-0.0001857671
0.4380003,-0.0001882501
0.4370003,-0.0001896602
0.4360003,-0.00019199
0.4350003,-0.0001932162
0.4340003,-0.0001945037
0.4330003,-0.000196343
0.4320003,-0.0001968641
0.4310003,-0.0001985195
0.4300003,-0.0001996537
0.4290003,-0.0002006347
0.4280003,-0.0002016769
0.4270003,-0.0002019221
0.4260003,-0.0002028111
0.4250003,-0.0002035162
0.4240003,-0.0002031484
0.4230003,-0.0002039454
0.4220003,-0.000204068
0.4210003,-0.0002037308
0.4200003,-0.0002040374
0.4190003,-0.0002035162
0.4180003,-0.0002030257
0.4170003,-0.000203179
0.4160003,-0.00020229
0.4150003,-0.0002019528
0.4140003,-0.0002012784
0.4130003,-0.0002002975
0.4120003,-0.000199807
0.4110003,-0.0001985808
0.4100003,-0.0001980903
0.4090003,-0.0001968641
0.4080003,-0.0001951168
0.4070003,-0.0001937373
0.4060003,-0.000191898
0.4050003,-0.0001901507
0.4040003,-0.0001887713
0.4030003,-0.0001867174
0.4020003,-0.0001847555
0.4010003,-0.0001829468
0.4000003,-0.0001806784
0.3990003,-0.0001787165
0.3980003,-0.0001763867
0.3970003,-0.0001741489
0.3960003,-0.0001722483
0.3950003,-0.0001697959
0.3940003,-0.0001673435
0.3930003,-0.0001650751
0.3920003,-0.0001624694
0.3910003,-0.0001601703
0.3900003,-0.0001578099
0.3890003,-0.0001552042
0.3880003,-0.0001529971
0.3870003,-0.0001505753
0.3860003,-0.0001483069
0.3850003,-0.0001460997
0.3840003,-0.0001437087
0.3830003,-0.0001416548
0.3820003,-0.0001393557
0.3810003,-0.0001372405
0.3800003,-0.000135156
0.3790003,-0.0001328875
0.3780003,-0.0001309869
0.3770003,-0.0001291476
0.3760003,-0.0001270937
0.3750003,-0.0001254077
0.3740003,-0.0001236297
0.3730003,-0.0001216985
0.3720003,-0.0001200738
0.3710003,-0.0001182651
0.3700003,-0.0001164565
0.3690003,-0.0001148931
0.3680003,-0.0001132991
0.3670003,-0.0001118276
0.3660003,-0.0001102642
0.3650003,-0.0001087928
0.3640003,-0.0001074747
0.3630003,-0.0001060032
0.3620003,-0.0001045624
0.3610003,-0.0001031217
0.3600003,-0.0001017422
0.3590003,-0.0001005467
0.3580003,-9.935112E-05
0.3570003,-9.803296E-05
0.3560003,-9.702136E-05
0.3550003,-9.582582E-05
0.3540003,-9.459963E-05
0.3530003,-9.346539E-05
0.3520003,-9.242314E-05
0.3510003,-9.15648E-05
0.3500003,-9.064515E-05
0.3490003,-8.969485E-05
0.3480003,-8.886717E-05
0.3470003,-8.788622E-05
0.3460003,-8.702788E-05
0.3450003,-8.644543E-05
0.3440003,-8.574038E-05
0.3430003,-8.497401E-05
0.3420003,-8.426895E-05
0.3410003,-8.365585E-05
0.3400003,-8.319603E-05
0.3390003,-8.27362E-05
0.3380003,-8.209245E-05
0.3370003,-8.157132E-05
0.3360003,-8.11115E-05
0.3350003,-8.07743E-05
0.3340003,-8.040644E-05
0.3330003,-8.003858E-05
0.3320003,-7.960942E-05
0.3310003,-7.92109E-05
0.3300003,-7.893501E-05
0.3290003,-7.872043E-05
0.3280003,-7.850584E-05
0.3270003,-7.822995E-05
0.3260003,-7.783144E-05
0.3250003,-7.767816E-05
0.3240003,-7.752488E-05
0.3230003,-7.740227E-05
0.3220003,-7.721834E-05
0.3210003,-7.706506E-05
0.3200003,-7.685048E-05
0.3190003,-7.666655E-05
0.3180003,-7.657459E-05
0.3170003,-7.645196E-05
0.3160003,-7.642131E-05
0.3150003,-7.632935E-05
0.3140003,-7.620673E-05
0.3130003,-7.617607E-05
0.3120003,-7.599215E-05
0.3110003,-7.590018E-05
0.3100003,-7.583887E-05
0.3090003,-7.57469E-05
0.3080003,-7.57469E-05
0.3070003,-7.57469E-05
0.3060003,-7.577756E-05
0.3050003,-7.577756E-05
0.3040003,-7.571625E-05
0.3030003,-7.571625E-05
0.3020003,-7.562429E-05
0.3010003,-7.553232E-05
0.3000003,-7.559363E-05
0.2990003,-7.556297E-05
0.2980003,-7.559363E-05
0.2970003,-7.571625E-05
0.2960003,-7.565494E-05
0.2950003,-7.571625E-05
0.2940003,-7.577756E-05
0.2930003,-7.571625E-05
0.2920003,-7.56856E-05
0.2910003,-7.571625E-05
0.2900003,-7.577756E-05
0.2890003,-7.586952E-05
0.2880003,-7.586952E-05
0.2870003,-7.599215E-05
0.2860003,-7.605345E-05
0.2850003,-7.617607E-05
0.2840003,-7.614542E-05
0.2830003,-7.62987E-05
0.2820003,-7.62987E-05
0.2810003,-7.62987E-05
0.2800003,-7.623738E-05
0.2790003,-7.636E-05
0.2780003,-7.645196E-05
0.2770003,-7.657459E-05
0.2760003,-7.663589E-05
0.2750003,-7.669721E-05
0.2740003,-7.675852E-05
0.2730003,-7.691179E-05
0.2720003,-7.69731E-05
0.2710003,-7.712637E-05
0.2700003,-7.724899E-05
0.2690003,-7.734096E-05
0.2680003,-7.746358E-05
0.2670003,-7.749423E-05
0.2660003,-7.755554E-05
0.2650003,-7.761685E-05
0.2640003,-7.767816E-05
0.2630003,-7.777012E-05
0.2620003,-7.780078E-05
0.2610003,-7.801536E-05
0.2600003,-7.816863E-05
0.2590003,-7.819929E-05
0.2580003,-7.82606E-05
0.2570003,-7.850584E-05
0.2560003,-7.862846E-05
0.2550003,-7.872043E-05
0.2540003,-7.884304E-05
0.2530003,-7.893501E-05
0.2520003,-7.899632E-05
0.2510003,-7.908828E-05
0.2500003,-7.911894E-05
0.2490003,-7.927221E-05
0.2480003,-7.942548E-05
0.2470003,-7.951745E-05
0.2460003,-7.957876E-05
0.2450003,-7.979335E-05
0.2440003,-7.997728E-05
0.2430003,-8.013054E-05
0.2420003,-8.025316E-05
0.2410003,-8.043709E-05
0.2400003,-8.040644E-05
0.2390003,-8.055971E-05
0.2380003,-8.059036E-05
0.2370003,-8.062102E-05
0.2360003,-8.083561E-05
0.2350003,-8.095823E-05
0.2340003,-8.105019E-05
0.2330003,-8.123412E-05
0.2320003,-8.132608E-05
0.2310003,-8.151001E-05
0.2300003,-8.160197E-05
0.2290003,-8.17246E-05
0.2280003,-8.181656E-05
0.2270003,-8.184722E-05
0.2260003,-8.193919E-05
0.2250003,-8.209245E-05
0.2240003,-8.218442E-05
0.2230003,-8.2399E-05
0.2220003,-8.249097E-05
0.2210003,-8.261359E-05
0.2200003,-8.279752E-05
0.2190003,-8.285882E-05
0.2180003,-8.295078E-05
0.2170003,-8.313472E-05
0.2160003,-8.313472E-05
0.2150003,-8.325734E-05
0.2140003,-8.341061E-05
0.2130003,-8.337996E-05
0.2120003,-8.350258E-05
0.2110003,-8.368651E-05
0.2100003,-8.368651E-05
0.2090003,-8.387043E-05
0.2080003,-8.393174E-05
0.2070003,-8.40237E-05
0.2060003,-8.417699E-05
0.2050003,-8.433026E-05
0.2040003,-8.436092E-05
0.2030003,-8.442222E-05
0.2020003,-8.454484E-05
0.2010003,-8.469811E-05
0.2000003,-8.472877E-05
0.1990003,-8.479008E-05
0.1980003,-8.494335E-05
0.1970003,-8.500466E-05
0.1960003,-8.512728E-05
0.1950003,-8.515793E-05
0.1940003,-8.531121E-05
0.1930003,-8.537252E-05
0.1920003,-8.549514E-05
0.1910003,-8.55258E-05
0.1900003,-8.561776E-05
0.1890003,-8.564842E-05
0.1880003,-8.574038E-05
0.1870003,-8.577103E-05
0.1860003,-8.574038E-05
0.1850003,-8.583234E-05
0.1840003,-8.5863E-05
0.1830003,-8.589365E-05
0.1820003,-8.595496E-05
0.1810003,-8.598562E-05
0.1800003,-8.607758E-05
0.1790003,-8.610824E-05
0.1780003,-8.616954E-05
0.1770003,-8.616954E-05
0.1760003,-8.623085E-05
0.1750003,-8.632282E-05
0.1740003,-8.632282E-05
0.1730003,-8.632282E-05
0.1720003,-8.638413E-05
0.1710003,-8.641478E-05
0.1700003,-8.644543E-05
0.1690003,-8.644543E-05
0.1680003,-8.638413E-05
0.1670003,-8.650675E-05
0.1660003,-8.653741E-05
0.1650003,-8.64761E-05
0.1640003,-8.653741E-05
0.1630003,-8.656806E-05
0.1620003,-8.650675E-05
0.1610003,-8.656806E-05
0.1600003,-8.64761E-05
0.1590003,-8.656806E-05
0.1580003,-8.656806E-05
0.1570003,-8.653741E-05
0.1560003,-8.653741E-05
0.1550003,-8.653741E-05
0.1540003,-8.64761E-05
0.1530003,-8.650675E-05
0.1520003,-8.638413E-05
0.1510003,-8.626151E-05
0.1500003,-8.623085E-05
0.1490003,-8.62002E-05
0.1480003,-8.613889E-05
0.1470003,-8.610824E-05
0.1460003,-8.613889E-05
0.1450003,-8.604692E-05
0.1440003,-8.604692E-05
0.1430003,-8.604692E-05
0.1420003,-8.595496E-05
0.1410003,-8.592431E-05
0.1400003,-8.598562E-05
0.1390003,-8.589365E-05
0.1380003,-8.583234E-05
0.1370003,-8.577103E-05
0.1360003,-8.567907E-05
0.1350003,-8.555645E-05
0.1340003,-8.549514E-05
0.1330003,-8.543384E-05
0.1320003,-8.537252E-05
0.1310003,-8.540318E-05
0.1300003,-8.537252E-05
0.1290003,-8.534187E-05
0.1280003,-8.528055E-05
0.1270003,-8.52499E-05
0.1260003,-8.518859E-05
0.1250003,-8.528055E-05
0.1240003,-8.52499E-05
0.1230003,-8.521925E-05
0.1220003,-8.518859E-05
0.1210003,-8.515793E-05
0.1200003,-8.506597E-05
0.1190003,-8.503532E-05
0.1180003,-8.49127E-05
0.1170003,-8.494335E-05
0.1160003,-8.497401E-05
0.1150003,-8.49127E-05
0.1140003,-8.49127E-05
0.1130003,-8.494335E-05
0.1120003,-8.485139E-05
0.1110003,-8.488204E-05
0.1100003,-8.494335E-05
0.1090003,-8.497401E-05
0.1080003,-8.503532E-05
0.1070003,-8.506597E-05
0.1060003,-8.500466E-05
0.1050003,-8.503532E-05
0.1040003,-8.503532E-05
0.1030003,-8.509662E-05
0.1020003,-8.503532E-05
0.1010003,-8.506597E-05
0.1000003,-8.500466E-05
0.09900028,-8.503532E-05
0.09800029,-8.500466E-05
0.09700029,-8.494335E-05
0.09600028,-8.494335E-05
0.09500029,-8.509662E-05
0.09400029,-8.512728E-05
0.09300029,-8.512728E-05
0.09200028,-8.515793E-05
0.09100029,-8.515793E-05
0.09000029,-8.52499E-05
0.08900028,-8.531121E-05
0.08800028,-8.521925E-05
0.08700029,-8.531121E-05
0.08600029,-8.540318E-05
0.08500028,-8.537252E-05
0.08400029,-8.543384E-05
0.08300029,-8.55258E-05
0.08200029,-8.555645E-05
0.08100028,-8.561776E-05
0.08000029,-8.55871E-05
0.07900029,-8.564842E-05
0.07800028,-8.580169E-05
0.07700028,-8.574038E-05
0.07600029,-8.583234E-05
0.07500029,-8.589365E-05
0.07400028,-8.595496E-05
0.07300029,-8.604692E-05
0.07200029,-8.607758E-05
0.07100029,-8.610824E-05
0.07000028,-8.62002E-05
0.06900029,-8.626151E-05
0.06800029,-8.629217E-05
0.06700028,-8.638413E-05
0.06600028,-8.638413E-05
0.06500029,-8.64761E-05
0.06400029,-8.659872E-05
0.06300028,-8.666002E-05
0.06200029,-8.672133E-05
0.06100029,-8.68133E-05
0.06000029,-8.687461E-05
0.05900029,-8.687461E-05
0.05800029,-8.699723E-05
0.05700029,-8.708919E-05
0.05600028,-8.699723E-05
0.05500029,-8.711984E-05
0.05400028,-8.721181E-05
0.05300029,-8.724246E-05
0.05200029,-8.739574E-05
0.05100029,-8.736509E-05
0.05000029,-8.745705E-05
0.04900029,-8.74877E-05
0.04800029,-8.74877E-05
0.04700029,-8.74877E-05
0.04600029,-8.757967E-05
0.04500028,-8.767164E-05
0.04400029,-8.77636E-05
0.04300028,-8.779425E-05
0.04200029,-8.785557E-05
0.04100028,-8.791687E-05
0.04000029,-8.800883E-05
0.03900029,-8.813146E-05
0.03800029,-8.813146E-05
0.03700029,-8.828473E-05
0.03600029,-8.834604E-05
0.03500029,-8.834604E-05
0.03400028,-8.846866E-05
0.03300029,-8.856062E-05
0.03200028,-8.856062E-05
0.03100029,-8.865258E-05
0.03000029,-8.865258E-05
0.02900029,-8.865258E-05
0.02800029,-8.868324E-05
0.02700029,-8.868324E-05
0.02600029,-8.87139E-05
0.02500029,-8.883652E-05
0.02400029,-8.880586E-05
0.02300029,-8.886717E-05
0.02200029,-8.892849E-05
0.02100029,-8.898979E-05
0.02000029,-8.895914E-05
0.01900029,-8.911241E-05
0.01800029,-8.902045E-05
0.01700029,-8.917372E-05
0.01600029,-8.920438E-05
0.01500029,-8.914307E-05
0.01400029,-8.920438E-05
0.01300029,-8.929634E-05
0.01200029,-8.926568E-05
0.01100029,-8.923503E-05
0.01000029,-8.926568E-05
0.009000286,-8.929634E-05
0.008000286,-8.923503E-05
0.007000286,-8.929634E-05
0.006000286,-8.923503E-05
0.005000286,-8.932699E-05
0.004000286,-8.923503E-05
0.003000286,-8.920438E-05
0.002000286,-8.920438E-05
0.001000286,-8.920438E-05
2.861023E-07,-8.699723E-05
0.0009997139,-8.570973E-05
0.001999714,-8.463681E-05
0.002999714,-8.371716E-05
0.003999714,-8.292013E-05
0.004999714,-8.209245E-05
0.005999714,-8.123412E-05
0.006999714,-8.040644E-05
0.007999714,-7.964007E-05
0.008999714,-7.887369E-05
0.009999714,-7.810732E-05
0.01099971,-7.73103E-05
0.01199971,-7.651328E-05
0.01299971,-7.571625E-05
0.01399971,-7.494988E-05
0.01499971,-7.418351E-05
0.01599971,-7.35091E-05
0.01699971,-7.277339E-05
0.01799971,-7.200702E-05
0.01899971,-7.124065E-05
0.01999971,-7.053559E-05
0.02099971,-6.976922E-05
0.02199971,-6.909481E-05
0.02299971,-6.838975E-05
0.02399971,-6.771534E-05
0.02499971,-6.697963E-05
0.02599971,-6.61826E-05
0.02699971,-6.550819E-05
0.02799971,-6.480313E-05
0.02899971,-6.406742E-05
0.02999971,-6.336236E-05
0.03099971,-6.268795E-05
0.03199971,-6.198289E-05
0.03299971,-6.130848E-05
0.03399972,-6.060342E-05
0.03499971,-5.992902E-05
0.03599972,-5.913199E-05
0.03699971,-5.854955E-05
0.03799972,-5.778318E-05
0.03899971,-5.704746E-05
0.03999971,-5.640371E-05
0.04099971,-5.569865E-05
0.04199971,-5.487097E-05
0.04299971,-5.425787E-05
0.04399971,-5.352216E-05
0.04499971,-5.284775E-05
0.04599971,-5.229596E-05
0.04699972,-5.156024E-05
0.04799971,-5.088584E-05
0.04899972,-5.027275E-05
0.04999971,-4.962899E-05
0.05099971,-4.895459E-05
0.05199971,-4.831083E-05
0.05299971,-4.772839E-05
0.05399971,-4.714595E-05
0.05499971,-4.656351E-05
0.05599971,-4.591976E-05
0.05699971,-4.533732E-05
0.05799972,-4.478553E-05
0.05899971,-4.417243E-05
0.05999972,-4.358999E-05
0.06099971,-4.300755E-05
0.06199971,-4.245577E-05
0.06299971,-4.184267E-05
0.06399971,-4.135219E-05
0.06499971,-4.076975E-05
0.06599972,-4.030993E-05
0.06699971,-3.975814E-05
0.06799971,-3.923701E-05
0.06899972,-3.877719E-05
0.06999972,-3.825605E-05
0.07099971,-3.776558E-05
0.07199971,-3.72751E-05
0.07299972,-3.681528E-05
0.07399971,-3.63248E-05
0.07499971,-3.592629E-05
0.07599971,-3.543581E-05
0.07699972,-3.494533E-05
0.07799971,-3.454682E-05
0.07899971,-3.4087E-05
0.07999972,-3.365783E-05
0.08099972,-3.332063E-05
0.08199971,-3.289146E-05
0.08299971,-3.246229E-05
0.08399972,-3.200247E-05
0.08499971,-3.169592E-05
0.08599971,-3.126675E-05
0.08699971,-3.083759E-05
0.08799972,-3.046973E-05
0.08899971,-3.007122E-05
0.08999971,-2.970336E-05
0.09099972,-2.927419E-05
0.09199972,-2.884502E-05
0.09299971,-2.853847E-05
0.09399971,-2.813996E-05
0.09499972,-2.774145E-05
0.09599971,-2.74349E-05
0.09699971,-2.706704E-05
0.09799971,-2.676049E-05
0.09899972,-2.64846E-05
0.09999971,-2.608609E-05
0.1009997,-2.577954E-05
0.1019997,-2.550365E-05
0.1029997,-2.51971E-05
0.1039997,-2.48599E-05
0.1049997,-2.455335E-05
0.1059997,-2.427745E-05
0.1069997,-2.406287E-05
0.1079997,-2.375632E-05
0.1089997,-2.348043E-05
0.1099997,-2.314323E-05
0.1109997,-2.283668E-05
0.1119997,-2.256078E-05
0.1129997,-2.225423E-05
0.1139997,-2.194769E-05
0.1149997,-2.164114E-05
0.1159997,-2.133459E-05
0.1169997,-2.10587E-05
0.1179997,-2.087477E-05
0.1189997,-2.053757E-05
0.1199997,-2.029233E-05
0.1209997,-2.01084E-05
0.1219997,-1.980185E-05
0.1229997,-1.961792E-05
0.1239997,-1.940334E-05
0.1249997,-1.912744E-05
0.1259997,-1.894351E-05
0.1269997,-1.866762E-05
0.1279997,-1.833042E-05
0.1289997,-1.805452E-05
0.1299997,-1.783994E-05
0.1309997,-1.765601E-05
0.1319997,-1.738012E-05
0.1329997,-1.719619E-05
0.1339997,-1.707357E-05
0.1349997,-1.685899E-05
0.1359997,-1.661375E-05
0.1369997,-1.63072E-05
0.1379997,-1.606196E-05
0.1389997,-1.590869E-05
0.1399997,-1.563279E-05
0.1409997,-1.547952E-05
0.1419997,-1.53569E-05
0.1429997,-1.517297E-05
0.1439997,-1.492773E-05
0.1449997,-1.47438E-05
0.1459997,-1.44066E-05
0.1469997,-1.419202E-05
0.1479997,-1.424825E-05
0.1489997,-1.412256E-05
0.1499997,-1.390185E-05
0.1509997,-1.373631E-05
0.1519997,-1.355545E-05
0.1529997,-1.34083E-05
0.1539997,-1.315387E-05
0.1549997,-1.301592E-05
0.1559997,-1.28044E-05
0.1569997,-1.264193E-05
0.1579997,-1.248866E-05
0.1589997,-1.228021E-05
0.1599997,-1.205949E-05
0.1609997,-1.182958E-05
0.1619997,-1.163952E-05
0.1629997,-1.153223E-05
0.1639997,-1.126553E-05
0.1649997,-1.112758E-05
0.1659997,-1.098044E-05
0.1669997,-1.076279E-05
0.1679997,-1.05758E-05
0.1689997,-1.0398E-05
0.1699997,-1.01497E-05
0.1709997,-9.993356E-06
0.1719997,-9.803296E-06
0.1729997,-9.585648E-06
0.1739997,-9.38026E-06
0.1749997,-9.217789E-06
0.1759997,-9.036926E-06
0.1769997,-8.874455E-06
0.1779997,-8.696657E-06
0.1789997,-8.509663E-06
0.1799997,-8.26749E-06
0.1809997,-8.11115E-06
0.1819997,-7.924155E-06
0.1829997,-7.709572E-06
0.1839997,-7.50725E-06
0.1849997,-7.369304E-06
0.1859997,-7.111802E-06
0.1869997,-7.007576E-06
0.1879997,-6.756206E-06
0.1889997,-6.507903E-06
0.1899997,-6.376087E-06
0.1909997,-6.152306E-06
0.1919997,-5.91933E-06
0.1929997,-5.772187E-06
0.1939997,-5.594389E-06
0.1949997,-5.389001E-06
0.1959997,-5.12537E-06
0.1969997,-5.021143E-06
0.1979997,-4.797364E-06
0.1989997,-4.656351E-06
0.1999997,-4.463226E-06
0.2009997,-4.239445E-06
0.2019997,-4.080041E-06
0.2029997,-3.899177E-06
0.2039997,-3.715248E-06
0.2049997,-3.543581E-06
0.2059997,-3.384176E-06
0.2069997,-3.191051E-06
0.2079997,-3.102152E-06
0.2089997,-2.921288E-06
0.2099997,-2.679115E-06
0.2109997,-2.430811E-06
0.2119997,-2.185572E-06
0.2129997,-1.964858E-06
0.2139997,-1.728815E-06
0.2149997,-1.578607E-06
0.2159997,-1.37935E-06
0.2169997,-1.201552E-06
0.2179997,-1.002296E-06
0.2189997,-8.398255E-07
0.2199997,-6.712239E-07
0.2209997,-5.210153E-07
0.2219997,-3.554792E-07
0.2229997,-1.255681E-07
0.2239997,1.012777E-07
0.2249997,3.035995E-07
0.2259997,5.488382E-07
0.2269997,7.695529E-07
0.2279997,1.048512E-06
0.2289997,1.266161E-06
0.2299997,1.397977E-06
0.2309997,1.670805E-06
0.2319997,1.827144E-06
0.2329997,2.05399E-06
0.2339997,2.247115E-06
0.2349997,2.440241E-06
0.2359997,2.618039E-06
0.2369997,2.832622E-06
0.2379997,3.025748E-06
0.2389997,3.286314E-06
0.2399997,3.519291E-06
0.2409997,3.825839E-06
0.2419997,4.086405E-06
0.2429997,4.282596E-06
0.2439997,4.583013E-06
0.2449997,4.763877E-06
0.2459997,5.018312E-06
0.2469997,5.26355E-06
0.2479997,5.505723E-06
0.2489997,5.708045E-06
0.2499997,5.92876E-06
0.2509997,6.124951E-06
0.2519997,6.388582E-06
0.2529997,6.600101E-06
0.2539997,6.738047E-06
0.2549997,7.050727E-06
0.2559997,7.363406E-06
0.2569997,7.602513E-06
0.2579997,7.93052E-06
0.2589997,8.206413E-06
0.2599997,8.476176E-06
0.2609997,8.715284E-06
0.2619997,9.00957E-06
0.2629997,9.165909E-06
0.2639997,9.457131E-06
0.2649997,9.705434E-06
0.2659997,9.907756E-06
0.2669997,1.014993E-05
0.2679997,1.052085E-05
0.2689997,1.077835E-05
0.2699997,1.110023E-05
0.2709997,1.146502E-05
0.2719997,1.17777E-05
0.2729997,1.201987E-05
0.2739997,1.226511E-05
0.2749997,1.253794E-05
0.2759997,1.281996E-05
0.2769997,1.310505E-05
0.2779997,1.328898E-05
0.2789997,1.359247E-05
0.2799997,1.391128E-05
0.2809997,1.421169E-05
0.2819997,1.459488E-05
0.2829997,1.494741E-05
0.2839997,1.522637E-05
0.2849997,1.558503E-05
0.2859997,1.579348E-05
0.2869997,1.614908E-05
0.2879997,1.648628E-05
0.2889997,1.674685E-05
0.2899997,1.700435E-05
0.2909997,1.73017E-05
0.2919997,1.766343E-05
0.2929997,1.800676E-05
0.2939997,1.831331E-05
0.2949997,1.868423E-05
0.2959997,1.914712E-05
0.2969997,1.946286E-05
0.2979997,1.982766E-05
0.2989997,2.011581E-05
0.2999997,2.047754E-05
0.3009997,2.075037E-05
0.3019997,2.106611E-05
0.3029997,2.141865E-05
0.3039997,2.180796E-05
0.3049997,2.219421E-05
0.3059997,2.262951E-05
0.3069997,2.30035E-05
0.3079997,2.340508E-05
0.3089997,2.369936E-05
0.3099997,2.408255E-05
0.3109997,2.480092E-05
0.3119997,2.510747E-05
0.3129997,2.547533E-05
0.3139997,2.587384E-05
0.3149997,2.618039E-05
0.3159997,2.664021E-05
0.3169997,2.706938E-05
0.3179997,2.749855E-05
0.3189997,2.798902E-05
0.3199997,2.835688E-05
0.3209997,2.872474E-05
0.3219997,2.918456E-05
0.3229997,2.955242E-05
0.3239997,2.995093E-05
0.3249997,3.03801E-05
0.3259997,3.077861E-05
0.3269997,3.114647E-05
0.3279997,3.154498E-05
0.3289997,3.203546E-05
0.3299997,3.243397E-05
0.3309997,3.286314E-05
0.3319997,3.335362E-05
0.3329997,3.375213E-05
0.3339997,3.430392E-05
0.3349997,3.476374E-05
0.3359997,3.51929E-05
0.3369997,3.565273E-05
0.3379997,3.611255E-05
0.3389997,3.657238E-05
0.3399997,3.709351E-05
0.3409997,3.758398E-05
0.3419997,3.79825E-05
0.3429997,3.850363E-05
0.3439997,3.899411E-05
0.3449997,3.942327E-05
0.3459997,4.000571E-05
0.3469997,4.037357E-05
0.3479997,4.092536E-05
0.3489997,4.144649E-05
0.3499997,4.193697E-05
0.3509997,4.242745E-05
0.3519997,4.294858E-05
0.3529997,4.346971E-05
0.3539997,4.396019E-05
0.3549997,4.451197E-05
0.3559997,4.500245E-05
0.3569997,4.549293E-05
0.3579997,4.607537E-05
0.3589997,4.65965E-05
0.3599997,4.708698E-05
0.3609997,4.760811E-05
0.3619997,4.822121E-05
0.3629997,4.871168E-05
0.3639997,4.935544E-05
0.3649997,4.987657E-05
0.3659997,5.03977E-05
0.3669997,5.113342E-05
0.3679997,5.162389E-05
0.3689997,5.223699E-05
0.3699997,5.288074E-05
0.3709997,5.352449E-05
0.3719997,5.41989E-05
0.3729997,5.478134E-05
0.3739997,5.542509E-05
0.3749997,5.613015E-05
0.3759997,5.67739E-05
0.3769997,5.741765E-05
0.3779997,5.812272E-05
0.3789997,5.879712E-05
0.3799997,5.947153E-05
0.3809997,6.011528E-05
0.3819997,6.082034E-05
0.3829997,6.15254E-05
0.3839997,6.229177E-05
0.3849997,6.296618E-05
0.3859997,6.373255E-05
0.3869997,6.446827E-05
0.3879997,6.523464E-05
0.3889997,6.603167E-05
0.3899997,6.685934E-05
0.3909997,6.771767E-05
0.3919997,6.85147E-05
0.3929997,6.937304E-05
0.3939997,7.026202E-05
0.3949997,7.099774E-05
0.3959997,7.204001E-05
0.3969997,7.289834E-05
0.3979997,7.375667E-05
0.3989997,7.476829E-05
0.3999997,7.559597E-05
0.4009997,7.660758E-05
0.4019997,7.76805E-05
0.4029997,7.853883E-05
0.4039997,7.96424E-05
0.4049997,8.071532E-05
0.4059997,8.172693E-05
0.4069997,8.283051E-05
0.4079997,8.399539E-05
0.4089997,8.516027E-05
0.4099997,8.647843E-05
0.4109997,8.761266E-05
0.4119997,8.883885E-05
0.4129997,9.012635E-05
0.4139997,9.153648E-05
0.4149997,9.282398E-05
0.4159997,9.429541E-05
0.4169997,9.573618E-05
0.4179997,9.723828E-05
0.4189997,9.877102E-05
0.4199997,0.0001004264
0.4209997,0.0001020204
0.4219997,0.0001036758
0.4229997,0.0001056683
0.4239997,0.0001073544
0.4249997,0.0001091936
0.4259997,0.0001113701
0.4269997,0.0001132094
0.4279997,0.0001156005
0.4289997,0.0001178996
0.4299997,0.0001201681
0.4309997,0.0001228044
0.4319997,0.0001254407
0.4329997,0.0001281383
0.4339997,0.0001311118
0.4349997,0.0001341773
0.4359997,0.0001375187
0.4369997,0.0001408907
0.4379997,0.0001446
0.4389997,0.0001486158
0.4399997,0.0001528155
0.4409997,0.000157475
0.4419997,0.0001624104
0.4429997,0.0001676218
0.4439997,0.0001736301
0.4449997,0.0001796078
0.4459997,0.0001864438
0.4469997,0.0001939849
0.4479997,0.0002019552
0.4489997,0.0002107224
0.4499997,0.0002204094
0.4509997,0.0002307094
0.4519997,0.0002423582
0.4529997,0.0002545282
0.4539997,0.000267955
0.4549997,0.0002828226
0.4559997,0.000298242
0.4569997,0.0003188219
0.4579997,0.0003369082
0.4589997,0.0003559142
0.4599997,0.0003770661
0.4609997,0.000398831
0.4619997,0.0004205959
0.4629997,0.000443587
0.4639997,0.000465352
0.4649997,0.0004868103
0.4659997,0.0005070425
0.4669997,0.0005254354
0.4679997,0.0005426022
0.4689997,0.0005573165
0.4699997,0.0005708046
0.4709997,0.0005839861
0.4719997,0.0005947153
0.4729997,0.0006066707
0.4739997,0.0006177064
0.4749997,0.0006281291
0.4759997,0.0006400845
0.4769997,0.0006511202
0.4779997,0.0006627691
0.4789997,0.0006759506
0.4799997,0.0006891322
0.4809997,0.0007032334
0.4819997,0.0007185608
0.4829997,0.0007345013
0.4839997,0.0007528943
0.4849997,0.0007715937
0.4859997,0.0007918259
0.4869997,0.0008142039
0.4879997,0.0008381146
0.4889997,0.0008638647
0.4899997,0.0008923737
0.4909997,0.0009218023
0.4919997,0.0009552161
0.4929997,0.0009898561
0.4939997,0.001027255
0.4949997,0.001067413
0.4959997,0.001109716
0.4969997,0.001155699
0.4979997,0.00120444
0.4989997,0.001256553
0.4999997,0.001312958
0.5009997,0.001371202
0.5019997,0.001433431
0.5029997,0.001500565
0.5039997,0.001569232
0.5049997,0.001643723
0.5059997,0.0017222
0.5069997,0.001802822
0.5079997,0.001891415
0.5089997,0.001980927
0.5099997,0.00207565
0.5109997,0.002176198
0.5119997,0.002281037
0.5129997,0.002389862
0.5139997,0.002504511
0.5149997,0.002621306
0.5159997,0.002746071
0.5169997,0.002873289
0.5179997,0.003006024
0.5189997,0.003172891
0.5199997,0.003310838
0.5209997,0.003457981
0.5219997,0.003611255
0.5229997,0.003767595
0.5239997,0.003930065
0.5249997,0.004098667
0.5259997,0.004270334
0.5269997,0.004445066
0.5279997,0.00462593
0.5289997,0.004812925
0.5299997,0.005002984
0.5309997,0.005199175
0.5319997,0.005401497
0.5329997,0.005603819
0.5339997,0.005812271
0.5349997,0.006026856
0.5359997,0.006244505
0.5369997,0.006465219
0.5379997,0.006692065
0.5389997,0.006921976
0.5399997,0.007158018
0.5409997,0.007397126
0.5419997,0.007636234
0.5429997,0.007881473
0.5439997,0.008132842
0.5449997,0.008384212
0.5459997,0.008641711
0.5469997,0.008902278
0.5479997,0.00916591
0.5489997,0.009432606
0.5499997,0.009705435
0.5509997,0.009978263
0.5519997,0.01025109
0.5529997,0.01053618
0.5539997,0.01081514
0.5549997,0.01110023
0.5559997,0.01139145
0.5569997,0.0116796
0.5579997,0.01197389
0.5589997,0.01227124
0.5599997,0.01256859
0.5609997,0.01286901
0.5619997,0.01317556
0.5629997,0.01348211
0.5639997,0.01379172
0.5649997,0.0141044
0.5659997,0.01441401
0.5669997,0.01472976
0.5679997,0.0150455
0.5689997,0.01537045
0.5699997,0.01569232
0.5709997,0.01601726
0.5719997,0.0163422
0.5729997,0.01667021
0.5739997,0.01699822
0.5749997,0.01732622
0.5759997,0.01766343
0.5769997,0.01799756
0.5779997,0.0183317
0.5789997,0.0186781
0.5799997,0.01901837
0.5809997,0.01935557
0.5819997,0.01970197
0.5829997,0.02004531
0.5839997,0.02038864
0.5849997,0.02074424
0.5859997,0.02109064
0.5869997,0.02143397
0.5879997,0.0217957
0.5889997,0.02213903
0.5899997,0.02249463
0.5909997,0.02285942
0.5919997,0.02320275
0.5929997,0.02357061
0.5939997,0.02393541
0.5949997,0.024291
0.5959997,0.02465579
0.5969997,0.02502059
0.5979997,0.02537925
0.5989997,0.02574097
0.5999997,0.02611803
0.6009997,0.02647976
0.6019997,0.02684761
0.6029997,0.02722467
0.6039997,0.02759559
0.6049997,0.02796345
0.6059997,0.02834357
0.6069997,0.02871143
0.6079997,0.02908848
0.6089997,0.02947473
0.6099997,0.02984565
0.6109997,0.03096254
0.6119997,0.03136105
0.6129997,0.03172891
0.6139997,0.03209677
0.6149997,0.03249529
0.6159997,0.03286314
0.6169997,0.03326165
0.6179997,0.03366017
0.6189997,0.03405868
0.6199997,0.03442654
0.6209997,0.03482505
0.6219997,0.03522356
0.6229997,0.03562208
0.6239997,0.03602059
0.6249997,0.03638845
0.6259997,0.03678696
0.6269997,0.03718547
0.6279997,0.03758398
0.6289997,0.0379825
0.6299997,0.03841167
0.6309997,0.03877952
0.6319997,0.03917804
0.6329997,0.0396072
0.6339997,0.04000572
0.6349997,0.04037357
0.6359997,0.04080274
0.6369997,0.04120126
0.6379997,0.04159977
0.6389997,0.04202893
0.6399997,0.04242745
0.6409997,0.04282596
0.6419997,0.04325513
0.6429997,0.04365364
0.6439997,0.04405215
0.6449997,0.04445067
0.6459997,0.04484918
0.6469997,0.04527835
0.6479997,0.04567686
0.6489997,0.04610603
0.6499997,0.04650454
0.6509997,0.04693371
0.6519997,0.04733222
0.6529997,0.04776139
0.6539997,0.0481599
0.6549997,0.04855841
0.6559997,0.04898758
0.6569997,0.04941675
0.6579997,0.04981526
0.6589997,0.05021377
0.6599997,0.05064294
0.6609997,0.05104145
0.6619997,0.05147062
0.6629997,0.05186913
0.6639997,0.0522983
0.6649997,0.05272747
0.6659997,0.05312598
0.6669997,0.05355515
0.6679997,0.05398431
0.6689997,0.05438283
0.6699997,0.05484265
0.6709997,0.05524116
0.6719997,0.05567033
0.6729997,0.0560995
0.6739997,0.05649801
0.6749997,0.05692718
0.6759997,0.05735635
0.6769997,0.05778552
0.6779997,0.05818403
0.6789997,0.05864385
0.6799997,0.05907302
0.6809997,0.05947153
0.6819997,0.05993135
0.6829997,0.06032987
0.6839997,0.06075903
0.6849997,0.0611882
0.6859997,0.06161737
0.6869997,0.06204654
0.6879997,0.06247571
0.6889997,0.06293552
0.6899997,0.06333404
0.6909997,0.06376321
0.6919997,0.06419238
0.6929997,0.06462154
0.6939997,0.06505071
0.6949997,0.06547987
0.6959997,0.06590905
0.6969997,0.06636887
0.6979997,0.06676738
0.6989997,0.06722721
0.6999997,0.06734982
0.6990004,0.06692065
0.6980004,0.06652214
0.6970004,0.06612363
0.6960004,0.06569446
0.6950004,0.06526529
0.6940004,0.06486678
0.6930004,0.06443761
0.6920004,0.06400844
0.6910004,0.06360994
0.6900004,0.06318077
0.6890004,0.0627516
0.6880004,0.06235309
0.6870004,0.06192392
0.6860004,0.06149475
0.6850004,0.06109623
0.6840004,0.06066707
0.6830004,0.06026856
0.6820004,0.05987004
0.6810004,0.05944088
0.6800004,0.05904236
0.6790004,0.05861319
0.6780004,0.05821468
0.6770004,0.05778552
0.6760004,0.057387
0.6750004,0.05698849
0.6740004,0.05655932
0.6730004,0.05616081
0.6720004,0.05573164
0.6710004,0.05533313
0.6700004,0.05493462
0.6690004,0.0545361
0.6680004,0.05410693
0.6670004,0.05370842
0.6660004,0.05327926
0.6650004,0.05288074
0.6640004,0.05248223
0.6630004,0.05205306
0.6620004,0.0516852
0.6610004,0.05125604
0.6600004,0.05085753
0.6590004,0.05045901
0.6580004,0.05002984
0.6570004,0.04963133
0.6560004,0.04923282
0.6550004,0.04883431
0.6540004,0.04843579
0.6530004,0.04803728
0.6520004,0.04760811
0.6510004,0.04724025
0.6500004,0.04684174
0.6490004,0.04644323
0.6480004,0.04604472
0.6470004,0.0456462
0.6460004,0.04521704
0.6450004,0.04481852
0.6440004,0.04445067
0.6430004,0.0440215
0.6420004,0.04362299
0.6410004,0.04325513
0.6400004,0.04285662
0.6390004,0.0424581
0.6380004,0.04205959
0.6370004,0.04166108
0.6360004,0.04126256
0.6350004,0.04089471
0.6340004,0.04049619
0.6330004,0.04009768
0.6320004,0.03972982
0.6310004,0.03933131
0.6300004,0.0389328
0.6290004,0.03853428
0.6280004,0.03813577
0.6270004,0.03776791
0.6260004,0.0373694
0.6250004,0.03697089
0.6240004,0.03660303
0.6230004,0.03623517
0.6220004,0.03583666
0.6210004,0.03543815
0.6200004,0.03507029
0.6190004,0.03467178
0.6180004,0.03430392
0.6170004,0.03393606
0.6160004,0.0335682
0.6150004,0.03316969
0.6140004,0.03280183
0.6130004,0.03240332
0.6120004,0.03203546
0.6110004,0.0316676
0.6100004,0.03126909
0.6090004,0.03093189
0.6080004,0.03056403
0.6070004,0.03016552
0.6060004,0.02979766
0.6050004,0.0294298
0.6040004,0.02906194
0.6030004,0.02869408
0.6020004,0.02832623
0.6010004,0.02795837
0.6000004,0.02759051
0.5990004,0.02722265
0.5980004,0.02688545
0.5970004,0.02651759
0.5960004,0.02614973
0.5950004,0.02578188
0.5940004,0.02544468
0.5930004,0.02507682
0.5920004,0.02470896
0.5910004,0.02437175
0.5900004,0.02403455
0.5890004,0.02366669
0.5880004,0.02332949
0.5870004,0.02296163
0.5860004,0.02262443
0.5850004,0.02228723
0.5840004,0.02195002
0.5830004,0.02158217
0.5820004,0.02124496
0.5810004,0.02090776
0.5800004,0.02057056
0.5790004,0.02023335
0.5780004,0.01989615
0.5770004,0.01955895
0.5760004,0.01922174
0.5750004,0.01888454
0.5740004,0.01857799
0.5730004,0.01824079
0.5720004,0.01793424
0.5710004,0.01759704
0.5700004,0.01729049
0.5690004,0.01695329
0.5680004,0.01664674
0.5670004,0.01634019
0.5660004,0.01600299
0.5650004,0.01569644
0.5640004,0.01538989
0.5630004,0.01508334
0.5620004,0.01477679
0.5610004,0.01447024
0.5600004,0.0141637
0.5590004,0.01385715
0.5580004,0.0135506
0.5570004,0.01327471
0.5560004,0.01249502
0.5550004,0.01220993
0.5540004,0.01193097
0.5530004,0.01164282
0.5520004,0.01136693
0.5510004,0.01109103
0.5500004,0.01081514
0.5490004,0.01054538
0.5480004,0.01027868
0.5470004,0.01001198
0.5460004,0.009748352
0.5450004,0.009490851
0.5440004,0.009230284
0.5430004,0.008972785
0.5420004,0.008727546
0.5410004,0.008476176
0.5400004,0.008230938
0.5390004,0.007994896
0.5380004,0.007752722
0.5370004,0.00751668
0.5360004,0.007286769
0.5350004,0.007056858
0.5340004,0.006833077
0.5330004,0.006612363
0.5320004,0.006394713
0.5310004,0.006180129
0.5300004,0.005968611
0.5290004,0.005760158
0.5280004,0.005560902
0.5270004,0.00535858
0.5260004,0.005162389
0.5250004,0.004972329
0.5240004,0.00478227
0.5230004,0.004601406
0.5220004,0.004423608
0.5210004,0.00424581
0.5200004,0.004074143
0.5190004,0.003908607
0.5180004,0.003743071
0.5170004,0.003586731
0.5160004,0.003430392
0.5150004,0.003280183
0.5140004,0.003136105
0.5130004,0.002992028
0.5120004,0.002851016
0.5110004,0.002716134
0.5100004,0.002587384
0.5090004,0.002461699
0.5080004,0.00233908
0.5070004,0.002222592
0.5060004,0.002109169
0.5050004,0.001998811
0.5040004,0.001894585
0.5030004,0.001793424
0.5020004,0.001695329
0.5010004,0.001603364
0.5000004,0.001508334
0.4990004,0.001422501
0.4980004,0.001339733
0.4970004,0.00126003
0.4960004,0.001155392
0.4950004,0.001082434
0.4940004,0.001012847
0.4930004,0.0009469393
0.4920004,0.0008822576
0.4910004,0.0008227873
0.4900004,0.0007648497
0.4890004,0.0007096709
0.4880004,0.0006587839
0.4870004,0.0006082035
0.4860004,0.0005616081
0.4850004,0.0005174651
0.4840004,0.0004745484
0.4830004,0.0004350037
0.4820004,0.0003972982
0.4810004,0.000360819
0.4800004,0.0003277118
0.4790004,0.0002952177
0.4780004,0.0002648694
0.4770004,0.000236667
0.4760004,0.0002096907
0.4750004,0.0001851668
0.4740004,0.000160643
0.4730004,0.0001379584
0.4720004,0.0001183393
0.4710004,9.718748E-05
0.4700004,7.48909E-05
0.4690004,5.855188E-05
0.4680004,4.123191E-05
0.4670004,2.636432E-05
0.4660004,1.244703E-05
0.4650004,-2.052706E-06
0.4640004,-1.370154E-05
0.4630004,-2.596347E-05
0.4620004,-3.72751E-05
0.4610004,-4.760578E-05
0.4600004,-5.778318E-05
0.4590004,-6.627457E-05
0.4580004,-7.491923E-05
0.4570004,-8.325734E-05
0.4560004,-9.015467E-05
0.4550004,-9.778772E-05
0.4540004,-0.0001042865
0.4530004,-0.0001102029
0.4520004,-0.0001165791
0.4510004,-0.0001213306
0.4500004,-0.000126542
0.4490004,-0.0001315387
0.4480004,-0.0001354625
0.4470004,-0.0001401833
0.4460004,-0.0001438619
0.4450004,-0.0001470807
0.4440004,-0.0001515256
0.4430004,-0.0001541313
0.4420004,-0.0001570742
0.4410004,-0.0001605995
0.4400004,-0.0001624694
0.4390004,-0.0001655656
0.4380004,-0.0001678034
0.4370004,-0.0001696733
0.4360004,-0.0001721563
0.4350004,-0.0001736278
0.4340004,-0.0001752525
0.4330004,-0.0001773064
0.4320004,-0.0001785019
0.4310004,-0.0001803718
0.4300004,-0.0001815674
0.4290004,-0.0001828549
0.4280004,-0.0001842037
0.4270004,-0.0001847861
0.4260004,-0.0001858897
0.4250004,-0.0001867787
0.4240004,-0.0001869013
0.4230004,-0.0001881275
0.4220004,-0.0001886486
0.4210004,-0.0001888632
0.4200004,-0.0001896602
0.4190004,-0.0001896602
0.4180004,-0.0001896909
0.4170004,-0.0001901814
0.4160004,-0.0001896909
0.4150004,-0.0001897522
0.4140004,-0.0001896296
0.4130004,-0.0001889245
0.4120004,-0.0001888326
0.4110004,-0.0001880049
0.4100004,-0.0001881582
0.4090004,-0.0001874531
0.4080004,-0.0001861656
0.4070004,-0.0001854912
0.4060004,-0.0001844183
0.4050004,-0.0001831001
0.4040004,-0.0001821805
0.4030004,-0.000180709
0.4020004,-0.0001792683
0.4010004,-0.0001778888
0.4000004,-0.0001760495
0.3990004,-0.0001745168
0.3980004,-0.0001727694
0.3970004,-0.0001708995
0.3960004,-0.0001692441
0.3950004,-0.0001672822
0.3940004,-0.0001654123
0.3930004,-0.0001635117
0.3920004,-0.0001614271
0.3910004,-0.0001597105
0.3900004,-0.0001576566
0.3890004,-0.000155664
0.3880004,-0.0001539167
0.3870004,-0.0001519241
0.3860004,-0.0001499316
0.3850004,-0.0001479697
0.3840004,-0.0001457932
0.3830004,-0.0001441378
0.3820004,-0.0001422066
0.3810004,-0.0001403979
0.3800004,-0.0001387732
0.3790004,-0.0001369953
0.3780004,-0.0001353092
0.3770004,-0.0001338072
0.3760004,-0.0001320598
0.3750004,-0.000130619
0.3740004,-0.0001290863
0.3730004,-0.0001275842
0.3720004,-0.0001261434
0.3710004,-0.0001247333
0.3700004,-0.0001232926
0.3690004,-0.0001218824
0.3680004,-0.0001204416
0.3670004,-0.0001191235
0.3660004,-0.0001178666
0.3650004,-0.0001166098
0.3640004,-0.0001154756
0.3630004,-0.0001142494
0.3620004,-0.0001130538
0.3610004,-0.0001119809
0.3600004,-0.0001107854
0.3590004,-0.0001098657
0.3580004,-0.0001087315
0.3570004,-0.0001076586
0.3560004,-0.0001067696
0.3550004,-0.000105666
0.3540004,-0.0001047157
0.3530004,-0.0001037961
0.3520004,-0.0001027845
0.3510004,-0.0001020488
0.3500004,-0.0001012517
0.3490004,-0.0001004547
0.3480004,-9.978029E-05
0.3470004,-9.916719E-05
0.3460004,-9.852344E-05
0.3450004,-9.803296E-05
0.3440004,-9.738921E-05
0.3430004,-9.702136E-05
0.3420004,-9.656153E-05
0.3410004,-9.613237E-05
0.3400004,-9.567254E-05
0.3390004,-9.533534E-05
0.3380004,-9.493683E-05
0.3370004,-9.459963E-05
0.3360004,-9.41398E-05
0.3350004,-9.404783E-05
0.3340004,-9.383325E-05
0.3330004,-9.355736E-05
0.3320004,-9.352671E-05
0.3310004,-9.331212E-05
0.3300004,-9.31895E-05
0.3290004,-9.315884E-05
0.3280004,-9.297491E-05
0.3270004,-9.288295E-05
0.3260004,-9.276033E-05
0.3250004,-9.266837E-05
0.3240004,-9.266837E-05
0.3230004,-9.266837E-05
0.3220004,-9.266837E-05
0.3210004,-9.260706E-05
0.3200004,-9.269903E-05
0.3190004,-9.269903E-05
0.3180004,-9.279099E-05
0.3170004,-9.282165E-05
0.3160004,-9.294426E-05
0.3150004,-9.294426E-05
0.3140004,-9.303623E-05
0.3130004,-9.306688E-05
0.3120004,-9.315884E-05
0.3110004,-9.331212E-05
0.3100004,-9.337343E-05
0.3090004,-9.337343E-05
0.3080004,-9.349606E-05
0.3070004,-9.361867E-05
0.3060004,-9.361867E-05
0.3050004,-9.383325E-05
0.3040004,-9.395587E-05
0.3030004,-9.404783E-05
0.3020004,-9.423176E-05
0.3010004,-9.432372E-05
0.3000004,-9.450765E-05
0.2990004,-9.466094E-05
0.2980004,-9.481421E-05
0.2970004,-9.496748E-05
0.2960004,-9.512075E-05
0.2950004,-9.542731E-05
0.2940004,-9.548861E-05
0.2930004,-9.564189E-05
0.2920004,-9.591779E-05
0.2910004,-9.607105E-05
0.2900004,-9.628564E-05
0.2890004,-9.653088E-05
0.2880004,-9.662284E-05
0.2870004,-9.689873E-05
0.2860004,-9.705201E-05
0.2850004,-9.714397E-05
0.2840004,-9.735856E-05
0.2830004,-9.745052E-05
0.2820004,-9.766511E-05
0.2810004,-9.787969E-05
0.2800004,-9.80023E-05
0.2790004,-9.824755E-05
0.2780004,-9.846213E-05
0.2770004,-9.864606E-05
0.2760004,-9.889129E-05
0.2750004,-9.913654E-05
0.2740004,-9.928981E-05
0.2730004,-9.95657E-05
0.2720004,-9.981095E-05
0.2710004,-0.0001000868
0.2700004,-0.0001002708
0.2690004,-0.000100516
0.2680004,-0.0001006386
0.2670004,-0.0001008532
0.2660004,-0.0001010371
0.2650004,-0.0001011598
0.2640004,-0.000101405
0.2630004,-0.0001016809
0.2620004,-0.0001018648
0.2610004,-0.0001021101
0.2600004,-0.000102386
0.2590004,-0.0001025392
0.2580004,-0.0001028151
0.2570004,-0.0001030604
0.2560004,-0.0001032443
0.2550004,-0.0001035508
0.2540004,-0.0001037961
0.2530004,-0.00010398
0.2520004,-0.0001042865
0.2510004,-0.0001044092
0.2500004,-0.0001046544
0.2490004,-0.000104961
0.2480004,-0.0001050836
0.2470004,-0.0001052982
0.2460004,-0.0001055434
0.2450004,-0.000105666
0.2440004,-0.0001059419
0.2430004,-0.0001061565
0.2420004,-0.0001063404
0.2410004,-0.000106647
0.2400004,-0.0001068309
0.2390004,-0.0001070455
0.2380004,-0.0001073214
0.2370004,-0.0001075666
0.2360004,-0.0001078119
0.2350004,-0.0001080571
0.2340004,-0.0001083637
0.2330004,-0.0001085476
0.2320004,-0.0001087928
0.2310004,-0.0001090687
0.2300004,-0.0001092526
0.2290004,-0.0001095285
0.2280004,-0.0001097738
0.2270004,-0.0001099577
0.2260004,-0.000110111
0.2250004,-0.0001103869
0.2240004,-0.0001105708
0.2230004,-0.000110816
0.2220004,-0.0001110613
0.2210004,-0.0001113065
0.2200004,-0.0001115824
0.2190004,-0.0001118276
0.2180004,-0.0001121035
0.2170004,-0.0001123794
0.2160004,-0.0001125634
0.2150004,-0.0001128393
0.2140004,-0.0001129925
0.2130004,-0.0001132378
0.2120004,-0.0001134523
0.2110004,-0.000113575
0.2100004,-0.0001138202
0.2090004,-0.0001140654
0.2080004,-0.0001142187
0.2070004,-0.000114464
0.2060004,-0.0001147398
0.2050004,-0.0001149238
0.2040004,-0.000115261
0.2030004,-0.0001154756
0.2020004,-0.0001155982
0.2010004,-0.0001159047
0.2000004,-0.0001161193
0.1990004,-0.0001163952
0.1980004,-0.0001166404
0.1970004,-0.0001167324
0.1960004,-0.0001169163
0.1950004,-0.0001171616
0.1940004,-0.0001173455
0.1930004,-0.0001174988
0.1920004,-0.0001176521
0.1910004,-0.0001178666
0.1900004,-0.0001179893
0.1890004,-0.0001182651
0.1880004,-0.0001185104
0.1870004,-0.000118633
0.1860004,-0.0001187863
0.1850004,-0.0001190928
0.1840004,-0.0001192155
0.1830004,-0.00011943
0.1820004,-0.0001196446
0.1810004,-0.0001197979
0.1800004,-0.0001199512
0.1790004,-0.0001201964
0.1780004,-0.0001202577
0.1770004,-0.0001203803
0.1760004,-0.0001204416
0.1750004,-0.0001205949
0.1740004,-0.0001207789
0.1730004,-0.0001209321
0.1720004,-0.0001210241
0.1710004,-0.000121208
0.1700004,-0.0001213613
0.1690004,-0.0001214839
0.1680004,-0.0001216065
0.1670004,-0.0001217905
0.1660004,-0.0001218824
0.1650004,-0.0001220357
0.1640004,-0.0001222503
0.1630004,-0.0001222503
0.1620004,-0.0001224036
0.1610004,-0.0001225875
0.1600004,-0.0001224955
0.1590004,-0.0001227101
0.1580004,-0.0001227714
0.1570004,-0.0001227101
0.1560004,-0.0001228327
0.1550004,-0.0001229247
0.1540004,-0.0001229247
0.1530004,-0.000122986
0.1520004,-0.000123078
0.1510004,-0.0001231086
0.1500004,-0.0001231086
0.1490004,-0.0001232006
0.1480004,-0.0001232312
0.1470004,-0.0001232619
0.1460004,-0.0001233232
0.1450004,-0.0001233232
0.1440004,-0.0001232619
0.1430004,-0.0001233539
0.1420004,-0.0001232926
0.1410004,-0.0001232619
0.1400004,-0.0001232926
0.1390004,-0.0001232006
0.1380004,-0.0001230473
0.1370004,-0.0001230167
0.1360004,-0.0001228634
0.1350004,-0.0001227714
0.1340004,-0.0001228021
0.1330004,-0.0001226794
0.1320004,-0.0001225875
0.1310004,-0.0001225262
0.1300004,-0.0001224036
0.1290004,-0.0001222196
0.1280004,-0.000122097
0.1270004,-0.0001220664
0.1260004,-0.0001218518
0.1250004,-0.0001217598
0.1240004,-0.0001216065
0.1230004,-0.0001214839
0.1220004,-0.0001212693
0.1210004,-0.000121116
0.1200004,-0.0001208402
0.1190004,-0.0001206256
0.1180004,-0.000120411
0.1170004,-0.0001201351
0.1160004,-0.0001199512
0.1150004,-0.0001197672
0.1140004,-0.0001193381
0.1130004,-0.0001191541
0.1120004,-0.0001188783
0.1110004,-0.0001186024
0.1100004,-0.0001183265
0.1090004,-0.0001180812
0.1080004,-0.0001177747
0.1070004,-0.0001174988
0.1060004,-0.0001171922
0.1050004,-0.000117039
0.1040004,-0.0001166711
0.1030004,-0.0001165485
0.1020004,-0.0001162419
0.1010004,-0.000115966
0.1000004,-0.0001158128
0.09900038,-0.0001154756
0.09800038,-0.000115169
0.09700038,-0.0001150157
0.09600038,-0.0001147705
0.09500038,-0.000114464
0.09400038,-0.000114372
0.09300038,-0.0001140348
0.09200038,-0.0001139122
0.09100038,-0.0001136976
0.09000038,-0.0001134523
0.08900038,-0.0001133297
0.08800038,-0.0001131458
0.08700038,-0.0001129006
0.08600038,-0.0001127779
0.08500038,-0.0001126247
0.08400038,-0.0001124101
0.08300038,-0.0001123181
0.08200038,-0.0001121035
0.08100038,-0.0001119196
0.08000038,-0.0001117663
0.07900038,-0.0001117357
0.07800038,-0.0001116131
0.07700038,-0.0001114598
0.07600038,-0.0001114291
0.07500038,-0.0001113065
0.07400038,-0.0001112145
0.07300038,-0.0001111839
0.07200038,-0.000111
0.07100038,-0.0001110613
0.07000038,-0.0001109387
0.06900038,-0.000110816
0.06800038,-0.000110816
0.06700038,-0.0001107854
0.06600038,-0.0001106321
0.06500039,-0.0001107241
0.06400038,-0.0001106321
0.06300038,-0.0001106321
0.06200038,-0.0001106014
0.06100038,-0.0001105401
0.06000038,-0.0001105095
0.05900038,-0.0001105401
0.05800038,-0.0001104788
0.05700038,-0.0001104788
0.05600038,-0.0001104175
0.05500038,-0.0001103562
0.05400038,-0.0001103256
0.05300038,-0.0001102336
0.05200038,-0.0001102029
0.05100038,-0.0001102949
0.05000038,-0.0001102336
0.04900038,-0.0001102336
0.04800038,-0.0001102336
0.04700038,-0.0001103256
0.04600038,-0.0001102642
0.04500038,-0.0001102949
0.04400038,-0.0001101416
0.04300038,-0.0001101723
0.04200038,-0.0001101723
0.04100038,-0.0001102642
0.04000038,-0.0001101723
0.03900038,-0.0001101723
0.03800038,-0.0001102642
0.03700038,-0.0001102029
0.03600038,-0.0001102336
0.03500038,-0.0001102642
0.03400038,-0.0001102336
0.03300038,-0.0001102029
0.03200038,-0.000110111
0.03100038,-0.0001100803
0.03000038,-0.0001102029
0.02900038,-0.0001101416
0.02800038,-0.0001102029
0.02700038,-0.0001102029
0.02600038,-0.0001102336
0.02500038,-0.0001102029
0.02400038,-0.0001102029
0.02300038,-0.0001101723
0.02200038,-0.0001101723
0.02100038,-0.0001101416
0.02000038,-0.0001100497
0.01900038,-0.0001099884
0.01800038,-0.000110019
0.01700038,-0.000109927
0.01600038,-0.0001098964
0.01500038,-0.000109927
0.01400038,-0.0001097738
0.01300038,-0.0001098657
0.01200038,-0.0001098964
0.01100038,-0.0001098044
0.01000038,-0.0001097738
0.009000381,-0.0001097431
0.008000381,-0.0001094979
0.007000382,-0.0001095592
0.006000381,-0.0001094059
0.005000381,-0.00010913
0.004000382,-0.00010913
0.003000381,-0.0001090994
0.002000381,-0.0001088235
0.001000381,-0.0001087622
3.814697E-07,-0.000106555
0.0009996186,-0.0001047157
0.001999618,-0.0001035815
0.002999618,-0.0001025086
0.003999618,-0.0001012824
0.004999619,-0.0001003014
0.005999619,-9.935112E-05
0.006999618,-9.821689E-05
0.007999619,-9.726659E-05
0.008999619,-9.63163E-05
0.009999619,-9.518206E-05
0.01099962,-9.417046E-05
0.01199962,-9.312819E-05
0.01299962,-9.199396E-05
0.01399962,-9.104366E-05
0.01499962,-9.006271E-05
0.01599962,-8.898979E-05
0.01699962,-8.81008E-05
0.01799962,-8.71505E-05
0.01899962,-8.610824E-05
0.01999962,-8.512728E-05
0.02099962,-8.420764E-05
0.02199962,-8.313472E-05
0.02299962,-8.224573E-05
0.02399962,-8.129543E-05
0.02499962,-8.031447E-05
0.02599962,-7.933352E-05
0.02699962,-7.838322E-05
0.02799962,-7.73103E-05
0.02899962,-7.639066E-05
0.02999962,-7.547101E-05
0.03099962,-7.433679E-05
0.03199962,-7.347845E-05
0.03299962,-7.249749E-05
0.03399962,-7.148589E-05
0.03499962,-7.062755E-05
0.03599962,-6.967725E-05
0.03699962,-6.86963E-05
0.03799962,-6.783796E-05
0.03899962,-6.688766E-05
0.03999962,-6.599867E-05
0.04099962,-6.517099E-05
0.04199962,-6.4282E-05
0.04299962,-6.33317E-05
0.04399962,-6.259599E-05
0.04499962,-6.173765E-05
0.04599962,-6.094063E-05
0.04699962,-6.008229E-05
0.04799962,-5.91933E-05
0.04899962,-5.842693E-05
0.04999962,-5.769121E-05
0.05099962,-5.683288E-05
0.05199962,-5.597454E-05
0.05299962,-5.520818E-05
0.05399962,-5.44418E-05
0.05499962,-5.367543E-05
0.05599962,-5.293972E-05
0.05699962,-5.223465E-05
0.05799962,-5.156024E-05
0.05899962,-5.09165E-05
0.05999962,-5.024209E-05
0.06099962,-4.953703E-05
0.06199962,-4.895459E-05
0.06299962,-4.821887E-05
0.06399962,-4.766709E-05
0.06499962,-4.705399E-05
0.06599962,-4.637958E-05
0.06699962,-4.58278E-05
0.06799962,-4.524535E-05
0.06899962,-4.466291E-05
0.06999962,-4.414178E-05
0.07099961,-4.352869E-05
0.07199962,-4.300755E-05
0.07299962,-4.245577E-05
0.07399962,-4.193463E-05
0.07499962,-4.14135E-05
0.07599962,-4.092303E-05
0.07699962,-4.04632E-05
0.07799962,-3.997273E-05
0.07899962,-3.942094E-05
0.07999962,-3.893046E-05
0.08099962,-3.850129E-05
0.08199961,-3.804147E-05
0.08299962,-3.7551E-05
0.08399962,-3.702986E-05
0.08499962,-3.660069E-05
0.08599962,-3.614087E-05
0.08699962,-3.568105E-05
0.08799962,-3.522123E-05
0.08899962,-3.482271E-05
0.08999962,-3.445486E-05
0.09099962,-3.399503E-05
0.09199962,-3.356587E-05
0.09299962,-3.319801E-05
0.09399962,-3.283015E-05
0.09499962,-3.240098E-05
0.09599962,-3.209443E-05
0.09699962,-3.175723E-05
0.09799962,-3.135872E-05
0.09899962,-3.105217E-05
0.09999962,-3.0623E-05
0.1009996,-3.031645E-05
0.1019996,-2.997925E-05
0.1029996,-2.964205E-05
0.1039996,-2.930485E-05
0.1049996,-2.902895E-05
0.1059996,-2.86611E-05
0.1069996,-2.835455E-05
0.1079996,-2.798669E-05
0.1089996,-2.761883E-05
0.1099996,-2.725097E-05
0.1109996,-2.694442E-05
0.1119996,-2.666853E-05
0.1129996,-2.639264E-05
0.1139996,-2.611674E-05
0.1149996,-2.58102E-05
0.1159996,-2.556496E-05
0.1169996,-2.531972E-05
0.1179996,-2.498252E-05
0.1189996,-2.464531E-05
0.1199996,-2.440007E-05
0.1209996,-2.403222E-05
0.1219996,-2.372567E-05
0.1229996,-2.348043E-05
0.1239996,-2.317388E-05
0.1249996,-2.292864E-05
0.1259996,-2.271406E-05
0.1269996,-2.243817E-05
0.1279996,-2.219293E-05
0.1289996,-2.191703E-05
0.1299996,-2.167179E-05
0.1309996,-2.145721E-05
0.1319996,-2.121197E-05
0.1329996,-2.093608E-05
0.1339996,-2.069084E-05
0.1349996,-2.035364E-05
0.1359996,-2.01084E-05
0.1369996,-1.989381E-05
0.1379996,-1.958727E-05
0.1389996,-1.928072E-05
0.1399996,-1.903548E-05
0.1409996,-1.875959E-05
0.1419996,-1.8545E-05
0.1429996,-1.833042E-05
0.1439996,-1.805452E-05
0.1449996,-1.78706E-05
0.1459996,-1.762536E-05
0.1469996,-1.741077E-05
0.1479996,-1.716554E-05
0.1489996,-1.695095E-05
0.1499996,-1.679768E-05
0.1509996,-1.652178E-05
0.1519996,-1.627654E-05
0.1529996,-1.606196E-05
0.1539996,-1.578607E-05
0.1549996,-1.544886E-05
0.1559996,-1.523428E-05
0.1569996,-1.50197E-05
0.1579996,-1.483577E-05
0.1589996,-1.459053E-05
0.1599996,-1.44066E-05
0.1609996,-1.419202E-05
0.1619996,-1.394678E-05
0.1629996,-1.388547E-05
0.1639996,-1.386813E-05
0.1649996,-1.364128E-05
0.1659996,-1.339604E-05
0.1669996,-1.310482E-05
0.1679996,-1.288104E-05
0.1689996,-1.265726E-05
0.1699996,-1.23967E-05
0.1709996,-1.222503E-05
0.1719996,-1.200738E-05
0.1729996,-1.188169E-05
0.1739996,-1.16947E-05
0.1749996,-1.147705E-05
0.1759996,-1.119196E-05
0.1769996,-1.094979E-05
0.1779996,-1.062485E-05
0.1789996,-1.044092E-05
0.1799996,-1.019261E-05
0.1809996,-1.000255E-05
0.1819996,-9.809428E-06
0.1829996,-9.567254E-06
0.1839996,-9.456897E-06
0.1849996,-9.239247E-06
0.1859996,-8.966419E-06
0.1869996,-8.785556E-06
0.1879996,-8.423829E-06
0.1889996,-8.157132E-06
0.1899996,-7.976269E-06
0.1909996,-7.718769E-06
0.1919996,-7.47966E-06
0.1929996,-7.274273E-06
0.1939996,-7.05969E-06
0.1949996,-6.866564E-06
0.1959996,-6.61826E-06
0.1969996,-6.403676E-06
0.1979996,-6.228944E-06
0.1989996,-6.017426E-06
0.1999996,-5.713942E-06
0.2009996,-5.441115E-06
0.2019996,-5.146828E-06
0.2029996,-4.843346E-06
0.2039996,-4.598107E-06
0.2049996,-4.349803E-06
0.2059996,-4.104565E-06
0.2069996,-3.88385E-06
0.2079996,-3.684593E-06
0.2089996,-3.497599E-06
0.2099996,-3.292211E-06
0.2109996,-3.02858E-06
0.2119996,-2.691377E-06
0.2129996,-2.381763E-06
0.2139996,-2.142656E-06
0.2149996,-1.814649E-06
0.2159996,-1.560214E-06
0.2169996,-1.296582E-06
0.2179996,-1.054409E-06
0.2189996,-8.582184E-07
0.2199996,-5.332772E-07
0.2209996,-2.972351E-07
0.2219996,-1.041097E-07
0.2229996,1.871112E-07
0.2239996,5.273798E-07
0.2249996,8.860412E-07
0.2259996,1.204851E-06
0.2269996,1.434763E-06
0.2279996,1.790359E-06
0.2289996,2.060121E-06
0.2299996,2.222592E-06
0.2309996,2.568991E-06
0.2319996,2.81423E-06
0.2329996,3.050272E-06
0.2339996,3.415064E-06
0.2349996,3.752267E-06
0.2359996,4.113994E-06
0.2369996,4.478787E-06
0.2379996,4.733222E-06
0.2389996,5.030573E-06
0.2399996,5.300336E-06
0.2409996,5.591557E-06
0.2419996,5.821468E-06
0.2429996,6.155606E-06
0.2439996,6.560249E-06
0.2449996,6.903583E-06
0.2459996,7.280638E-06
0.2469996,7.685281E-06
0.2479996,7.878407E-06
0.2489996,8.221741E-06
0.2499996,8.491504E-06
0.2509996,8.742873E-06
0.2519996,9.196564E-06
0.2529996,9.58588E-06
0.2539996,9.996656E-06
0.2549996,1.036145E-05
0.2559996,1.07385E-05
0.2569996,1.105118E-05
0.2579996,1.136692E-05
0.2589996,1.165508E-05
0.2599996,1.202294E-05
0.2609996,1.244904E-05
0.2619996,1.292113E-05
0.2629996,1.33411E-05
0.2639996,1.370589E-05
0.2649996,1.406455E-05
0.2659996,1.442628E-05
0.2669996,1.476655E-05
0.2679996,1.515893E-05
0.2689996,1.546854E-05
0.2699996,1.589158E-05
0.2709996,1.632688E-05
0.2719996,1.681429E-05
0.2729996,1.728331E-05
0.2739996,1.769102E-05
0.2749996,1.807727E-05
0.2759996,1.850337E-05
0.2769996,1.887123E-05
0.2779996,1.921149E-05
0.2789996,1.973263E-05
0.2799996,2.022924E-05
0.2809996,2.06584E-05
0.2819996,2.111516E-05
0.2829996,2.152594E-05
0.2839996,2.194591E-05
0.2849996,2.237814E-05
0.2859996,2.277665E-05
0.2869996,2.322115E-05
0.2879996,2.372082E-05
0.2889996,2.421743E-05
0.2899996,2.483972E-05
0.2909996,2.556729E-05
0.2919996,2.602712E-05
0.2929996,2.651759E-05
0.2939996,2.69161E-05
0.2949996,2.740658E-05
0.2959996,2.78051E-05
0.2969996,2.826491E-05
0.2979996,2.88167E-05
0.2989996,2.927653E-05
0.2999996,2.982831E-05
0.3009996,3.047206E-05
0.3019996,3.087058E-05
0.3029996,3.142237E-05
0.3039996,3.191284E-05
0.3049996,3.240332E-05
0.3059996,3.29551E-05
0.3069996,3.341493E-05
0.3079996,3.387475E-05
0.3089996,3.445719E-05
0.3099996,3.491702E-05
0.3109996,3.543814E-05
0.3119996,3.598993E-05
0.3129996,3.657238E-05
0.3139996,3.709351E-05
0.3149996,3.776791E-05
0.3159996,3.838101E-05
0.3169996,3.887149E-05
0.3179996,3.939262E-05
0.3189996,3.99444E-05
0.3199996,4.046554E-05
0.3209996,4.104798E-05
0.3219996,4.159976E-05
0.3229996,4.21209E-05
0.3239996,4.27953E-05
0.3249996,4.346971E-05
0.3259996,4.402149E-05
0.3269996,4.46959E-05
0.3279996,4.518638E-05
0.3289996,4.573816E-05
0.3299996,4.635127E-05
0.3309996,4.684174E-05
0.3319996,4.751615E-05
0.3329996,4.81599E-05
0.3339996,4.8773E-05
0.3349996,4.94474E-05
0.3359996,5.009115E-05
0.3369996,5.073491E-05
0.3379996,5.131734E-05
0.3389996,5.19611E-05
0.3399996,5.254354E-05
0.3409996,5.312598E-05
0.3419996,5.383104E-05
0.3429996,5.450545E-05
0.3439996,5.524116E-05
0.3449996,5.588491E-05
0.3459996,5.655932E-05
0.3469996,5.717242E-05
0.3479996,5.781617E-05
0.3489996,5.852123E-05
0.3499996,5.904236E-05
0.3509996,5.974742E-05
0.3519996,6.05751E-05
0.3529996,6.131082E-05
0.3539996,6.207719E-05
0.3549996,6.272094E-05
0.3559996,6.345665E-05
0.3569996,6.406975E-05
0.3579996,6.480547E-05
0.3589996,6.551053E-05
0.3599996,6.624625E-05
0.3609996,6.710459E-05
0.3619996,6.787095E-05
0.3629996,6.857601E-05
0.3639996,6.940369E-05
0.3649996,7.007809E-05
0.3659996,7.078316E-05
0.3669996,7.154953E-05
0.3679996,7.225459E-05
0.3689996,7.305162E-05
0.3699996,7.409388E-05
0.3709996,7.482959E-05
0.3719996,7.571858E-05
0.3729996,7.654627E-05
0.3739996,7.725132E-05
0.3749996,7.814031E-05
0.3759996,7.893734E-05
0.3769996,7.973437E-05
0.3779996,8.065401E-05
0.3789996,8.142038E-05
0.3799996,8.230937E-05
0.3809996,8.313705E-05
0.3819996,8.396473E-05
0.3829996,8.497635E-05
0.3839996,8.583468E-05
0.3849996,8.684629E-05
0.3859996,8.782724E-05
0.3869996,8.880819E-05
0.3879996,8.985046E-05
0.3889996,9.073945E-05
0.3899996,9.181237E-05
0.3909996,9.276267E-05
0.3919996,9.380493E-05
0.3929996,9.490851E-05
0.3939996,9.582815E-05
0.3949996,9.690107E-05
0.3959996,9.809661E-05
0.3969996,9.913887E-05
0.3979996,0.0001001811
0.3989996,0.000101438
0.3999996,0.0001024802
0.4009996,0.0001037064
0.4019996,0.0001049939
0.4029996,0.0001060975
0.4039996,0.0001074157
0.4049996,0.0001086725
0.4059996,0.0001098987
0.4069996,0.0001113088
0.4079996,0.0001125657
0.4089996,0.0001140984
0.4099996,0.0001156618
0.4109996,0.0001170106
0.4119996,0.000118574
0.4129996,0.0001200455
0.4139996,0.0001213943
0.4149996,0.0001230803
0.4159996,0.000124705
0.4169996,0.0001263297
0.4179996,0.0001280464
0.4189996,0.0001296711
0.4199996,0.0001316023
0.4209996,0.0001334416
0.4219996,0.0001354648
0.4229996,0.0001375187
0.4239996,0.0001396032
0.4249996,0.0001416878
0.4259996,0.0001439562
0.4269996,0.000146194
0.4279996,0.0001486464
0.4289996,0.0001510068
0.4299996,0.0001537045
0.4309996,0.000156494
0.4319996,0.0001591304
0.4329996,0.0001622265
0.4339996,0.0001655066
0.4349996,0.000168572
0.4359996,0.0001723426
0.4369996,0.0001759599
0.4379996,0.000179853
0.4389996,0.0001843593
0.4399996,0.0001888655
0.4409996,0.0001936784
0.4419996,0.0001990123
0.4429996,0.0002046528
0.4439996,0.0002108144
0.4449996,0.0002175278
0.4459996,0.0002246091
0.4469996,0.0002323954
0.4479996,0.0002408868
0.4489996,0.0002500832
0.4499996,0.000260046
0.4509996,0.0002707139
0.4519996,0.0002828839
0.4529996,0.0002951765
0.4539996,0.0003123844
0.4549996,0.0003270987
0.4559996,0.0003424261
0.4569996,0.0003595928
0.4579996,0.0003776792
0.4589996,0.0003966852
0.4599996,0.0004169173
0.4609996,0.0004377626
0.4619996,0.0004589144
0.4629996,0.0004803728
0.4639996,0.000500605
0.4649996,0.0005199176
0.4659996,0.0005383104
0.4669996,0.0005548641
0.4679996,0.0005701915
0.4689996,0.0005830665
0.4699996,0.0005950219
0.4709996,0.0006063642
0.4719996,0.0006167868
0.4729996,0.0006272094
0.4739996,0.0006376321
0.4749996,0.0006471351
0.4759996,0.0006584774
0.4769996,0.0006689
0.4779996,0.0006799357
0.4789996,0.0006921976
0.4799996,0.0007047662
0.4809996,0.0007188674
0.4819996,0.0007332751
0.4829996,0.0007486026
0.4839996,0.0007669955
0.4849996,0.0007841621
0.4859996,0.0008043944
0.4869996,0.0008264658
0.4879996,0.0008485373
0.4889996,0.0008742873
0.4899996,0.0009018767
0.4909996,0.000929466
0.4919996,0.0009622668
0.4929996,0.0009956805
0.4939996,0.00103124
0.4949996,0.001071091
0.4959996,0.001111556
0.4969996,0.001155392
0.4979996,0.001203214
0.4989996,0.001253181
0.4999996,0.00130744
0.5009996,0.001363845
0.5019996,0.001423315
0.5029996,0.00148769
0.5039996,0.001554824
0.5049996,0.001625024
0.5059996,0.001700741
0.5069996,0.001779218
0.5079996,0.001862292
0.5089996,0.001949352
0.5099996,0.00204101
0.5109996,0.00213604
0.5119996,0.002237814
0.5129996,0.002343573
0.5139996,0.002451785
0.5149996,0.002564595
0.5159996,0.002685375
0.5169996,0.002806155
0.5179996,0.002934292
0.5189996,0.00306856
0.5199996,0.00322807
0.5209996,0.003372148
0.5219996,0.003519291
0.5229996,0.003666434
0.5239996,0.003825839
0.5249996,0.003988309
0.5259996,0.004153845
0.5269996,0.004325512
0.5279996,0.004500245
0.5289996,0.004678043
0.5299996,0.004865037
0.5309996,0.005052032
0.5319996,0.005245158
0.5329996,0.005444414
0.5339996,0.005646735
0.5349996,0.005852123
0.5359996,0.006063641
0.5369996,0.006281291
0.5379996,0.00649894
0.5389996,0.00672272
0.5399996,0.006949566
0.5409996,0.007182543
0.5419996,0.007418585
0.5429996,0.007657692
0.5439996,0.007899866
0.5449996,0.008148169
0.5459996,0.008396474
0.5469996,0.008650908
0.5479996,0.008911475
0.5489996,0.00916591
0.5499996,0.009432606
0.5509996,0.009702369
0.5519996,0.009969066
0.5529996,0.01024496
0.5539996,0.01052085
0.5549996,0.01079675
0.5559996,0.01108184
0.5569996,0.01136999
0.5579996,0.01165508
0.5589996,0.01194324
0.5599996,0.01223752
0.5609996,0.01253487
0.5619996,0.01282916
0.5629996,0.01313571
0.5639996,0.01344226
0.5649996,0.01374267
0.5659996,0.01405535
0.5669996,0.01436803
0.5679996,0.01467458
0.5689996,0.01499033
0.5699996,0.01530607
0.5709996,0.01562488
0.5719996,0.01594676
0.5729996,0.0162717
0.5739996,0.01659664
0.5749996,0.01691545
0.5759996,0.01724959
0.5769996,0.01757759
0.5779996,0.01790866
0.5789996,0.01824587
0.5799996,0.01858001
0.5809996,0.01891414
0.5819996,0.01925441
0.5829996,0.01960081
0.5839996,0.01993801
0.5849996,0.02028135
0.5859996,0.02063081
0.5869996,0.02097108
0.5879996,0.02132055
0.5889996,0.02166388
0.5899996,0.02201641
0.5909996,0.02236894
0.5919996,0.02272147
0.5929996,0.02307707
0.5939996,0.02343267
0.5949996,0.02379133
0.5959996,0.02414692
0.5969996,0.02450558
0.5979996,0.02486731
0.5989996,0.02522597
0.5999996,0.02558463
0.6009996,0.02596169
0.6019996,0.02632035
0.6029996,0.02668821
0.6039996,0.0270622
0.6049996,0.02741779
0.6059996,0.02779178
0.6069996,0.02816577
0.6079996,0.0285275
0.6089996,0.02890762
0.6099996,0.02928774
0.6109996,0.02964946
0.6119996,0.03003571
0.6129996,0.03114647
0.6139996,0.03151433
0.6149996,0.03191284
0.6159996,0.0322807
0.6169996,0.03267921
0.6179996,0.03304707
0.6189996,0.03344558
0.6199996,0.03384409
0.6209996,0.03421196
0.6219996,0.03461047
0.6229996,0.03497833
0.6239996,0.03537684
0.6249996,0.03577535
0.6259996,0.03617386
0.6269996,0.03657238
0.6279996,0.03697089
0.6289996,0.03733874
0.6299996,0.03773726
0.6309996,0.03813577
0.6319996,0.03853428
0.6329996,0.03896345
0.6339996,0.03936196
0.6349996,0.03976048
0.6359996,0.04015899
0.6369996,0.0405575
0.6379996,0.04095602
0.6389996,0.04135453
0.6399996,0.04175304
0.6409996,0.04215155
0.6419996,0.04258072
0.6429996,0.04294858
0.6439996,0.04334709
0.6449996,0.04377626
0.6459996,0.04417477
0.6469996,0.04457328
0.6479996,0.0449718
0.6489996,0.04540097
0.6499996,0.04579948
0.6509996,0.04619799
0.6519996,0.04662716
0.6529996,0.04702567
0.6539996,0.04745484
0.6549996,0.04785335
0.6559996,0.04828252
0.6569996,0.04868103
0.6579996,0.04907954
0.6589996,0.04950871
0.6599996,0.04990723
0.6609996,0.05030574
0.6619996,0.05073491
0.6629996,0.05116407
0.6639996,0.05156258
0.6649996,0.05199176
0.6659996,0.05242092
0.6669996,0.05281943
0.6679996,0.0532486
0.6689996,0.05367777
0.6699996,0.05407628
0.6709996,0.05450545
0.6719996,0.05493462
0.6729996,0.05533313
0.6739996,0.0557623
0.6749996,0.05619146
0.6759996,0.05658998
0.6769996,0.05701914
0.6779996,0.05744831
0.6789996,0.05787748
0.6799996,0.05830665
0.6809996,0.05873581
0.6819996,0.05913433
0.6829996,0.0595635
0.6839996,0.05999266
0.6849996,0.06042183
0.6859996,0.060851
0.6869996,0.06128017
0.6879996,0.06167868
0.6889996,0.0621385
0.6899996,0.06256767
0.6909996,0.06296618
0.6919996,0.063426
0.6929996,0.06385517
0.6939996,0.06425368
0.6949996,0.06471351
0.6959996,0.06514268
0.6969996,0.06557184
0.6979996,0.06600101
0.6989996,0.06639952
0.6999996,0.06652214
0.6990005,0.06615429
0.6980005,0.06572511
0.6970005,0.06529595
0.6960005,0.06489744
0.6950005,0.06446826
0.6940005,0.06406976
0.6930005,0.06364059
0.6920004,0.06324207
0.6910005,0.06281291
0.6900005,0.0624144
0.6890005,0.06198522
0.6880005,0.06158672
0.6870005,0.0611882
0.6860005,0.06075903
0.6850005,0.06036052
0.6840005,0.05993135
0.6830005,0.05950218
0.6820005,0.05910368
0.6810005,0.0586745
0.6800005,0.05827599
0.6790005,0.05787748
0.6780005,0.05744831
0.6770005,0.0570498
0.6760005,0.05665129
0.6750005,0.05625277
0.6740005,0.05582361
0.6730005,0.0554251
0.6720005,0.05499592
0.6710005,0.05459742
0.6700005,0.0541989
0.6690005,0.05380039
0.6680005,0.05337122
0.6670005,0.0529727
0.6660005,0.05254354
0.6650005,0.05217568
0.6640005,0.05174651
0.6630005,0.05131735
0.6620005,0.05094949
0.6610005,0.05055097
0.6600005,0.05012181
0.6590005,0.04975395
0.6580005,0.04932478
0.6570005,0.04889562
0.6560005,0.04852776
0.6550004,0.04812925
0.6540005,0.04773073
0.6530005,0.04733222
0.6520005,0.04693371
0.6510005,0.04653519
0.6500005,0.04613668
0.6490005,0.04573817
0.6480005,0.045309
0.6470005,0.04491049
0.6460005,0.04454263
0.6450005,0.04414412
0.6440005,0.0437456
0.6430005,0.04334709
0.6420005,0.04294858
0.6410004,0.04258072
0.6400005,0.04218221
0.6390005,0.0417837
0.6380005,0.04138518
0.6370005,0.04098667
0.6360005,0.04061881
0.6350005,0.0402203
0.6340005,0.03982178
0.6330005,0.03945393
0.6320005,0.03905542
0.6310005,0.0386569
0.6300005,0.03828905
0.6290005,0.03789053
0.6280005,0.03749202
0.6270005,0.03709351
0.6260005,0.03672565
0.6250005,0.03632713
0.6240005,0.03595928
0.6230005,0.03559142
0.6220005,0.03519291
0.6210005,0.03482505
0.6200005,0.03442654
0.6190005,0.03405868
0.6180004,0.03369082
0.6170005,0.03332296
0.6160005,0.03295511
0.6150005,0.03255659
0.6140005,0.03218874
0.6130005,0.03182088
0.6120005,0.03142237
0.6110005,0.03105451
0.6100005,0.0307173
0.6090005,0.03031879
0.6080005,0.02995093
0.6070005,0.02958308
0.6060005,0.02921522
0.6050005,0.02884736
0.6040004,0.0284795
0.6030005,0.02811164
0.6020005,0.02777444
0.6010005,0.02740658
0.6000005,0.02703872
0.5990005,0.02667087
0.5980005,0.02633366
0.5970005,0.0259658
0.5960005,0.0256286
0.5950005,0.02526074
0.5940005,0.02489289
0.5930005,0.02455568
0.5920005,0.02421848
0.5910005,0.02385062
0.5900005,0.02351342
0.5890005,0.02317622
0.5880005,0.02280836
0.5870005,0.02247116
0.5860005,0.0221033
0.5850005,0.02176609
0.5840005,0.02142889
0.5830005,0.02109169
0.5820005,0.02075448
0.5810004,0.02041728
0.5800005,0.02008008
0.5790005,0.01974287
0.5780005,0.01943633
0.5770005,0.01909912
0.5760005,0.01876192
0.5750005,0.01845537
0.5740005,0.01811817
0.5730005,0.01781162
0.5720005,0.01747442
0.5710005,0.01716787
0.5700005,0.01686132
0.5690005,0.01652412
0.5680005,0.01621757
0.5670004,0.01591102
0.5660005,0.01560447
0.5650005,0.01529793
0.5640005,0.01499138
0.5630005,0.01468483
0.5620005,0.01437828
0.5610005,0.01407173
0.5600005,0.01376519
0.5590005,0.01348929
0.5580005,0.01318274
0.5570005,0.01241839
0.5560005,0.0121333
0.5550005,0.0118574
0.5540005,0.01157844
0.5530005,0.01129948
0.5520005,0.01103279
0.5510005,0.01075689
0.5500005,0.01048713
0.5490005,0.0102235
0.5480005,0.00995987
0.5470005,0.009699304
0.5460005,0.009444868
0.5450005,0.009190434
0.5440005,0.008935998
0.5430005,0.008687695
0.5420005,0.008442456
0.5410005,0.008200282
0.5400005,0.007961174
0.5390005,0.007725133
0.5380005,0.007492156
0.5370005,0.00726531
0.5360005,0.007038464
0.5350005,0.006814685
0.5340005,0.006597036
0.5330005,0.006382451
0.5320005,0.006170933
0.5310005,0.00596248
0.5300004,0.005757092
0.5290005,0.005557837
0.5280005,0.00535858
0.5270005,0.005165454
0.5260005,0.00497846
0.5250005,0.004791466
0.5240005,0.004607537
0.5230005,0.004429739
0.5220005,0.004258072
0.5210005,0.00408947
0.5200005,0.003923934
0.5190005,0.003758398
0.5180005,0.003602059
0.5170005,0.003448785
0.5160004,0.003298576
0.5150005,0.003154498
0.5140005,0.003016552
0.5130005,0.002875539
0.5120005,0.002743724
0.5110005,0.002614973
0.5100005,0.002489289
0.5090005,0.002369735
0.5080005,0.002250181
0.5070005,0.002139824
0.5060005,0.002029466
0.5050005,0.00192524
0.5040005,0.001827144
0.5030005,0.001729049
0.5020005,0.001637084
0.5010005,0.00154512
0.5000005,0.001459286
0.4990005,0.001376518
0.4980005,0.00129375
0.4970005,0.001189725
0.4960005,0.001119526
0.4950005,0.0010481
0.4940005,0.0009824989
0.4930005,0.00091935
0.4920005,0.0008571207
0.4910005,0.0008010223
0.4900005,0.0007461502
0.4890005,0.0006925042
0.4880005,0.0006440696
0.4870005,0.0005968612
0.4860005,0.000551492
0.4850005,0.0005098015
0.4840005,0.0004684174
0.4830005,0.000430712
0.4820005,0.0003951524
0.4810005,0.0003605125
0.4800005,0.0003286314
0.4790005,0.00029767
0.4780005,0.0002691611
0.4770005,0.0002418783
0.4760005,0.0002155151
0.4750005,0.0001922174
0.4740005,0.0001689198
0.4730005,0.0001471548
0.4720005,0.0001281489
0.4710005,0.0001076101
0.4700005,8.644777E-05
0.4690005,7.059924E-05
0.4680005,5.367777E-05
0.4670005,3.957655E-05
0.4660005,2.587384E-05
0.4650005,1.232441E-05
0.4640005,7.981928E-07
0.4630005,-1.131046E-05
0.4620005,-2.23462E-05
0.4610005,-3.25236E-05
0.4600005,-4.248642E-05
0.4590005,-5.094715E-05
0.4580005,-5.910133E-05
0.4570005,-6.74701E-05
0.4560005,-7.424482E-05
0.4550005,-8.17246E-05
0.4540005,-8.822342E-05
0.4530005,-9.38026E-05
0.4520005,-0.0001002401
0.4510005,-0.0001052062
0.4500005,-0.0001103256
0.4490005,-0.000115261
0.4480005,-0.0001194607
0.4470005,-0.0001246107
0.4460005,-0.0001283199
0.4450005,-0.0001316
0.4440005,-0.0001360756
0.4430005,-0.0001388652
0.4420005,-0.0001419613
0.4410005,-0.0001454253
0.4400005,-0.000147142
0.4390005,-0.000150606
0.4380005,-0.0001533343
0.4370005,-0.0001553268
0.4360005,-0.0001580551
0.4350005,-0.0001599864
0.4340005,-0.000161795
0.4330005,-0.0001640635
0.4320005,-0.0001652897
0.4310005,-0.0001672822
0.4300005,-0.000168723
0.4290005,-0.0001702557
0.4280005,-0.0001720644
0.4270005,-0.0001729227
0.4260005,-0.0001743635
0.4250005,-0.000175743
0.4240005,-0.0001760802
0.4230005,-0.0001777968
0.4220005,-0.0001785632
0.4210005,-0.000178931
0.4200005,-0.0001801266
0.4190005,-0.0001805864
0.4180005,-0.0001810462
0.4170005,-0.0001817207
0.4160005,-0.0001815674
0.4150005,-0.0001819352
0.4140005,-0.0001821498
0.4130005,-0.0001820578
0.4120005,-0.000182487
0.4110005,-0.0001823031
0.4100005,-0.0001827016
0.4090005,-0.0001824564
0.4080005,-0.0001813834
0.4070005,-0.0001810769
0.4060005,-0.0001803412
0.4050005,-0.0001794828
0.4040005,-0.0001790537
0.4030005,-0.000178226
0.4020005,-0.0001771224
0.4010005,-0.000176356
0.4000005,-0.000174854
0.3990005,-0.000173873
0.3980005,-0.0001725242
0.3970005,-0.0001711447
0.3960005,-0.0001699185
0.3950005,-0.0001683551
0.3940005,-0.0001669144
0.3930005,-0.0001655042
0.3920005,-0.0001637569
0.3910005,-0.0001624081
0.3900005,-0.0001608754
0.3890005,-0.0001592507
0.3880005,-0.0001578405
0.3870005,-0.0001560932
0.3860005,-0.0001545298
0.3850005,-0.0001530584
0.3840005,-0.0001513724
0.3830005,-0.0001500849
0.3820005,-0.0001484908
0.3810005,-0.0001471113
0.3800005,-0.0001459465
0.3790005,-0.0001444137
0.3780005,-0.0001430649
0.3770005,-0.0001418694
0.3760005,-0.0001404286
0.3750005,-0.000139233
0.3740005,-0.0001380069
0.3730005,-0.000136658
0.3720005,-0.0001356158
0.3710005,-0.0001345429
0.3700005,-0.0001333473
0.3690005,-0.000132397
0.3680005,-0.0001312322
0.3670005,-0.0001303125
0.3660005,-0.0001292396
0.3650005,-0.0001283506
0.3640005,-0.0001274923
0.3630005,-0.000126542
0.3620005,-0.0001256836
0.3610005,-0.0001247946
0.3600005,-0.0001237524
0.3590005,-0.0001230473
0.3580005,-0.000122189
0.3570005,-0.0001212387
0.3560005,-0.0001205336
0.3550005,-0.0001197672
0.3540005,-0.0001189089
0.3530005,-0.0001183571
0.3520005,-0.0001176214
0.3510005,-0.0001170696
0.3500005,-0.0001164872
0.3490005,-0.0001159354
0.3480005,-0.0001155062
0.3470005,-0.0001150464
0.3460005,-0.0001146479
0.3450005,-0.0001142187
0.3440005,-0.0001139122
0.3430005,-0.0001137589
0.3420005,-0.0001134523
0.3410005,-0.0001132991
0.3400005,-0.0001131765
0.3390005,-0.0001129619
0.3380005,-0.0001127473
0.3370005,-0.0001127473
0.3360005,-0.0001125634
0.3350005,-0.000112594
0.3340005,-0.0001125634
0.3330005,-0.0001124714
0.3320005,-0.0001125634
0.3310005,-0.000112594
0.3300005,-0.0001126553
0.3290005,-0.0001128393
0.3280005,-0.0001129006
0.3270005,-0.0001130538
0.3260005,-0.0001132991
0.3250005,-0.0001134523
0.3240005,-0.0001136363
0.3230005,-0.0001137896
0.3220005,-0.0001140961
0.3210005,-0.0001143107
0.3200005,-0.0001145866
0.3190005,-0.0001148625
0.3180005,-0.0001150157
0.3170005,-0.000115353
0.3160005,-0.0001156901
0.3150005,-0.0001158741
0.3140005,-0.0001162113
0.3130005,-0.0001165485
0.3120005,-0.0001167631
0.3110005,-0.0001172229
0.3100005,-0.0001175601
0.3090005,-0.000117836
0.3080005,-0.0001181732
0.3070005,-0.000118633
0.3060005,-0.0001189396
0.3050005,-0.0001193687
0.3040005,-0.0001197672
0.3030005,-0.0001200738
0.3020005,-0.0001205336
0.3010005,-0.0001208708
0.3000005,-0.000121208
0.2990005,-0.0001216372
0.2980005,-0.0001219131
0.2970005,-0.0001223729
0.2960005,-0.0001226181
0.2950005,-0.0001231086
0.2940005,-0.0001234152
0.2930005,-0.000123783
0.2920005,-0.0001243042
0.2910005,-0.0001247027
0.2900005,-0.0001250705
0.2890005,-0.000125469
0.2880005,-0.0001259289
0.2870005,-0.000126358
0.2860005,-0.0001267565
0.2850005,-0.0001271857
0.2840005,-0.0001276762
0.2830005,-0.0001280134
0.2820005,-0.0001285345
0.2810005,-0.0001289637
0.2800005,-0.0001293009
0.2790005,-0.0001298527
0.2780005,-0.0001302819
0.2770005,-0.0001305884
0.2760005,-0.0001311402
0.2750005,-0.0001316307
0.2740005,-0.0001320905
0.2730005,-0.000132489
0.2720005,-0.0001330101
0.2710005,-0.0001333473
0.2700005,-0.0001338685
0.2690005,-0.0001342976
0.2680005,-0.0001346348
0.2670005,-0.000135064
0.2660005,-0.0001355238
0.2650005,-0.0001359223
0.2640005,-0.0001363515
0.2630005,-0.000136842
0.2620005,-0.0001373018
0.2610005,-0.0001378229
0.2600005,-0.0001382215
0.2590005,-0.0001387426
0.2580005,-0.0001391411
0.2570005,-0.0001397235
0.2560005,-0.0001400914
0.2550005,-0.0001404592
0.2540005,-0.0001408884
0.2530005,-0.0001413482
0.2520005,-0.0001418694
0.2510005,-0.0001422066
0.2500005,-0.0001427277
0.2490005,-0.0001431875
0.2480005,-0.0001435554
0.2470005,-0.0001441378
0.2460005,-0.000144567
0.2450005,-0.0001448429
0.2440005,-0.0001453027
0.2430005,-0.0001457319
0.2420005,-0.0001460997
0.2410005,-0.0001465596
0.2400005,-0.0001470807
0.2390005,-0.0001475099
0.2380005,-0.0001479697
0.2370005,-0.0001484908
0.2360005,-0.000148828
0.2350005,-0.0001493185
0.2340005,-0.0001496557
0.2330005,-0.0001499622
0.2320005,-0.0001504221
0.2310005,-0.0001508819
0.2300005,-0.0001512191
0.2290005,-0.0001516789
0.2280005,-0.0001522307
0.2270005,-0.0001525066
0.2260005,-0.0001529358
0.2250005,-0.0001533036
0.2240005,-0.0001536408
0.2230005,-0.0001540087
0.2220005,-0.0001544992
0.2210005,-0.0001547138
0.2200005,-0.0001552042
0.2190005,-0.0001556334
0.2180005,-0.0001560012
0.2170005,-0.0001563998
0.2160005,-0.0001568289
0.2150005,-0.0001571661
0.2140005,-0.0001575646
0.2130005,-0.0001578405
0.2120005,-0.0001580858
0.2110005,-0.0001584843
0.2100005,-0.0001587602
0.2090005,-0.0001591587
0.2080005,-0.0001595879
0.2070005,-0.0001598024
0.2060005,-0.0001602929
0.2050005,-0.0001606914
0.2040005,-0.0001610286
0.2030005,-0.0001611819
0.2020005,-0.0001616417
0.2010005,-0.0001617644
0.2000005,-0.0001620709
0.1990005,-0.0001624694
0.1980005,-0.0001626533
0.1970005,-0.0001629905
0.1960005,-0.0001633891
0.1950005,-0.000163573
0.1940005,-0.0001639102
0.1930005,-0.0001642781
0.1920005,-0.0001644313
0.1910005,-0.0001648298
0.1900005,-0.0001651364
0.1890005,-0.0001653203
0.1880005,-0.0001657495
0.1870005,-0.0001659947
0.1860005,-0.0001661787
0.1850005,-0.0001665158
0.1840005,-0.0001667611
0.1830005,-0.0001668837
0.1820005,-0.0001672822
0.1810005,-0.0001674661
0.1800005,-0.0001676501
0.1790005,-0.0001678953
0.1780005,-0.0001681406
0.1770005,-0.0001682938
0.1760005,-0.0001686004
0.1750005,-0.000168815
0.1740005,-0.0001690295
0.1730005,-0.0001694894
0.1720005,-0.0001696733
0.1710005,-0.0001698572
0.1700005,-0.0001701944
0.1690005,-0.0001704703
0.1680005,-0.0001705623
0.1670005,-0.0001708382
0.1660005,-0.0001710221
0.1650005,-0.0001711754
0.1640005,-0.0001714206
0.1630005,-0.0001715739
0.1620005,-0.0001717885
0.1610005,-0.0001720644
0.1600005,-0.000172187
0.1590005,-0.0001724016
0.1580005,-0.0001726775
0.1570005,-0.0001728614
0.1560005,-0.000173076
0.1550005,-0.0001732599
0.1540005,-0.0001734745
0.1530005,-0.0001736891
0.1520005,-0.0001739037
0.1510005,-0.0001740876
0.1500005,-0.0001741796
0.1490005,-0.0001743941
0.1480005,-0.0001746087
0.1470005,-0.00017467
0.1460005,-0.000174854
0.1450005,-0.0001749766
0.1440005,-0.0001749459
0.1430005,-0.0001752218
0.1420005,-0.0001752831
0.1410005,-0.0001753444
0.1400005,-0.0001756203
0.1390005,-0.000175743
0.1380005,-0.0001757736
0.1370005,-0.0001759269
0.1360005,-0.0001759575
0.1350005,-0.0001761721
0.1340005,-0.0001762947
0.1330005,-0.000176356
0.1320005,-0.0001764174
0.1310005,-0.0001765706
0.1300005,-0.0001764787
0.1290005,-0.0001766626
0.1280005,-0.0001766933
0.1270005,-0.0001766933
0.1260005,-0.0001767546
0.1250005,-0.0001767852
0.1240005,-0.0001767852
0.1230005,-0.0001768159
0.1220005,-0.0001767546
0.1210005,-0.0001766933
0.1200005,-0.0001767546
0.1190005,-0.0001766933
0.1180005,-0.000176448
0.1170005,-0.0001763867
0.1160005,-0.0001762641
0.1150005,-0.0001761108
0.1140005,-0.0001759882
0.1130005,-0.0001759575
0.1120005,-0.000175743
0.1110005,-0.0001755284
0.1100005,-0.0001754977
0.1090005,-0.0001751912
0.1080005,-0.0001750992
0.1070005,-0.0001748846
0.1060005,-0.0001744861
0.1050005,-0.0001744861
0.1040005,-0.0001739956
0.1030005,-0.0001736584
0.1020005,-0.0001733825
0.1010005,-0.0001729534
0.1000005,-0.0001724322
0.09900048,-0.000172187
0.09800047,-0.0001717578
0.09700048,-0.0001712674
0.09600048,-0.0001708382
0.09500048,-0.000170409
0.09400047,-0.0001698572
0.09300048,-0.0001693667
0.09200048,-0.0001689376
0.09100047,-0.0001682938
0.09000048,-0.000167834
0.08900048,-0.0001673129
0.08800048,-0.0001666078
0.08700047,-0.0001660254
0.08600048,-0.0001654736
0.08500048,-0.0001646766
0.08400048,-0.0001640022
0.08300047,-0.0001632358
0.08200048,-0.0001624694
0.08100048,-0.0001618563
0.08000048,-0.0001611513
0.07900048,-0.0001601703
0.07800048,-0.0001597105
0.07700048,-0.0001589441
0.07600047,-0.0001580858
0.07500048,-0.0001574727
0.07400048,-0.0001567369
0.07300048,-0.0001559399
0.07200047,-0.0001553268
0.07100048,-0.0001546831
0.07000048,-0.0001539474
0.06900048,-0.0001533956
0.06800048,-0.0001528438
0.06700048,-0.0001521081
0.06600048,-0.0001516176
0.06500047,-0.0001511271
0.06400048,-0.0001503608
0.06300048,-0.0001499929
0.06200048,-0.0001494411
0.06100048,-0.000148828
0.06000048,-0.0001484908
0.05900048,-0.000148031
0.05800048,-0.0001475405
0.05700048,-0.000147234
0.05600048,-0.0001467741
0.05500048,-0.000146345
0.05400048,-0.0001461917
0.05300048,-0.0001457932
0.05200048,-0.0001454866
0.05100048,-0.0001453027
0.05000048,-0.0001448122
0.04900048,-0.0001445363
0.04800048,-0.0001444137
0.04700048,-0.0001441378
0.04600048,-0.0001438006
0.04500048,-0.0001436167
0.04400048,-0.0001433715
0.04300048,-0.0001431262
0.04200048,-0.0001429423
0.04100048,-0.000142697
0.04000048,-0.0001424212
0.03900048,-0.0001422372
0.03800048,-0.0001418387
0.03700048,-0.0001416548
0.03600048,-0.0001415935
0.03500048,-0.0001413789
0.03400048,-0.000141195
0.03300048,-0.000141011
0.03200048,-0.0001408271
0.03100048,-0.0001406738
0.03000048,-0.0001406125
0.02900048,-0.0001403366
0.02800048,-0.0001402447
0.02700048,-0.0001401527
0.02600048,-0.0001398462
0.02500048,-0.0001397848
0.02400048,-0.0001396009
0.02300048,-0.0001393863
0.02200048,-0.0001392024
0.02100048,-0.0001390491
0.02000048,-0.0001387732
0.01900048,-0.0001387119
0.01800048,-0.000138528
0.01700048,-0.0001383441
0.01600048,-0.0001382215
0.01500048,-0.0001380988
0.01400048,-0.0001378229
0.01300048,-0.0001377923
0.01200048,-0.000137639
0.01100048,-0.0001373938
0.01000048,-0.0001372712
0.009000476,-0.0001371485
0.008000477,-0.000136842
0.007000477,-0.0001365967
0.006000477,-0.0001364741
0.005000477,-0.0001360756
0.004000477,-0.0001357997
0.003000477,-0.0001355851
0.002000477,-0.0001351866
0.001000477,-0.000135064
