EXPID. 1291
[电化学]: CV : 0 >> 0.7 >> 0 >> 0(V) @ 0.01(V/s) X 10(Seg)
起始电位 (V),0
上限电位 (V),0.7
下限电位 (V),0
终止电位 (V),0
扫速 (V/s),0.01
电解液 信息:
KOH,1
0.001,9.251743E-06
0.002,1.015299E-05
0.003,1.079675E-05
0.004,1.156005E-05
0.005,1.224672E-05
0.006,1.267589E-05
0.007,1.328285E-05
0.008,1.372428E-05
0.009,1.413506E-05
0.01,1.462553E-05
0.011,1.517732E-05
0.012,1.575363E-05
0.013,1.624104E-05
0.014,1.659664E-05
0.015,1.706872E-05
0.016,1.743965E-05
0.017,1.797917E-05
0.018,1.858614E-05
0.019,1.907661E-05
0.02,1.958548E-05
0.021,1.994721E-05
0.022,2.035799E-05
0.023,2.090977E-05
0.024,2.132055E-05
0.025,2.178037E-05
0.026,2.241186E-05
0.027,2.323752E-05
0.028,2.3728E-05
0.029,2.412652E-05
0.03,2.449437E-05
0.031,2.504616E-05
0.032,2.544467E-05
0.033,2.593515E-05
0.034,2.664021E-05
0.035,2.706938E-05
0.036,2.768247E-05
0.037,2.811164E-05
0.038,2.857147E-05
0.039,2.906194E-05
0.04,2.955242E-05
0.041,3.010421E-05
0.042,3.077861E-05
0.043,3.123844E-05
0.044,3.185153E-05
0.045,3.237266E-05
0.046,3.286314E-05
0.047,3.338427E-05
0.048,3.396671E-05
0.049,3.457981E-05
0.05,3.525422E-05
0.051,3.583666E-05
0.052,3.651106E-05
0.053,3.706285E-05
0.054,3.76453E-05
0.055,3.819708E-05
0.056,3.890214E-05
0.057,3.96072E-05
0.058,4.040423E-05
0.059,4.095601E-05
0.06,4.175304E-05
0.061,4.239679E-05
0.062,4.304054E-05
0.063,4.377626E-05
0.064,4.442001E-05
0.065,4.515572E-05
0.066,4.601406E-05
0.067,4.681108E-05
0.068,4.770008E-05
0.069,4.840514E-05
0.07,4.920216E-05
0.071,5.00605E-05
0.072,5.079621E-05
0.073,5.162389E-05
0.074,5.242092E-05
0.075,5.330991E-05
0.076,5.438283E-05
0.077,5.533312E-05
0.078,5.613015E-05
0.079,5.711111E-05
0.08,5.796944E-05
0.081,5.885843E-05
0.082,5.9962E-05
0.083,6.094296E-05
0.084,6.21385E-05
0.085,6.30888E-05
0.086,6.410041E-05
0.087,6.514267E-05
0.088,6.621559E-05
0.089,6.741113E-05
0.09,6.869863E-05
0.091,6.977155E-05
0.092,7.10284E-05
0.093,7.219328E-05
0.094,7.341948E-05
0.095,7.486025E-05
0.096,7.623972E-05
0.097,7.749657E-05
0.098,7.899865E-05
0.099,8.02555E-05
0.1,8.172693E-05
0.101,8.329033E-05
0.102,8.5007E-05
0.103,8.672367E-05
0.104,8.828707E-05
0.105,8.991177E-05
0.106,9.172041E-05
0.107,9.334511E-05
0.108,9.524571E-05
0.109,9.723828E-05
0.11,9.923083E-05
0.111,0.0001014686
0.112,0.0001034919
0.113,0.0001056377
0.114,0.0001079061
0.115,0.0001102666
0.116,0.0001127189
0.117,0.0001149874
0.118,0.0001175931
0.119,0.000120352
0.12,0.0001230496
0.121,0.0001259618
0.122,0.0001290273
0.123,0.0001319702
0.124,0.0001353116
0.125,0.0001385303
0.126,0.0001417797
0.127,0.000145397
0.128,0.0001487997
0.129,0.0001524476
0.13,0.0001564327
0.131,0.0001602339
0.132,0.0001642497
0.133,0.0001684494
0.134,0.0001727411
0.135,0.0001772474
0.136,0.000181723
0.137,0.0001863212
0.138,0.0001911647
0.139,0.0001960081
0.14,0.0002011275
0.141,0.0002061549
0.142,0.0002113355
0.143,0.0002167614
0.144,0.0002220341
0.145,0.0002275213
0.146,0.0002332231
0.147,0.0002387103
0.148,0.0002445654
0.149,0.0002502672
0.15,0.0002559077
0.151,0.000261824
0.152,0.0002676485
0.153,0.0002735342
0.154,0.0002795425
0.155,0.000285275
0.156,0.000291222
0.157,0.0003007355
0.158,0.0003065599
0.159,0.0003123844
0.16,0.0003182088
0.161,0.0003237267
0.162,0.0003298576
0.163,0.0003353755
0.164,0.0003411999
0.165,0.0003467178
0.166,0.0003522356
0.167,0.0003577535
0.168,0.0003629648
0.169,0.0003681761
0.17,0.0003733875
0.171,0.0003785988
0.172,0.0003841167
0.173,0.0003890214
0.174,0.0003936196
0.175,0.0003985244
0.176,0.0004031227
0.177,0.0004077209
0.178,0.0004123191
0.179,0.0004166108
0.18,0.000421209
0.181,0.0004255007
0.182,0.0004294858
0.183,0.000434084
0.184,0.0004380692
0.185,0.0004417477
0.186,0.0004460394
0.187,0.000449718
0.188,0.0004540097
0.189,0.0004579948
0.19,0.0004613668
0.191,0.000465352
0.192,0.0004690305
0.193,0.0004730157
0.194,0.0004766943
0.195,0.0004803728
0.196,0.0004843579
0.197,0.0004880365
0.198,0.0004917151
0.199,0.0004957002
0.2,0.0004993788
0.201,0.0005030574
0.202,0.0005073491
0.203,0.0005107211
0.204,0.0005150128
0.205,0.000518998
0.206,0.0005226765
0.207,0.0005272747
0.208,0.0005309533
0.209,0.0005349384
0.21,0.0005392301
0.211,0.0005435218
0.212,0.00054812
0.213,0.0005521051
0.214,0.0005563968
0.215,0.000560995
0.216,0.0005652867
0.217,0.0005695784
0.218,0.0005744831
0.219,0.0005787748
0.22,0.0005836796
0.221,0.0005882778
0.222,0.0005928761
0.223,0.0005980873
0.224,0.0006026856
0.225,0.0006075904
0.226,0.0006128017
0.227,0.0006177064
0.228,0.0006235309
0.229,0.0006284356
0.23,0.0006330339
0.231,0.0006388583
0.232,0.0006440696
0.233,0.0006495875
0.234,0.0006554119
0.235,0.0006603167
0.236,0.0006664476
0.237,0.0006722721
0.238,0.0006777899
0.239,0.0006839209
0.24,0.0006897453
0.241,0.0006958763
0.242,0.0007023137
0.243,0.0007081382
0.244,0.0007151888
0.245,0.0007210132
0.246,0.0007274507
0.247,0.0007345013
0.248,0.0007406324
0.249,0.0007476829
0.25,0.0007550401
0.251,0.000761171
0.252,0.0007688347
0.253,0.0007755788
0.254,0.0007823228
0.255,0.0007902932
0.256,0.0007976503
0.257,0.0008047009
0.258,0.0008126711
0.259,0.0008197217
0.26,0.0008283051
0.261,0.0008359688
0.262,0.0008436325
0.263,0.0008519093
0.264,0.0008601861
0.265,0.0008681564
0.266,0.0008767397
0.267,0.0008850165
0.268,0.0008945196
0.269,0.0009031029
0.27,0.0009113797
0.271,0.0009214958
0.272,0.0009300791
0.273,0.0009392756
0.274,0.0009493917
0.275,0.0009582816
0.276,0.0009687042
0.277,0.0009785137
0.278,0.0009877102
0.279,0.0009990525
0.28,0.001008555
0.281,0.001018978
0.282,0.001030014
0.283,0.00104013
0.284,0.001052085
0.285,0.001062814
0.286,0.00107385
0.287,0.001086112
0.288,0.001097148
0.289,0.001109103
0.29,0.001121365
0.291,0.001133014
0.292,0.001146809
0.293,0.001158764
0.294,0.001171639
0.295,0.001185434
0.296,0.001197389
0.297,0.00121149
0.298,0.001225592
0.299,0.00123816
0.3,0.001254101
0.301,0.001268202
0.302,0.001281383
0.303,0.001297324
0.304,0.001311732
0.305,0.001327059
0.306,0.001343
0.307,0.001359553
0.308,0.0013758
0.309,0.001391434
0.31,0.001407681
0.311,0.001425155
0.312,0.001441095
0.313,0.001458568
0.314,0.001476655
0.315,0.001493208
0.316,0.001512521
0.317,0.001530301
0.318,0.00154808
0.319,0.001568619
0.32,0.001586706
0.321,0.001605712
0.322,0.00162625
0.323,0.001644337
0.324,0.001666102
0.325,0.001685414
0.326,0.00170534
0.327,0.001727411
0.328,0.00174703
0.329,0.001767876
0.33,0.001790253
0.331,0.001810486
0.332,0.001833477
0.333,0.001854016
0.334,0.001876087
0.335,0.001899078
0.336,0.001920537
0.337,0.001943528
0.338,0.001965906
0.339,0.001988284
0.34,0.002013114
0.341,0.002033959
0.342,0.002057257
0.343,0.002081168
0.344,0.00210232
0.345,0.002126844
0.346,0.002150448
0.347,0.002171906
0.348,0.002196737
0.349,0.002218808
0.35,0.00224088
0.351,0.00226479
0.352,0.002287168
0.353,0.00230924
0.354,0.002331925
0.355,0.002353076
0.356,0.00237668
0.357,0.002397219
0.358,0.002419904
0.359,0.002441669
0.36,0.002461595
0.361,0.002483666
0.362,0.002503898
0.363,0.002522904
0.364,0.002545282
0.365,0.002563981
0.366,0.002582681
0.367,0.002603833
0.368,0.002620693
0.369,0.002640005
0.37,0.002659318
0.371,0.002675565
0.372,0.002694878
0.373,0.002710818
0.374,0.002726452
0.375,0.002744538
0.376,0.002758333
0.377,0.002774274
0.378,0.00279144
0.379,0.002804315
0.38,0.002820563
0.381,0.002833131
0.382,0.002845699
0.383,0.002859801
0.384,0.00287053
0.385,0.002884324
0.386,0.002895973
0.387,0.002906396
0.388,0.002919884
0.389,0.002928467
0.39,0.00293889
0.391,0.002949926
0.392,0.00295575
0.393,0.002966173
0.394,0.002974756
0.395,0.002980887
0.396,0.003022683
0.397,0.003025748
0.398,0.003031879
0.399,0.00303801
0.4,0.003041075
0.401,0.003047206
0.402,0.003053337
0.403,0.003056403
0.404,0.003062534
0.405,0.003062534
0.406,0.003065599
0.407,0.00307173
0.408,0.00307173
0.409,0.003077861
0.41,0.003080927
0.411,0.003077861
0.412,0.003080927
0.413,0.003080927
0.414,0.003077861
0.415,0.003080927
0.416,0.003077861
0.417,0.003077861
0.418,0.003077861
0.419,0.003074796
0.42,0.003074796
0.421,0.003068665
0.422,0.003065599
0.423,0.003065599
0.424,0.003059468
0.425,0.003056403
0.426,0.003056403
0.427,0.003047206
0.428,0.003047206
0.429,0.003041075
0.43,0.003034944
0.431,0.003031879
0.432,0.003025748
0.433,0.003019617
0.434,0.003016552
0.435,0.003007355
0.436,0.003004289
0.437,0.002998159
0.438,0.002992028
0.439,0.002985897
0.44,0.002979766
0.441,0.002973635
0.442,0.002967504
0.443,0.002958308
0.444,0.002955242
0.445,0.002946045
0.446,0.002939914
0.447,0.002933783
0.448,0.002927653
0.449,0.002921522
0.45,0.002915391
0.451,0.00290926
0.452,0.002903129
0.453,0.002893932
0.454,0.002890867
0.455,0.002884736
0.456,0.002875539
0.457,0.002872474
0.458,0.002866343
0.459,0.002860212
0.46,0.002857147
0.461,0.002854081
0.462,0.00284795
0.463,0.002844885
0.464,0.002838754
0.465,0.002835688
0.466,0.002832623
0.467,0.002829557
0.468,0.002829557
0.469,0.002826492
0.47,0.002826492
0.471,0.002826492
0.472,0.002823426
0.473,0.002829557
0.474,0.002829557
0.475,0.002829557
0.476,0.002838754
0.477,0.002841819
0.478,0.00284795
0.479,0.002857147
0.48,0.002866343
0.481,0.002878605
0.482,0.002890867
0.483,0.002903129
0.484,0.002924587
0.485,0.002939914
0.486,0.002964438
0.487,0.002988962
0.488,0.003013486
0.489,0.003047206
0.49,0.003080927
0.491,0.003117712
0.492,0.003163695
0.493,0.003206612
0.494,0.003255659
0.495,0.003313903
0.496,0.003372148
0.497,0.003436523
0.498,0.003510094
0.499,0.003586731
0.5,0.003672565
0.501,0.003761464
0.502,0.003859559
0.503,0.003966851
0.504,0.004077209
0.505,0.004196763
0.506,0.004328578
0.507,0.004463459
0.508,0.004610602
0.509,0.004760811
0.51,0.004923282
0.511,0.005091883
0.512,0.005275812
0.513,0.005462807
0.514,0.005652867
0.515,0.005858254
0.516,0.006069772
0.517,0.006287422
0.518,0.006517333
0.519,0.006750309
0.52,0.006992483
0.521,0.007243852
0.522,0.007498287
0.523,0.007761919
0.524,0.008034746
0.525,0.008310639
0.526,0.008592664
0.527,0.008883885
0.528,0.009175106
0.529,0.009475523
0.53,0.009779006
0.531,0.01009168
0.532,0.01040743
0.533,0.01072624
0.534,0.01105118
0.535,0.01137919
0.536,0.01171026
0.537,0.01205053
0.538,0.01238773
0.539,0.01273107
0.54,0.0130836
0.541,0.01343
0.542,0.01378866
0.543,0.01414732
0.544,0.01450291
0.545,0.01487384
0.546,0.01523556
0.547,0.01560342
0.548,0.01598354
0.549,0.0163514
0.55,0.01672846
0.551,0.01711777
0.552,0.01749176
0.553,0.01787494
0.554,0.01826733
0.555,0.01865051
0.556,0.01903983
0.557,0.01943528
0.558,0.01983072
0.559,0.02022617
0.56,0.02061855
0.561,0.02102013
0.562,0.02141251
0.563,0.02182022
0.564,0.022231
0.565,0.02262644
0.566,0.02304029
0.567,0.02345412
0.568,0.02385264
0.569,0.02426648
0.57,0.02468338
0.571,0.02509109
0.572,0.02550493
0.573,0.02592797
0.574,0.02633568
0.575,0.02676178
0.576,0.02717868
0.577,0.02759559
0.578,0.02802476
0.579,0.02844166
0.58,0.0288647
0.581,0.02929693
0.582,0.02971997
0.583,0.03014301
0.584,0.03136105
0.585,0.03175957
0.586,0.03218874
0.587,0.0326179
0.588,0.03304707
0.589,0.03347624
0.59,0.03393606
0.591,0.03436523
0.592,0.0347944
0.593,0.03525422
0.594,0.03568339
0.595,0.03611255
0.596,0.03657238
0.597,0.03700154
0.598,0.03746137
0.599,0.03792119
0.6,0.03835035
0.601,0.03881018
0.602,0.03923934
0.603,0.03969917
0.604,0.04012834
0.605,0.04058816
0.606,0.04101732
0.607,0.04147715
0.608,0.04193697
0.609,0.04236614
0.61,0.04282596
0.611,0.04328578
0.612,0.0437456
0.613,0.04417477
0.614,0.0446346
0.615,0.04509442
0.616,0.04555424
0.617,0.04601406
0.618,0.04647389
0.619,0.04690305
0.62,0.04739353
0.621,0.0478227
0.622,0.04828252
0.623,0.04874234
0.624,0.04920216
0.625,0.04966199
0.626,0.05012181
0.627,0.05055097
0.628,0.05104145
0.629,0.05150127
0.63,0.05193045
0.631,0.05242092
0.632,0.05288074
0.633,0.05334057
0.634,0.05380039
0.635,0.05426021
0.636,0.05475069
0.637,0.05517985
0.638,0.05567033
0.639,0.05613015
0.64,0.05655932
0.641,0.0570498
0.642,0.05750962
0.643,0.05796945
0.644,0.05845992
0.645,0.05891975
0.646,0.05937957
0.647,0.05987004
0.648,0.06032987
0.649,0.06078969
0.65,0.06128017
0.651,0.06173999
0.652,0.06219981
0.653,0.06269029
0.654,0.06315011
0.655,0.06360994
0.656,0.06406976
0.657,0.06456023
0.658,0.06502005
0.659,0.06547987
0.66,0.06597035
0.661,0.06643017
0.662,0.06688999
0.663,0.06738048
0.664,0.0678403
0.665,0.06830012
0.666,0.0687906
0.667,0.06925042
0.668,0.0697409
0.669,0.07020072
0.67,0.0706912
0.671,0.07115102
0.672,0.0716415
0.673,0.07210132
0.674,0.0725918
0.675,0.07305162
0.676,0.0735421
0.677,0.07400192
0.678,0.07449239
0.679,0.07495221
0.68,0.07544269
0.681,0.07590251
0.682,0.07636234
0.683,0.07685282
0.684,0.07734329
0.685,0.07783377
0.686,0.07829359
0.687,0.07878407
0.688,0.07924389
0.689,0.07973437
0.69,0.08022485
0.691,0.08068467
0.692,0.08117515
0.693,0.08163497
0.694,0.08212545
0.695,0.08258527
0.696,0.08307575
0.697,0.08353557
0.698,0.08402605
0.699,0.08451653
0.7,0.08463915
0.6990001,0.08417932
0.6980001,0.0837195
0.6970001,0.08322902
0.6960001,0.0827692
0.6950001,0.08230938
0.6940001,0.08184955
0.6930001,0.08138973
0.6920001,0.08092991
0.6910001,0.08047009
0.6900001,0.07997961
0.6890001,0.07955044
0.6880001,0.07905997
0.6870001,0.07860014
0.6860001,0.07814032
0.6850001,0.07764985
0.6840001,0.07719002
0.6830001,0.0767302
0.6820001,0.07627037
0.6810001,0.07581055
0.6800001,0.07532008
0.6790001,0.07486025
0.6780001,0.07440043
0.6770001,0.0739406
0.6760001,0.07348078
0.6750001,0.07302096
0.6740001,0.07256114
0.6730001,0.07210132
0.6720001,0.0716415
0.6710001,0.07118168
0.6700001,0.07072186
0.6690001,0.07026203
0.6680001,0.06980221
0.6670001,0.06931173
0.6660001,0.06888256
0.6650001,0.06839209
0.6640001,0.06796291
0.6630001,0.06747244
0.6620001,0.06701262
0.6610001,0.06658345
0.6600001,0.06612363
0.6590001,0.06566381
0.6580001,0.06520399
0.6570001,0.06474417
0.6560001,0.06428434
0.6550001,0.06385517
0.6540001,0.06336469
0.6530001,0.06293552
0.6520001,0.06247571
0.6510001,0.06201588
0.6500001,0.06155606
0.6490001,0.06109623
0.6480001,0.06063641
0.6470001,0.06017659
0.6460001,0.05971677
0.6450001,0.05925695
0.6440001,0.05879712
0.6430001,0.05836796
0.6420001,0.05790814
0.6410001,0.05747896
0.6400001,0.05701914
0.6390001,0.05655932
0.6380001,0.05613015
0.6370001,0.05567033
0.6360001,0.05521051
0.6350001,0.05475069
0.6340001,0.05432152
0.6330001,0.05383104
0.6320001,0.05340188
0.6310001,0.05294205
0.6300001,0.05251288
0.6290001,0.05205306
0.6280001,0.05162389
0.6270001,0.05116407
0.6260001,0.05070425
0.6250001,0.05027508
0.6240001,0.04984592
0.6230001,0.0493861
0.6220001,0.04895693
0.6210001,0.0484971
0.6200001,0.04806793
0.6190001,0.04763877
0.6180001,0.04717895
0.6170001,0.04671912
0.6160001,0.04628995
0.6150001,0.04583013
0.6140001,0.04540097
0.6130001,0.04494114
0.6120001,0.04448132
0.6110001,0.04405215
0.6100001,0.04362299
0.6090001,0.04319382
0.6080001,0.04276465
0.6070001,0.04230483
0.6060001,0.04187566
0.6050001,0.04144649
0.6040001,0.04101732
0.6030001,0.04058816
0.6020001,0.04012834
0.6010001,0.03969917
0.6000001,0.03927
0.5990001,0.03884083
0.5980001,0.03841167
0.5970001,0.03795184
0.5960001,0.03752267
0.5950001,0.03709351
0.5940001,0.03666434
0.5930001,0.03623517
0.5920001,0.035806
0.5910001,0.03537684
0.5900001,0.03494767
0.5890001,0.03454916
0.5880001,0.03411999
0.5870001,0.03369082
0.5860001,0.03326165
0.5850001,0.03283248
0.5840001,0.03243398
0.5830001,0.03200481
0.5820001,0.03157564
0.5810001,0.03117712
0.5800001,0.03074796
0.5790001,0.03031879
0.5780001,0.02988962
0.5770001,0.02949111
0.5760001,0.02906194
0.5750001,0.02866343
0.5740001,0.02826492
0.5730001,0.02783575
0.5720001,0.02743724
0.5710001,0.02700807
0.5700001,0.02660956
0.5690001,0.02618039
0.5680001,0.02578188
0.5670001,0.02538336
0.5660001,0.02498485
0.5650001,0.02458634
0.5640001,0.02418783
0.5630001,0.02378931
0.5620001,0.0233908
0.5610001,0.02299229
0.5600001,0.02259377
0.5590001,0.02219526
0.5580001,0.02179675
0.5570001,0.02139824
0.5560001,0.02103038
0.5550001,0.02063187
0.5540001,0.02026401
0.5530001,0.0198655
0.5520001,0.01949764
0.5510001,0.01909912
0.5500001,0.01873127
0.5490001,0.01836341
0.5480001,0.01799555
0.5470001,0.01762769
0.5460001,0.01722918
0.5450001,0.01686132
0.5440001,0.01652412
0.5430001,0.01615626
0.5420001,0.0157884
0.5410001,0.01542055
0.5400001,0.01505269
0.5390001,0.01471548
0.5380001,0.01434763
0.5370001,0.01401042
0.5360001,0.01364256
0.5350001,0.01330536
0.5340001,0.01247663
0.5330001,0.01214249
0.5320001,0.01181142
0.5310001,0.01148341
0.5300001,0.01115541
0.5290001,0.01083353
0.5280001,0.01051472
0.5270001,0.01019285
0.5260001,0.009880167
0.5250001,0.009573619
0.5240001,0.009260939
0.5230001,0.008960522
0.5220001,0.00866317
0.5210001,0.008359687
0.5200001,0.008074597
0.5190001,0.007786443
0.5180001,0.007498287
0.5170001,0.007219328
0.5160001,0.006943435
0.5150001,0.006670607
0.5140001,0.00640391
0.5130001,0.006140279
0.5120001,0.005876646
0.5110001,0.005622211
0.5100001,0.005376973
0.5090001,0.005131735
0.5080001,0.004892627
0.5070001,0.004662716
0.5060001,0.004429739
0.5050001,0.004205959
0.5040001,0.003991375
0.5030001,0.003773726
0.5020001,0.003568338
0.5010001,0.003369082
0.5000001,0.00316676
0.4990001,0.0029767
0.4980001,0.002792771
0.4970001,0.002608842
0.4960001,0.002440241
0.4950001,0.002268574
0.4940001,0.002106103
0.4930001,0.001949764
0.4920001,0.001796489
0.4910001,0.001652412
0.4900001,0.0015114
0.4890001,0.001376518
0.4880001,0.001247768
0.4870001,0.00109071
0.4860001,0.0009760614
0.4850001,0.000862945
0.4840001,0.0007532008
0.4830001,0.0006529595
0.4820001,0.0005524117
0.4810001,0.000459221
0.4800001,0.0003718548
0.4790001,0.000284795
0.4780001,0.0002075449
0.4770001,0.0001330536
0.4760001,5.825585E-05
0.4750001,-1.081999E-05
0.4740001,-7.482726E-05
0.4730001,-0.0001357384
0.4720001,-0.0001886486
0.4710001,-0.0002444097
0.4700001,-0.0002926911
0.4690001,-0.000337498
0.4680001,-0.0003813344
0.4670001,-0.0004211857
0.4660001,-0.0004588911
0.4650001,-0.0004956769
0.4640001,-0.0005269448
0.4630001,-0.0005603586
0.4620001,-0.0005882545
0.4610001,-0.0006182962
0.4600001,-0.0006443528
0.4590001,-0.0006642784
0.4580001,-0.0006884958
0.4570001,-0.0007096475
0.4560001,-0.0007265077
0.4550001,-0.0007476595
0.4540001,-0.000762987
0.4530001,-0.0007783144
0.4520001,-0.0007951746
0.4510001,-0.0008059037
0.4500001,-0.0008193919
0.4490001,-0.00083288
0.4480001,-0.000842383
0.4470001,-0.0008549515
0.4460001,-0.0008629217
0.4450001,-0.000870892
0.4440001,-0.0008825408
0.4430001,-0.0008880587
0.4420001,-0.000896642
0.4410001,-0.0009043057
0.4400001,-0.000908904
0.4390001,-0.0009171807
0.4380001,-0.0009214724
0.4370001,-0.0009276034
0.4360001,-0.000934654
0.4350001,-0.0009364933
0.4340001,-0.0009426242
0.4330001,-0.000947529
0.4320001,-0.0009505945
0.4310001,-0.0009576452
0.4300001,-0.0009591779
0.4290001,-0.0009640827
0.4280001,-0.0009702136
0.4270001,-0.0009705202
0.4260001,-0.0009754249
0.4250001,-0.0009797165
0.4240001,-0.0009803297
0.4230001,-0.0009867672
0.4220001,-0.0009895262
0.4210001,-0.0009904457
0.4200001,-0.0009956572
0.4190001,-0.0009965767
0.4180001,-0.001000562
0.4170001,-0.001003321
0.4160001,-0.001005467
0.4150001,-0.001010065
0.4140001,-0.001010985
0.4130001,-0.00101405
0.4120001,-0.001018648
0.4110001,-0.001018955
0.4100001,-0.001027232
0.4090001,-0.00103183
0.4080001,-0.001029071
0.4070001,-0.001033363
0.4060001,-0.001033669
0.4050001,-0.001034589
0.4040001,-0.001040107
0.4030001,-0.00104072
0.4020001,-0.001043479
0.4010001,-0.001046544
0.4000001,-0.001045931
0.3990001,-0.001050836
0.3980001,-0.001052675
0.3970001,-0.001055128
0.3960001,-0.001059419
0.3950001,-0.001059113
0.3940001,-0.001062178
0.3930001,-0.001064324
0.3920001,-0.001064631
0.3910001,-0.001069842
0.3900001,-0.001071068
0.3890001,-0.001072601
0.3880001,-0.001076586
0.3870001,-0.001076279
0.3860001,-0.001079958
0.3850001,-0.00108241
0.3840001,-0.001081491
0.3830001,-0.001086702
0.3820001,-0.001086395
0.3810001,-0.001088541
0.3800001,-0.00109314
0.3790001,-0.00109222
0.3780001,-0.001094979
0.3770001,-0.001097738
0.3760001,-0.001096511
0.3750001,-0.001100497
0.3740001,-0.001101416
0.3730001,-0.001102029
0.3720001,-0.001105401
0.3710001,-0.001106015
0.3700001,-0.001107854
0.3690001,-0.001108467
0.3680001,-0.00110816
0.3670001,-0.001110613
0.3660001,-0.001110306
0.3650001,-0.001112452
0.3640001,-0.001114291
0.3630001,-0.001111839
0.3620001,-0.001114291
0.3610001,-0.001115518
0.3600001,-0.001113065
0.3590001,-0.001116744
0.3580001,-0.001116744
0.3570001,-0.001114598
0.3560001,-0.001116437
0.3550001,-0.001113985
0.3540001,-0.001114291
0.3530001,-0.001115518
0.3520001,-0.001112759
0.3510001,-0.001113372
0.3500001,-0.001112145
0.3490001,-0.001110306
0.3480001,-0.001110919
0.3470001,-0.001107854
0.3460001,-0.001107547
0.3450001,-0.001106628
0.3440001,-0.001103256
0.3430001,-0.001103562
0.3420001,-0.00110019
0.3410001,-0.001097738
0.3400001,-0.001097431
0.3390001,-0.001093753
0.3380001,-0.00109222
0.3370001,-0.001089461
0.3360001,-0.001084556
0.3350001,-0.001085782
0.3340001,-0.001080571
0.3330001,-0.00107536
0.3320001,-0.001074747
0.3310001,-0.001069535
0.3300001,-0.001066776
0.3290001,-0.001064324
0.3280001,-0.001058193
0.3270001,-0.00105666
0.3260001,-0.001052982
0.3250001,-0.001047157
0.3240001,-0.001044398
0.3230001,-0.001039187
0.3220001,-0.001034895
0.3210001,-0.001031217
0.3200001,-0.001025392
0.3190001,-0.00102202
0.3180001,-0.001015889
0.3170001,-0.001010985
0.3160001,-0.001007306
0.3150001,-0.0009996422
0.3140001,-0.0009956572
0.3130001,-0.0009913654
0.3120001,-0.0009833951
0.3110001,-0.0009803297
0.3100001,-0.0009738922
0.3090001,-0.0009674546
0.3080001,-0.0009637761
0.3070001,-0.0009588713
0.3060001,-0.0009515142
0.3050001,-0.0009466094
0.3040001,-0.0009380261
0.3030001,-0.0009337344
0.3020001,-0.0009263772
0.3010001,-0.0009199397
0.3000001,-0.0009153415
0.2990001,-0.0009073712
0.2980001,-0.0009009338
0.2970001,-0.0008951093
0.2960001,-0.000887139
0.2950001,-0.0008825408
0.2940001,-0.0008757967
0.2930001,-0.0008678265
0.2920001,-0.0008623086
0.2910001,-0.0008549515
0.2900001,-0.0008488205
0.2890001,-0.0008420764
0.2880001,-0.0008344128
0.2870001,-0.0008285883
0.2860001,-0.0008209246
0.2850001,-0.0008135674
0.2840001,-0.0008083562
0.2830001,-0.0007997728
0.2820001,-0.0007933353
0.2810001,-0.0007872043
0.2800001,-0.0007773947
0.2790001,-0.0007731031
0.2780001,-0.0007657459
0.2770001,-0.0007577756
0.2760001,-0.0007528709
0.2750001,-0.0007449006
0.2740001,-0.0007375435
0.2730001,-0.0007317191
0.2720001,-0.0007234422
0.2710001,-0.0007176179
0.2700001,-0.0007102606
0.2690001,-0.0007038232
0.2680001,-0.0006973856
0.2670001,-0.0006891088
0.2660001,-0.0006826713
0.2650001,-0.0006768469
0.2640001,-0.0006682636
0.2630001,-0.0006630523
0.2620001,-0.0006560017
0.2610001,-0.0006483379
0.2600001,-0.0006434331
0.2590001,-0.0006357695
0.2580001,-0.0006293319
0.2570001,-0.0006235075
0.2560001,-0.0006161503
0.2550001,-0.000610326
0.2540001,-0.0006035819
0.2530001,-0.0005965313
0.2520001,-0.000591933
0.2510001,-0.0005845759
0.2500001,-0.0005787515
0.2490001,-0.0005732336
0.2480001,-0.0005655699
0.2470001,-0.0005603586
0.2460001,-0.0005545341
0.2450001,-0.0005477901
0.2440001,-0.0005431919
0.2430001,-0.0005370609
0.2420001,-0.0005309299
0.2410001,-0.0005257186
0.2400001,-0.0005189746
0.2390001,-0.0005143763
0.2380001,-0.0005088585
0.2370001,-0.0005036471
0.2360001,-0.0004987424
0.2350001,-0.0004926114
0.2340001,-0.0004874001
0.2330001,-0.0004831084
0.2320001,-0.0004763643
0.2310001,-0.0004723792
0.2300001,-0.0004674745
0.2290001,-0.00046165
0.2280001,-0.000458278
0.2270001,-0.0004524536
0.2260001,-0.0004475488
0.2250001,-0.0004438702
0.2240001,-0.0004386589
0.2230001,-0.0004343672
0.2220001,-0.0004300755
0.2210001,-0.0004251708
0.2200001,-0.0004217988
0.2190001,-0.000416894
0.2180001,-0.0004126023
0.2170001,-0.0004089237
0.2160001,-0.000404019
0.2150001,-0.0004009535
0.2140001,-0.0003966618
0.2130001,-0.0003920636
0.2120001,-0.0003893046
0.2110001,-0.0003850129
0.2100001,-0.0003810278
0.2090001,-0.0003779623
0.2080001,-0.0003733641
0.2070001,-0.0003706052
0.2060001,-0.0003672332
0.2050001,-0.0003638611
0.2040001,-0.0003607956
0.2030001,-0.0003568105
0.2020001,-0.0003534385
0.2010001,-0.0003509861
0.2000001,-0.0003466944
0.1990001,-0.0003439355
0.1980001,-0.0003411766
0.1970001,-0.000337498
0.1960001,-0.0003353521
0.1950001,-0.0003322866
0.1940001,-0.0003289146
0.1930001,-0.0003267688
0.1920001,-0.0003233968
0.1910001,-0.0003209444
0.1900001,-0.0003181854
0.1890001,-0.0003154265
0.1880001,-0.0003132806
0.1870001,-0.0003105217
0.1860001,-0.0003083759
0.1850001,-0.00030623
0.1840001,-0.000302858
0.1830001,-0.0003010187
0.1820001,-0.0002985664
0.1810001,-0.000296114
0.1800001,-0.0002945812
0.1790001,-0.0002921289
0.1780001,-0.0002896764
0.1770001,-0.0002881437
0.1760001,-0.0002853848
0.1750001,-0.0002835455
0.1740001,-0.0002817062
0.1730001,-0.0002795603
0.1720001,-0.0002783342
0.1710001,-0.0002764949
0.1700001,-0.0002740425
0.1690001,-0.0002728163
0.1680001,-0.0002703639
0.1670001,-0.0002694443
0.1660001,-0.0002672984
0.1650001,-0.0002651526
0.1640001,-0.0002645395
0.1630001,-0.0002627002
0.1620001,-0.0002608609
0.1610001,-0.0002596347
0.1600001,-0.0002574889
0.1590001,-0.0002565692
0.1580001,-0.0002550365
0.1570001,-0.0002528907
0.1560001,-0.0002522776
0.1550001,-0.0002507448
0.1540001,-0.0002492121
0.1530001,-0.0002482924
0.1520001,-0.00024584
0.1510001,-0.000245227
0.1500001,-0.0002440007
0.1490001,-0.000242468
0.1480001,-0.0002415484
0.1470001,-0.0002403222
0.1460001,-0.0002387894
0.1450001,-0.0002375632
0.1440001,-0.000235724
0.1430001,-0.0002348043
0.1420001,-0.0002338847
0.1410001,-0.0002323519
0.1400001,-0.0002314323
0.1390001,-0.0002302061
0.1380001,-0.0002289799
0.1370001,-0.0002280602
0.1360001,-0.0002259144
0.1350001,-0.0002249948
0.1340001,-0.0002240751
0.1330001,-0.0002225424
0.1320001,-0.0002222358
0.1310001,-0.0002207031
0.1300001,-0.0002188638
0.1290001,-0.0002182507
0.1280001,-0.0002161049
0.1270001,-0.0002154918
0.1260001,-0.0002145721
0.1250001,-0.0002130394
0.1240001,-0.0002121197
0.1230001,-0.0002108935
0.1220001,-0.0002093608
0.1210001,-0.0002084412
0.1200001,-0.0002066019
0.1190001,-0.0002056822
0.1180001,-0.0002047626
0.1170001,-0.0002032298
0.1160001,-0.0002026167
0.1150001,-0.0002007774
0.1140001,-0.0001992447
0.1130001,-0.0001986316
0.1120001,-0.0001970989
0.1110001,-0.0001961792
0.1100001,-0.000194953
0.1090001,-0.0001937268
0.1080001,-0.0001928072
0.1070001,-0.0001912744
0.1060001,-0.0001900483
0.1050001,-0.0001891286
0.1040001,-0.0001875959
0.1030001,-0.0001869828
0.1020001,-0.0001857566
0.1010001,-0.0001842238
0.1000001,-0.0001836107
0.0990001,-0.000182078
0.09800009,-0.0001808518
0.09700009,-0.0001802387
0.0960001,-0.000178706
0.0950001,-0.0001780929
0.09400009,-0.0001768667
0.0930001,-0.0001753339
0.0920001,-0.0001747208
0.0910001,-0.0001741077
0.09000009,-0.0001728816
0.0890001,-0.0001719619
0.0880001,-0.0001707357
0.08700009,-0.0001701226
0.08600009,-0.000169203
0.0850001,-0.0001679768
0.0840001,-0.0001673637
0.08300009,-0.000166444
0.08200009,-0.0001655244
0.0810001,-0.0001652178
0.0800001,-0.0001636851
0.07900009,-0.0001633786
0.0780001,-0.0001624589
0.0770001,-0.0001612327
0.07600009,-0.0001609262
0.07500009,-0.0001603131
0.0740001,-0.0001593934
0.0730001,-0.0001587803
0.07200009,-0.0001578607
0.07100009,-0.0001575541
0.0700001,-0.0001572476
0.0690001,-0.0001560214
0.06800009,-0.0001557148
0.0670001,-0.0001551017
0.0660001,-0.0001541821
0.06500009,-0.0001538755
0.06400009,-0.0001532625
0.0630001,-0.0001526494
0.0620001,-0.0001520363
0.06100009,-0.0001514232
0.0600001,-0.0001511166
0.0590001,-0.0001508101
0.0580001,-0.0001498904
0.0570001,-0.0001533343
0.05600009,-0.0001522001
0.0550001,-0.0001518015
0.05400009,-0.0001514337
0.0530001,-0.0001506366
0.05200009,-0.0001504834
0.0510001,-0.0001499622
0.05000009,-0.0001493491
0.0490001,-0.0001490733
0.04800009,-0.0001481843
0.0470001,-0.0001477858
0.0460001,-0.0001473259
0.04500009,-0.0001466515
0.0440001,-0.000146345
0.04300009,-0.0001458545
0.0420001,-0.0001452108
0.04100009,-0.0001449042
0.0400001,-0.0001443524
0.03900009,-0.0001441072
0.0380001,-0.0001436167
0.03700009,-0.0001430036
0.0360001,-0.0001427583
0.0350001,-0.0001421146
0.03400009,-0.0001416241
0.0330001,-0.0001412563
0.03200009,-0.0001405512
0.03100009,-0.0001402753
0.0300001,-0.0001399075
0.0290001,-0.0001393863
0.0280001,-0.0001391411
0.0270001,-0.0001387732
0.0260001,-0.0001382215
0.0250001,-0.0001380375
0.0240001,-0.0001375164
0.0230001,-0.0001372098
0.02200009,-0.000136842
0.02100009,-0.0001363822
0.02000009,-0.0001361063
0.0190001,-0.0001357997
0.0180001,-0.0001352786
0.0170001,-0.0001349414
0.0160001,-0.0001344509
0.0150001,-0.000134083
0.0140001,-0.0001338685
0.0130001,-0.0001335926
0.0120001,-0.000133286
0.01100009,-0.0001328875
0.0100001,-0.0001326116
0.009000096,-0.000132397
0.008000095,-0.0001318452
0.007000095,-0.0001316
0.006000096,-0.0001312322
0.005000095,-0.0001307723
0.004000095,-0.000130619
0.003000095,-0.0001302819
0.002000095,-0.0001298833
0.001000095,-0.00012973
9.536743E-08,-0.0001203803
0.0009999046,-0.0001132991
0.001999905,-0.00010913
0.002999905,-0.000105758
0.003999905,-0.0001026005
0.004999904,-0.0001000255
0.005999905,-9.772641E-05
0.006999905,-9.539664E-05
0.007999904,-9.343474E-05
0.008999905,-9.147283E-05
0.009999905,-8.954158E-05
0.0109999,-8.788622E-05
0.0119999,-8.598562E-05
0.0129999,-8.426895E-05
0.0139999,-8.276686E-05
0.0149999,-8.11115E-05
0.0159999,-7.967072E-05
0.0169999,-7.829125E-05
0.0179999,-7.678917E-05
0.0189999,-7.562429E-05
0.0199999,-7.424482E-05
0.0209999,-7.301863E-05
0.0219999,-7.179243E-05
0.02299991,-7.0321E-05
0.02399991,-6.918678E-05
0.02499991,-6.802189E-05
0.02599991,-6.67957E-05
0.0269999,-6.575343E-05
0.0279999,-6.45579E-05
0.0289999,-6.351563E-05
0.0299999,-6.253467E-05
0.0309999,-6.140045E-05
0.0319999,-6.032753E-05
0.0329999,-5.937723E-05
0.0339999,-5.821234E-05
0.0349999,-5.726204E-05
0.03599991,-5.603585E-05
0.0369999,-5.517752E-05
0.03799991,-5.431919E-05
0.0389999,-5.324627E-05
0.03999991,-5.241858E-05
0.0409999,-5.162156E-05
0.04199991,-5.067126E-05
0.0429999,-4.990489E-05
0.0439999,-4.880131E-05
0.0449999,-4.791233E-05
0.0459999,-4.708464E-05
0.04699991,-4.604238E-05
0.0479999,-4.527601E-05
0.04899991,-4.447898E-05
0.0499999,-4.362065E-05
0.05099991,-4.288493E-05
0.0519999,-4.199594E-05
0.05299991,-4.122957E-05
0.0539999,-4.040189E-05
0.0549999,-3.945159E-05
0.0559999,-3.893046E-05
0.0569999,-3.810278E-05
0.05799991,-3.733641E-05
0.0589999,-3.675397E-05
0.05999991,-3.574236E-05
0.0609999,-3.494533E-05
0.06199991,-3.436289E-05
0.0629999,-3.353521E-05
0.06399991,-3.289146E-05
0.06499991,-3.227836E-05
0.0659999,-3.145068E-05
0.0669999,-3.096021E-05
0.06799991,-3.000991E-05
0.0689999,-2.924354E-05
0.0699999,-2.863044E-05
0.07099991,-2.789472E-05
0.07199991,-2.734294E-05
0.0729999,-2.676049E-05
0.0739999,-2.605543E-05
0.07499991,-2.556496E-05
0.07599991,-2.473728E-05
0.0769999,-2.397091E-05
0.0779999,-2.338846E-05
0.07899991,-2.26834E-05
0.0799999,-2.219293E-05
0.0809999,-2.161048E-05
0.08199991,-2.099739E-05
0.08299991,-2.032298E-05
0.0839999,-1.943399E-05
0.0849999,-1.885155E-05
0.08599991,-1.845304E-05
0.08699991,-1.771732E-05
0.0879999,-1.731881E-05
0.0889999,-1.676702E-05
0.08999991,-1.584738E-05
0.0909999,-1.53569E-05
0.0919999,-1.462118E-05
0.09299991,-1.403874E-05
0.09399991,-1.37935E-05
0.0949999,-1.293517E-05
0.0959999,-1.232207E-05
0.09699991,-1.183159E-05
0.09799991,-1.091195E-05
0.0989999,-1.054409E-05
0.0999999,-9.869686E-06
0.1009999,-9.348554E-06
0.1019999,-8.674148E-06
0.1029999,-7.403024E-06
0.1039999,-6.967725E-06
0.1049999,-6.440462E-06
0.1059999,-5.713942E-06
0.1069999,-5.293972E-06
0.1079999,-4.383523E-06
0.1089999,-3.877718E-06
0.1099999,-3.470009E-06
0.1109999,-2.642329E-06
0.1119999,-2.176376E-06
0.1129999,-1.707357E-06
0.1139999,-8.674148E-07
0.1149999,-4.351818E-07
0.1159999,5.365762E-07
0.1169999,1.060774E-06
0.1179999,1.538989E-06
0.1189999,2.477027E-06
0.1199999,3.00429E-06
0.1209999,3.522356E-06
0.1219999,4.270334E-06
0.1229999,4.59221E-06
0.1239999,5.524116E-06
0.1249999,6.051379E-06
0.1259999,6.495874E-06
0.1269999,7.476829E-06
0.1279999,7.988764E-06
0.1289999,8.558945E-06
0.1299999,9.503113E-06
0.1309999,9.987459E-06
0.1319999,1.098068E-05
0.1329999,1.149874E-05
0.1339999,1.197389E-05
0.1349999,1.284449E-05
0.1359999,1.331351E-05
0.1369999,1.395419E-05
0.1379999,1.489836E-05
0.1389999,1.474614E-05
0.1399999,1.551251E-05
0.1409999,1.630954E-05
0.1419999,1.664674E-05
0.1429999,1.790359E-05
0.1439999,1.848603E-05
0.1449999,1.903781E-05
0.1459999,1.998811E-05
0.1469999,2.063187E-05
0.1479999,2.136758E-05
0.1489999,2.207264E-05
0.1499999,2.259377E-05
0.1509999,2.360538E-05
0.1519999,2.424914E-05
0.1529999,2.504616E-05
0.1539999,2.59658E-05
0.1549999,2.65789E-05
0.1559999,2.789706E-05
0.1569999,2.841819E-05
0.1579999,2.884736E-05
0.1589999,3.019617E-05
0.1599999,3.074796E-05
0.1609999,3.145302E-05
0.1619999,3.252594E-05
0.1629999,3.29551E-05
0.1639999,3.442654E-05
0.1649999,3.525422E-05
0.1659999,3.583666E-05
0.1669999,3.684827E-05
0.1679999,3.761464E-05
0.1689999,3.844232E-05
0.1699999,3.963786E-05
0.1709999,4.018964E-05
0.1719999,4.147715E-05
0.1729999,4.251941E-05
0.1739999,4.328578E-05
0.1749999,4.454263E-05
0.1759999,4.533965E-05
0.1769999,4.619799E-05
0.1779999,4.748549E-05
0.1789999,4.797597E-05
0.1799999,4.950871E-05
0.1809999,5.045901E-05
0.1819999,5.143996E-05
0.1829999,5.291139E-05
0.1839999,5.355515E-05
0.1849999,5.447479E-05
0.1859999,5.585426E-05
0.1869999,5.668194E-05
0.1879999,5.858254E-05
0.1889999,5.959415E-05
0.1899999,6.032986E-05
0.1909999,6.183195E-05
0.1919999,6.302749E-05
0.1929999,6.397779E-05
0.1939999,6.569445E-05
0.1949999,6.670607E-05
0.1959999,6.833077E-05
0.1969999,6.952632E-05
0.1979999,7.062989E-05
0.1989999,7.216263E-05
0.1999999,7.341948E-05
0.2009999,7.476829E-05
0.2019999,7.651561E-05
0.2029999,7.743525E-05
0.2039999,7.948913E-05
0.2049999,8.092991E-05
0.2059999,8.212545E-05
0.2069999,8.408735E-05
0.2079999,8.522158E-05
0.2089999,8.666235E-05
0.2099999,8.862426E-05
0.2109999,8.991177E-05
0.2119999,9.23335E-05
0.2129999,9.398886E-05
0.2139999,9.490851E-05
0.2149999,9.705434E-05
0.2159999,9.864839E-05
0.2169999,0.000100457
0.2179999,0.0001025722
0.2189999,0.0001039823
0.2199999,0.0001063428
0.2209999,0.0001080901
0.2219999,0.0001096535
0.2229999,0.0001119219
0.2239999,0.0001140371
0.2249999,0.000116091
0.2259999,0.0001181755
0.2269999,0.0001199535
0.2279999,0.0001225285
0.2289999,0.0001244598
0.2299999,0.0001265749
0.2309999,0.0001293645
0.2319999,0.0001310505
0.2329999,0.0001332577
0.2339999,0.0001362312
0.2349999,0.0001380705
0.2359999,0.0001411973
0.2369999,0.0001434044
0.2379999,0.000145305
0.2389999,0.0001487997
0.2399999,0.0001513747
0.2409999,0.0001534899
0.2419999,0.0001568312
0.2429999,0.0001591917
0.2439999,0.0001623798
0.2449999,0.000165108
0.2459999,0.0001678976
0.2469999,0.0001710551
0.2479999,0.0001737834
0.2489999,0.0001770634
0.2499999,0.0001802209
0.2509999,0.0001829185
0.2519999,0.0001869956
0.2529999,0.0001897545
0.2539999,0.0001925748
0.2549999,0.0001965906
0.2559999,0.0002000239
0.2569999,0.0002035799
0.2579999,0.0002074117
0.2589999,0.000210048
0.2599999,0.0002147382
0.2609999,0.0002184168
0.2619999,0.0002219115
0.2629999,0.0002260192
0.2639999,0.0002294219
0.2649999,0.0002333151
0.2659999,0.0002382198
0.2669999,0.0002417758
0.2679999,0.000246374
0.2689999,0.0002507883
0.2699999,0.0002544975
0.2709999,0.0002594943
0.2719999,0.0002636633
0.2729999,0.0002679857
0.2739999,0.0002729517
0.2749999,0.000277366
0.2759999,0.0002828532
0.2769999,0.000290926
0.2779999,0.0002949111
0.2789999,0.0003007355
0.2799999,0.0003044141
0.2809999,0.0003096254
0.2819999,0.0003151433
0.2829999,0.0003200481
0.2839999,0.0003264856
0.2849999,0.0003313904
0.2859999,0.0003359886
0.2869999,0.0003424261
0.2879999,0.0003482505
0.2889999,0.0003531553
0.2899999,0.0003598994
0.2909999,0.0003648041
0.2919999,0.0003715482
0.2929999,0.0003773726
0.2939999,0.000383197
0.2949999,0.0003899411
0.2959999,0.0003954589
0.2969999,0.000402203
0.2979999,0.0004089471
0.2989999,0.0004144649
0.2999999,0.0004224352
0.3009999,0.0004282596
0.3019999,0.0004346971
0.3029999,0.0004423608
0.3039999,0.0004481853
0.3049999,0.0004555424
0.3059999,0.0004632061
0.3069999,0.0004705633
0.3079999,0.000478227
0.3089999,0.0004840514
0.3099999,0.0004907955
0.3109999,0.0004993788
0.3119999,0.0005055098
0.3129999,0.0005128669
0.3139999,0.0005211438
0.3149999,0.0005278878
0.3159999,0.0005364711
0.3169999,0.0005432153
0.3179999,0.0005505724
0.3189999,0.0005591557
0.3199999,0.0005665129
0.3209999,0.0005741765
0.3219999,0.0005824534
0.3229999,0.000589504
0.3239999,0.0005993135
0.3249999,0.000605138
0.3259999,0.0006134148
0.3269999,0.0006226112
0.3279999,0.0006290487
0.3289999,0.0006379387
0.3299999,0.000646522
0.3309999,0.0006526529
0.3319999,0.0006624625
0.3329999,0.0006692066
0.3339999,0.0006771768
0.3349999,0.0006869864
0.3359999,0.0006937304
0.3369999,0.0007020072
0.3379999,0.0007108971
0.3389999,0.0007182543
0.3399999,0.0007274507
0.3409999,0.0007345013
0.3419999,0.0007424716
0.3429999,0.0007519746
0.3439999,0.0007584121
0.3449999,0.0007676086
0.3459999,0.0007755788
0.3469999,0.0007820163
0.3479999,0.0007921324
0.3489999,0.0007988765
0.3499999,0.0008062336
0.3509999,0.0008157367
0.3519999,0.0008224807
0.3529999,0.000831064
0.3539999,0.0008393408
0.3549999,0.0008451653
0.3559999,0.0008552813
0.3569999,0.0008614123
0.3579999,0.0008696892
0.3589999,0.0008788856
0.3599999,0.0008850165
0.3609999,0.0008920672
0.3619999,0.0009006505
0.3629999,0.0009067815
0.3639999,0.0009162845
0.3649999,0.0009224154
0.3659999,0.0009291595
0.3669999,0.0009377429
0.3679999,0.0009438738
0.3689999,0.0009518441
0.3699999,0.0009582816
0.3709999,0.0009650256
0.3719999,0.0009745287
0.3729999,0.0009794334
0.3739999,0.000986484
0.3749999,0.0009950673
0.3759999,0.0009984394
0.3769999,0.001007636
0.3779999,0.001015606
0.3789999,0.001019285
0.3799999,0.001028175
0.3809999,0.001033079
0.3819999,0.00103921
0.3829999,0.001047487
0.3839999,0.001051166
0.3849999,0.001058829
0.3859999,0.001065573
0.3869999,0.001070478
0.3879999,0.001078448
0.3889999,0.001082434
0.3899999,0.001088871
0.3909999,0.001096228
0.3919999,0.001100213
0.3929999,0.001107571
0.3939999,0.001112475
0.3949999,0.001116154
0.3959999,0.00112535
0.3969999,0.001129029
0.3979999,0.001134853
0.3989999,0.001141904
0.3999999,0.00114405
0.4009999,0.001151407
0.4019999,0.001156925
0.4029999,0.00115999
0.4039999,0.001167961
0.4049999,0.001171026
0.4059999,0.001175318
0.4069999,0.001182062
0.4079999,0.001184514
0.4089999,0.001193098
0.4099999,0.001201681
0.4109999,0.001201987
0.4119999,0.001208425
0.4129999,0.001210571
0.4139999,0.001214556
0.4149999,0.001219767
0.4159999,0.001223139
0.4169999,0.001228351
0.4179999,0.001232336
0.4189999,0.001234788
0.4199999,0.001241226
0.4209999,0.001243065
0.4219999,0.001248276
0.4229999,0.001254407
0.4239999,0.001254101
0.4249999,0.001260538
0.4259999,0.00126483
0.4269999,0.001265136
0.4279999,0.0012728
0.4289999,0.001275252
0.4299999,0.001277705
0.4309999,0.001283529
0.4319999,0.001284755
0.4329999,0.001289354
0.4339999,0.001293339
0.4349999,0.001294872
0.4359999,0.001301309
0.4369999,0.001303148
0.4379999,0.001307133
0.4389999,0.001311732
0.4399999,0.001312958
0.4409999,0.001319395
0.4419999,0.001322461
0.4429999,0.001324607
0.4439999,0.001331351
0.4449999,0.001331351
0.4459999,0.001335336
0.4469999,0.001341773
0.4479999,0.001344226
0.4489999,0.001349131
0.4499999,0.001353116
0.4509999,0.001354955
0.4519999,0.001362619
0.4529999,0.001364458
0.4539999,0.001368443
0.4549999,0.0013758
0.4559999,0.00137764
0.4569999,0.001384077
0.4579999,0.001389288
0.4589999,0.001393274
0.4599999,0.00140155
0.4609999,0.001408601
0.4619999,0.001414119
0.4629999,0.001421476
0.4639999,0.001426074
0.4649999,0.00143711
0.4659999,0.001444467
0.4669999,0.001452131
0.4679999,0.001464699
0.4689999,0.00147175
0.4699999,0.001483705
0.4709999,0.001498113
0.4719999,0.001507003
0.4729999,0.001525089
0.4739999,0.001541336
0.4749999,0.001555131
0.4759999,0.001576896
0.4769999,0.001594369
0.4779999,0.001615521
0.4789999,0.001640351
0.4799999,0.001665488
0.4809999,0.00169461
0.4819999,0.001724346
0.4829999,0.001757146
0.4839999,0.001796078
0.4849999,0.00183317
0.4859999,0.0018767
0.4869999,0.001924522
0.4879999,0.001974182
0.4889999,0.002032427
0.4899999,0.002091591
0.4909999,0.002155353
0.4919999,0.002229537
0.4929999,0.002304029
0.4939999,0.00238557
0.4949999,0.002476922
0.4959999,0.00256858
0.4969999,0.002673419
0.4979999,0.002782244
0.4989999,0.002897813
0.4999999,0.003026563
0.5009999,0.003185153
0.5019999,0.003320034
0.5029999,0.003470243
0.5039999,0.003620452
0.5049999,0.003789053
0.5059999,0.003963786
0.5069999,0.004141584
0.5079999,0.004331644
0.5089999,0.004527835
0.5099999,0.004733222
0.5109999,0.00494474
0.5119999,0.00516852
0.5129999,0.005398431
0.5139999,0.005631408
0.5149999,0.005876646
0.5159999,0.006128016
0.5169999,0.006382451
0.5179999,0.006649148
0.5189999,0.006921976
0.5199999,0.007191739
0.5209999,0.007479894
0.5219999,0.00776805
0.5229999,0.008056205
0.5239999,0.008359687
0.5249999,0.008666236
0.5259999,0.008972785
0.5269999,0.009288529
0.5279999,0.009607339
0.5289999,0.009929215
0.5299999,0.01026029
0.5309999,0.01059136
0.5319999,0.01092856
0.5329999,0.01126576
0.5339999,0.0116091
0.5349999,0.0119555
0.5359999,0.01230496
0.5369999,0.01266056
0.5379999,0.01301309
0.5389999,0.01337482
0.5399999,0.01374267
0.5409999,0.0141044
0.5419999,0.01447533
0.5429999,0.01484625
0.5439999,0.01521717
0.5449999,0.01559729
0.5459999,0.01597435
0.5469999,0.01635447
0.5479999,0.01673765
0.5489999,0.01712084
0.5499999,0.01751015
0.5509999,0.01789947
0.5519999,0.01829492
0.5529999,0.01868423
0.5539999,0.01907661
0.5549999,0.01947513
0.5559999,0.01987364
0.5569999,0.02027215
0.5579999,0.0206768
0.5589999,0.02107531
0.5599999,0.02147689
0.5609999,0.02189073
0.5619999,0.02229231
0.5629999,0.02270308
0.5639999,0.02311999
0.5649999,0.02352769
0.5659999,0.02393847
0.5669999,0.02435231
0.5679999,0.02476308
0.5689999,0.02518306
0.5699999,0.02559996
0.5709999,0.02601993
0.5719999,0.02643991
0.5729999,0.02685987
0.5739999,0.02727985
0.5749999,0.02770288
0.5759999,0.02812592
0.5769999,0.02855509
0.5779999,0.02897812
0.5789999,0.02939809
0.5799999,0.02983646
0.5809999,0.0309932
0.5819999,0.03142237
0.5829999,0.03188219
0.5839999,0.0322807
0.5849999,0.03274052
0.5859999,0.03316969
0.5869999,0.03359886
0.5879999,0.03402802
0.5889999,0.03445719
0.5899999,0.03491702
0.5909999,0.03534618
0.5919999,0.035806
0.5929999,0.03623517
0.5939999,0.03666434
0.5949999,0.03712416
0.5959999,0.03755333
0.5969999,0.03801315
0.5979999,0.03847298
0.5989999,0.03890214
0.5999999,0.03936196
0.6009999,0.03982178
0.6019999,0.04025095
0.6029999,0.04071078
0.6039999,0.04113995
0.6049999,0.04159977
0.6059999,0.04205959
0.6069999,0.04251941
0.6079999,0.04294858
0.6089999,0.0434084
0.6099999,0.04386823
0.6109999,0.04429739
0.6119999,0.04478787
0.6129999,0.04521704
0.6139999,0.04567686
0.6149999,0.04616734
0.6159999,0.0465965
0.6169999,0.04705633
0.6179999,0.04751615
0.6189999,0.04797597
0.6199999,0.04843579
0.6209999,0.04889562
0.6219999,0.04935544
0.6229999,0.04981526
0.6239999,0.05024443
0.6249999,0.05070425
0.6259999,0.05116407
0.6269999,0.05165455
0.6279999,0.05208372
0.6289999,0.05254354
0.6299999,0.05300336
0.6309999,0.05346319
0.6319999,0.05392301
0.6329999,0.05441349
0.6339999,0.05487331
0.6349999,0.05533313
0.6359999,0.05579295
0.6369999,0.05625277
0.6379999,0.0567126
0.6389999,0.05720307
0.6399999,0.05763224
0.6409999,0.05812272
0.6419999,0.05858254
0.6429999,0.05904236
0.6439999,0.05950218
0.6449999,0.05999266
0.6459999,0.06045249
0.6469999,0.06091231
0.6479999,0.06137213
0.6489999,0.06183195
0.6499999,0.06232243
0.6509999,0.06278225
0.6519999,0.06324207
0.6529999,0.0637019
0.6539999,0.06419238
0.6549999,0.0646522
0.6559999,0.06511202
0.6569999,0.0656025
0.6579999,0.06606232
0.6589999,0.06652214
0.6599999,0.06698196
0.6609999,0.06744178
0.6619999,0.0679016
0.6629999,0.06839209
0.6639999,0.06885191
0.6649999,0.06931173
0.6659999,0.06980221
0.6669999,0.07026203
0.6679999,0.07072186
0.6689999,0.07118168
0.6699999,0.0716415
0.6709999,0.07213198
0.6719999,0.0725918
0.6729999,0.07308228
0.6739999,0.0735421
0.6749999,0.07400192
0.6759999,0.07449239
0.6769999,0.07492156
0.6779999,0.07541204
0.6789999,0.07587186
0.6799999,0.07633169
0.6809999,0.07682216
0.6819999,0.07728198
0.6829999,0.07771116
0.6839999,0.07820163
0.6849999,0.07866146
0.6859999,0.07912128
0.6869999,0.0795811
0.6879999,0.08004092
0.6889999,0.08050074
0.6899999,0.08096056
0.6909999,0.08142038
0.6919999,0.08184955
0.6929999,0.08230938
0.6939999,0.0827692
0.6949999,0.08322902
0.6959999,0.08368885
0.6969999,0.08414867
0.6979999,0.08457784
0.6989999,0.08503766
0.6999999,0.08519093
0.6990002,0.0846698
0.6980002,0.08420997
0.6970002,0.08375015
0.6960002,0.08322902
0.6950002,0.0827692
0.6940002,0.08230938
0.6930002,0.0818189
0.6920002,0.08138973
0.6910002,0.08092991
0.6900002,0.08043943
0.6890002,0.07997961
0.6880002,0.07951979
0.6870002,0.07905997
0.6860002,0.0786308
0.6850002,0.07814032
0.6840002,0.0776805
0.6830002,0.07725133
0.6820002,0.07679151
0.6810002,0.07633169
0.6800002,0.07590251
0.6790002,0.07544269
0.6780002,0.07498287
0.6770002,0.07455371
0.6760002,0.07409389
0.6750002,0.07360341
0.6740002,0.0732049
0.6730002,0.07274507
0.6720002,0.07228525
0.6710002,0.07182543
0.6700002,0.0713656
0.6690002,0.07093643
0.6680002,0.07047661
0.6670002,0.07001679
0.6660002,0.06955697
0.6650002,0.06909715
0.6640002,0.06866798
0.6630002,0.06820816
0.6620002,0.06774833
0.6610002,0.06728851
0.6600002,0.06682869
0.6590002,0.06639952
0.6580002,0.0659397
0.6570002,0.06547987
0.6560002,0.06505071
0.6550002,0.06459089
0.6540002,0.06413107
0.6530002,0.06367125
0.6520002,0.06321142
0.6510002,0.0627516
0.6500002,0.06229177
0.6490002,0.06186261
0.6480002,0.06140279
0.6470002,0.06094296
0.6460002,0.06048314
0.6450002,0.06002332
0.6440002,0.05959415
0.6430002,0.05913433
0.6420002,0.0586745
0.6410002,0.05824534
0.6400002,0.05778552
0.6390002,0.05732569
0.6380002,0.05689653
0.6370002,0.0564367
0.6360002,0.05597688
0.6350002,0.05554771
0.6340002,0.05508789
0.6330002,0.05462807
0.6320002,0.05416824
0.6310002,0.05373908
0.6300002,0.05327926
0.6290002,0.05281943
0.6280002,0.05235961
0.6270002,0.05189979
0.6260002,0.05147062
0.6250002,0.0510108
0.6240002,0.05055097
0.6230002,0.05012181
0.6220002,0.04969264
0.6210002,0.04923282
0.6200002,0.04880365
0.6190002,0.04834383
0.6180002,0.04788401
0.6170002,0.04745484
0.6160002,0.04699502
0.6150002,0.04656585
0.6140002,0.04610603
0.6130002,0.0456462
0.6120002,0.04521704
0.6110002,0.04478787
0.6100002,0.04432805
0.6090002,0.04389888
0.6080002,0.04346971
0.6070002,0.04300989
0.6060002,0.04258072
0.6050002,0.04215155
0.6040002,0.04169173
0.6030002,0.04126256
0.6020002,0.04080274
0.6010002,0.04037357
0.6000002,0.03994441
0.5990002,0.03951524
0.5980002,0.03908607
0.5970002,0.03862625
0.5960002,0.03819708
0.5950002,0.03776791
0.5940002,0.03733874
0.5930002,0.03690958
0.5920002,0.03648041
0.5910002,0.03605124
0.5900002,0.03562208
0.5890002,0.03519291
0.5880002,0.03476374
0.5870002,0.03433457
0.5860002,0.03390541
0.5850002,0.03350689
0.5840002,0.03307773
0.5830002,0.03264856
0.5820002,0.03221939
0.5810002,0.03179022
0.5800002,0.03139171
0.5790002,0.03096254
0.5780002,0.03053337
0.5770002,0.03013486
0.5760002,0.02970569
0.5750002,0.02927653
0.5740002,0.02884736
0.5730002,0.02844885
0.5720002,0.02805033
0.5710002,0.02762116
0.5700002,0.02722265
0.5690002,0.02679349
0.5680002,0.02639497
0.5670002,0.02599646
0.5660002,0.02559795
0.5650002,0.02519943
0.5640002,0.02477027
0.5630002,0.02437175
0.5620002,0.02397324
0.5610002,0.02357473
0.5600002,0.02317622
0.5590002,0.0227777
0.5580002,0.02237919
0.5570002,0.02198068
0.5560002,0.02158217
0.5550002,0.02121431
0.5540002,0.0208158
0.5530002,0.02041728
0.5520002,0.02004942
0.5510002,0.01965091
0.5500002,0.01928305
0.5490002,0.0189152
0.5480002,0.01851668
0.5470002,0.01814882
0.5460002,0.01778097
0.5450002,0.01741311
0.5440002,0.01704525
0.5430002,0.01667739
0.5420002,0.01630954
0.5410002,0.01594168
0.5400002,0.01557382
0.5390002,0.01520596
0.5380002,0.01486876
0.5370002,0.0145009
0.5360002,0.01413304
0.5350002,0.01379584
0.5340002,0.01345864
0.5330002,0.01309078
0.5320002,0.01227737
0.5310002,0.0119463
0.5300002,0.01161523
0.5290002,0.01128416
0.5280002,0.01096228
0.5270002,0.01063428
0.5260002,0.01031546
0.5250002,0.00999972
0.5240002,0.00968091
0.5230002,0.009374362
0.5220002,0.009067814
0.5210002,0.008761265
0.5200002,0.008463915
0.5190002,0.008166562
0.5180002,0.007875342
0.5170002,0.007590252
0.5160002,0.007305162
0.5150002,0.007026203
0.5140002,0.006747244
0.5130002,0.006480547
0.5120002,0.006207719
0.5110002,0.005944087
0.5100002,0.005689653
0.5090002,0.005435218
0.5080002,0.005183848
0.5070002,0.004947806
0.5060002,0.004708698
0.5050002,0.004472656
0.5040002,0.004251941
0.5030002,0.004025095
0.5020002,0.003810511
0.5010002,0.003598993
0.5000002,0.00339054
0.4990002,0.003191284
0.4980002,0.002998159
0.4970002,0.002808099
0.4960002,0.002627235
0.4950002,0.002449437
0.4940002,0.002280836
0.4930002,0.002112234
0.4920002,0.001952829
0.4910002,0.001802621
0.4900002,0.001652412
0.4890002,0.0015114
0.4880002,0.001376518
0.4870002,0.001244703
0.4860002,0.001091017
0.4850002,0.0009729959
0.4840002,0.0008577338
0.4830002,0.0007513615
0.4820002,0.0006459089
0.4810002,0.0005478134
0.4800002,0.0004555424
0.4790002,0.0003648041
0.4780002,0.0002841819
0.4770002,0.0002044794
0.4760002,0.000128762
0.4750002,6.101478E-05
0.4740002,-1.308844E-05
0.4730002,-7.485792E-05
0.4720002,-0.0001290863
0.4710002,-0.0001868707
0.4700002,-0.0002366541
0.4690002,-0.0002835253
0.4680002,-0.0003304474
0.4670002,-0.0003687659
0.4660002,-0.0004080041
0.4650002,-0.000445403
0.4640002,-0.0004763643
0.4630002,-0.0005103912
0.4620002,-0.0005392068
0.4610002,-0.0005677157
0.4600002,-0.000594692
0.4590002,-0.0006146176
0.4580002,-0.0006376088
0.4570002,-0.0006575344
0.4560002,-0.0006743945
0.4550002,-0.0006952398
0.4540002,-0.0007096475
0.4530002,-0.000724975
0.4520002,-0.000740609
0.4510002,-0.000750725
0.4500002,-0.0007648263
0.4490002,-0.0007749424
0.4480002,-0.0007847519
0.4470002,-0.0007973204
0.4460002,-0.0008034513
0.4450002,-0.0008111151
0.4440002,-0.0008215377
0.4430002,-0.0008258293
0.4420002,-0.0008344128
0.4410002,-0.0008420764
0.4400002,-0.0008442223
0.4390002,-0.0008521925
0.4380002,-0.0008577104
0.4370002,-0.0008601628
0.4360002,-0.0008659872
0.4350002,-0.0008684396
0.4340002,-0.0008739574
0.4330002,-0.0008776361
0.4320002,-0.0008794753
0.4310002,-0.0008852997
0.4300002,-0.0008865259
0.4290002,-0.0008911242
0.4280002,-0.0008957224
0.4270002,-0.0008951093
0.4260002,-0.0008997075
0.4250002,-0.0009021599
0.4240002,-0.0009021599
0.4230002,-0.000908904
0.4220002,-0.0009098236
0.4210002,-0.0009101302
0.4200002,-0.0009147284
0.4190002,-0.0009147284
0.4180002,-0.0009171807
0.4170002,-0.0009205528
0.4160002,-0.0009205528
0.4150002,-0.0009248445
0.4140002,-0.0009260707
0.4130002,-0.0009263772
0.4120002,-0.0009300558
0.4110002,-0.0009309754
0.4100002,-0.0009380261
0.4090002,-0.0009420112
0.4080002,-0.0009386392
0.4070002,-0.0009413981
0.4060002,-0.0009417046
0.4050002,-0.0009426242
0.4040002,-0.0009459963
0.4030002,-0.0009459963
0.4020002,-0.0009487552
0.4010002,-0.000950288
0.4000002,-0.0009499814
0.3990002,-0.0009548862
0.3980002,-0.0009548862
0.3970002,-0.0009576452
0.3960002,-0.0009610172
0.3950002,-0.0009588713
0.3940002,-0.0009619368
0.3930002,-0.0009643892
0.3920002,-0.000963163
0.3910002,-0.0009677612
0.3900002,-0.0009696006
0.3890002,-0.0009689874
0.3880002,-0.0009732791
0.3870002,-0.000972666
0.3860002,-0.0009741987
0.3850002,-0.0009769576
0.3840002,-0.0009754249
0.3830002,-0.00097941
0.3820002,-0.0009797165
0.3810002,-0.0009812494
0.3800002,-0.0009837018
0.3790002,-0.0009830886
0.3780002,-0.0009864607
0.3770002,-0.0009876869
0.3760002,-0.0009861541
0.3750002,-0.0009901392
0.3740002,-0.0009898327
0.3730002,-0.0009901392
0.3720002,-0.0009928982
0.3710002,-0.0009928982
0.3700002,-0.000995044
0.3690002,-0.0009959637
0.3680002,-0.0009941244
0.3670002,-0.0009974964
0.3660002,-0.0009962702
0.3650002,-0.0009968834
0.3640002,-0.001000562
0.3630002,-0.0009978029
0.3620002,-0.0009984161
0.3610002,-0.0009996422
0.3600002,-0.0009974964
0.3590002,-0.001000562
0.3580002,-0.001000869
0.3570002,-0.0009990291
0.3560002,-0.001000255
0.3550002,-0.0009987226
0.3540002,-0.0009987226
0.3530002,-0.0009978029
0.3520002,-0.0009974964
0.3510002,-0.0009984161
0.3500002,-0.0009956572
0.3490002,-0.0009953505
0.3480002,-0.0009956572
0.3470002,-0.0009919786
0.3460002,-0.0009935113
0.3450002,-0.0009922851
0.3440002,-0.0009879934
0.3430002,-0.0009898327
0.3420002,-0.0009870738
0.3410002,-0.0009840083
0.3400002,-0.000984928
0.3390002,-0.0009815559
0.3380002,-0.0009791035
0.3370002,-0.0009781838
0.3360002,-0.0009745053
0.3350002,-0.0009735856
0.3340002,-0.0009711333
0.3330002,-0.000966535
0.3320002,-0.0009653088
0.3310002,-0.0009616303
0.3300002,-0.000959791
0.3290002,-0.0009573385
0.3280002,-0.0009518207
0.3270002,-0.0009515142
0.3260002,-0.0009478356
0.3250002,-0.000944157
0.3240002,-0.0009413981
0.3230002,-0.0009361868
0.3220002,-0.0009340409
0.3210002,-0.0009303623
0.3200002,-0.0009257642
0.3190002,-0.0009239248
0.3180002,-0.0009184069
0.3170002,-0.0009138088
0.3160002,-0.0009116629
0.3150002,-0.0009049188
0.3140002,-0.0009021599
0.3130002,-0.0008990944
0.3120002,-0.0008920438
0.3110002,-0.0008886718
0.3100002,-0.0008843801
0.3090002,-0.0008788622
0.3080002,-0.0008757967
0.3070002,-0.0008727313
0.3060002,-0.0008662938
0.3050002,-0.000861389
0.3040002,-0.000855258
0.3030002,-0.0008509663
0.3020002,-0.0008448354
0.3010002,-0.0008405437
0.3000002,-0.0008365586
0.2990002,-0.0008295079
0.2980002,-0.0008246032
0.2970002,-0.0008196984
0.2960002,-0.0008129543
0.2950002,-0.0008098889
0.2940002,-0.0008034513
0.2930002,-0.0007970139
0.2920002,-0.0007939483
0.2910002,-0.0007862847
0.2900002,-0.0007807668
0.2890002,-0.0007761685
0.2880002,-0.0007691179
0.2870002,-0.0007648263
0.2860002,-0.0007583887
0.2850002,-0.0007519512
0.2840002,-0.0007476595
0.2830002,-0.0007412221
0.2820002,-0.000735091
0.2810002,-0.0007298798
0.2800002,-0.0007228291
0.2790002,-0.000718844
0.2780002,-0.0007121
0.2770002,-0.0007053559
0.2760002,-0.0007010642
0.2750002,-0.0006946267
0.2740002,-0.0006888023
0.2730002,-0.000683591
0.2720002,-0.0006759273
0.2710002,-0.0006719421
0.2700002,-0.0006658112
0.2690002,-0.0006596802
0.2680002,-0.0006544688
0.2670002,-0.0006474183
0.2660002,-0.0006415938
0.2650002,-0.0006366891
0.2640002,-0.0006293319
0.2630002,-0.0006250403
0.2620002,-0.0006192158
0.2610002,-0.0006127784
0.2600002,-0.0006081801
0.2590002,-0.0006017426
0.2580002,-0.0005962247
0.2570002,-0.0005910134
0.2560002,-0.000585189
0.2550002,-0.0005799776
0.2540002,-0.0005738467
0.2530002,-0.0005680223
0.2520002,-0.0005634241
0.2510002,-0.0005572931
0.2500002,-0.0005520818
0.2490002,-0.000547177
0.2480002,-0.0005404329
0.2470002,-0.0005361412
0.2460002,-0.0005306234
0.2450002,-0.0005247989
0.2440002,-0.0005208139
0.2430002,-0.0005149894
0.2420002,-0.0005097781
0.2410002,-0.0005051799
0.2400002,-0.0004990489
0.2390002,-0.0004950638
0.2380002,-0.0004898525
0.2370002,-0.0004846411
0.2360002,-0.0004809626
0.2350002,-0.0004754447
0.2340002,-0.0004705399
0.2330002,-0.0004665548
0.2320002,-0.000461037
0.2310002,-0.0004570518
0.2300002,-0.0004524536
0.2290002,-0.0004475488
0.2280002,-0.0004438702
0.2270002,-0.0004389654
0.2260002,-0.0004346738
0.2250002,-0.0004309952
0.2240002,-0.0004260904
0.2230002,-0.0004227184
0.2220002,-0.0004184267
0.2210002,-0.0004138285
0.2200002,-0.0004104565
0.2190002,-0.0004061648
0.2180002,-0.0004024862
0.2170002,-0.0003991142
0.2160002,-0.0003939029
0.2150002,-0.0003911439
0.2140002,-0.0003871588
0.2130002,-0.0003831737
0.2120002,-0.0003804147
0.2110002,-0.0003764296
0.2100002,-0.0003724445
0.2090002,-0.0003699921
0.2080002,-0.0003653939
0.2070002,-0.0003626349
0.2060002,-0.0003595694
0.2050002,-0.000356504
0.2040002,-0.0003534385
0.2030002,-0.0003500664
0.2020002,-0.0003466944
0.2010002,-0.0003439355
0.2000002,-0.0003399504
0.1990002,-0.000337498
0.1980002,-0.0003344325
0.1970002,-0.000331367
0.1960002,-0.0003292212
0.1950002,-0.0003258491
0.1940002,-0.0003230902
0.1930002,-0.0003206378
0.1920002,-0.0003175724
0.1910002,-0.0003154265
0.1900002,-0.000312361
0.1890002,-0.0003096021
0.1880002,-0.0003080693
0.1870002,-0.0003053104
0.1860002,-0.0003025515
0.1850002,-0.0003007122
0.1840002,-0.0002976467
0.1830002,-0.0002958074
0.1820002,-0.000293355
0.1810002,-0.0002909026
0.1800002,-0.0002893699
0.1790002,-0.0002869175
0.1780002,-0.0002844651
0.1770002,-0.0002826258
0.1760002,-0.00028048
0.1750002,-0.0002786407
0.1740002,-0.0002764949
0.1730002,-0.0002749621
0.1720002,-0.0002734294
0.1710002,-0.000270977
0.1700002,-0.0002691377
0.1690002,-0.0002676049
0.1680002,-0.0002654591
0.1670002,-0.0002642329
0.1660002,-0.0002627002
0.1650002,-0.0002602478
0.1640002,-0.0002593282
0.1630002,-0.0002577954
0.1620002,-0.0002556496
0.1610002,-0.0002547299
0.1600002,-0.0002525841
0.1590002,-0.0002513579
0.1580002,-0.0002501317
0.1570002,-0.0002479859
0.1560002,-0.0002470662
0.1550002,-0.00024584
0.1540002,-0.0002443073
0.1530002,-0.0002433877
0.1520002,-0.0002412418
0.1510002,-0.0002403222
0.1500002,-0.0002394025
0.1490002,-0.0002375632
0.1480002,-0.0002366436
0.1470002,-0.0002354174
0.1460002,-0.0002341912
0.1450002,-0.0002332716
0.1440002,-0.0002314323
0.1430002,-0.0002308192
0.1420002,-0.000229593
0.1410002,-0.0002286733
0.1400002,-0.0002277537
0.1390002,-0.0002262209
0.1380002,-0.0002249948
0.1370002,-0.0002246882
0.1360002,-0.0002228489
0.1350002,-0.0002225424
0.1340002,-0.0002216227
0.1330002,-0.00022009
0.1320002,-0.0002194769
0.1310002,-0.0002185573
0.1300002,-0.000217331
0.1290002,-0.0002167179
0.1280002,-0.0002151852
0.1270002,-0.0002145721
0.1260002,-0.000213959
0.1250002,-0.0002127328
0.1240002,-0.0002121197
0.1230002,-0.0002112001
0.1220002,-0.0002099739
0.1210002,-0.0002093608
0.1200002,-0.0002081346
0.1190002,-0.0002075215
0.1180002,-0.0002069084
0.1170002,-0.0002056822
0.1160002,-0.0002050691
0.1150002,-0.0002041495
0.1140002,-0.0002029233
0.1130002,-0.0002023102
0.1120002,-0.000201084
0.1110002,-0.0002004709
0.1100002,-0.0001998578
0.1090002,-0.0001986316
0.1080002,-0.0001980185
0.1070002,-0.0001970989
0.1060002,-0.0001958727
0.1050002,-0.0001955661
0.1040002,-0.0001940334
0.1030002,-0.0001937268
0.1020002,-0.0001928072
0.1010002,-0.000191581
0.1000002,-0.0001909679
0.09900019,-0.0001900483
0.09800019,-0.0001891286
0.09700019,-0.000188209
0.09600019,-0.0001872893
0.09500019,-0.0001866762
0.09400019,-0.0001857566
0.09300019,-0.0001848369
0.09200019,-0.0001842238
0.09100019,-0.0001833042
0.09000019,-0.0001826911
0.08900019,-0.000182078
0.08800019,-0.0001805453
0.08700019,-0.0001802387
0.08600019,-0.0001796256
0.08500019,-0.0001783994
0.08400019,-0.0001780929
0.08300019,-0.0001771732
0.08200019,-0.0001762536
0.08100019,-0.000175947
0.08000019,-0.0001747208
0.07900019,-0.0001741077
0.07800019,-0.0001738012
0.07700019,-0.0001728816
0.07600019,-0.0001722685
0.07500019,-0.0001716554
0.07400019,-0.0001707357
0.07300019,-0.0001701226
0.07200019,-0.0001695095
0.07100019,-0.000169203
0.07000019,-0.0001682833
0.06900019,-0.0001676702
0.06800019,-0.0001673637
0.06700019,-0.000166444
0.06600019,-0.0001658309
0.06500019,-0.0001655244
0.06400019,-0.0001646047
0.06300019,-0.0001642982
0.06200019,-0.0001636851
0.06100019,-0.0001627655
0.06000019,-0.0001627655
0.05900019,-0.0001621524
0.05800019,-0.0001612327
0.05700019,-0.0001609262
0.05600019,-0.0001603131
0.05500019,-0.0001597
0.05400019,-0.0001593934
0.05300019,-0.0001584738
0.05200019,-0.0001581672
0.05100019,-0.0001575541
0.05000019,-0.0001569411
0.04900019,-0.0001566345
0.04800019,-0.0001557148
0.04700019,-0.0001554083
0.04600019,-0.0001547952
0.04500019,-0.0001541821
0.04400019,-0.0001538755
0.04300019,-0.0001532625
0.04200019,-0.0001562465
0.04100019,-0.0001555721
0.04000019,-0.0001548364
0.03900019,-0.0001544072
0.03800019,-0.0001539474
0.03700019,-0.000153181
0.03600019,-0.0001529358
0.03500019,-0.0001523533
0.03400019,-0.0001516789
0.03300019,-0.0001513417
0.03200019,-0.0001508206
0.03100019,-0.0001502688
0.03000019,-0.000149717
0.02900019,-0.0001490733
0.02800019,-0.0001487974
0.02700019,-0.0001482762
0.02600019,-0.0001477551
0.02500019,-0.0001474792
0.02400019,-0.0001468968
0.02300019,-0.0001465289
0.02200019,-0.000146161
0.02100019,-0.0001457012
0.02000019,-0.0001454866
0.01900019,-0.0001451188
0.01800019,-0.0001446896
0.01700019,-0.0001444137
0.01600019,-0.0001439846
0.01500019,-0.0001438006
0.01400019,-0.0001434021
0.01300019,-0.0001430036
0.01200019,-0.0001428197
0.01100019,-0.0001424212
0.01000019,-0.0001419307
0.009000191,-0.0001418081
0.00800019,-0.0001412869
0.007000191,-0.0001410417
0.006000191,-0.0001407658
0.005000191,-0.0001403979
0.004000191,-0.0001401527
0.003000191,-0.0001398768
0.002000191,-0.0001395396
0.001000191,-0.0001392944
1.907349E-07,-0.0001304658
0.0009998092,-0.0001238137
0.001999809,-0.0001198592
0.002999809,-0.0001168857
0.003999809,-0.0001140041
0.004999809,-0.0001114598
0.005999809,-0.000109222
0.006999809,-0.0001068922
0.007999809,-0.0001049916
0.00899981,-0.0001031523
0.009999809,-0.0001011904
0.01099981,-9.947374E-05
0.01199981,-9.775707E-05
0.01299981,-9.613237E-05
0.01399981,-9.459963E-05
0.01499981,-9.300557E-05
0.01599981,-9.150348E-05
0.01699981,-9.012402E-05
0.01799981,-8.868324E-05
0.01899981,-8.739574E-05
0.01999981,-8.5863E-05
0.02099981,-8.45755E-05
0.02199981,-8.3288E-05
0.02299981,-8.190853E-05
0.02399981,-8.071299E-05
0.02499981,-7.939483E-05
0.02599981,-7.804602E-05
0.02699981,-7.691179E-05
0.02799981,-7.559363E-05
0.02899981,-7.452071E-05
0.02999981,-7.35091E-05
0.03099981,-7.22216E-05
0.03199981,-7.114868E-05
0.03299981,-6.99838E-05
0.03399981,-6.891088E-05
0.03499981,-6.789927E-05
0.03599981,-6.67957E-05
0.03699981,-6.575343E-05
0.03799981,-6.471117E-05
0.03899981,-6.351563E-05
0.03999981,-6.256533E-05
0.04099981,-6.149241E-05
0.04199981,-6.045015E-05
0.04299981,-5.959181E-05
0.04399981,-5.845758E-05
0.04499981,-5.75686E-05
0.04599981,-5.677157E-05
0.04699981,-5.5668E-05
0.04799981,-5.484031E-05
0.04899981,-5.404329E-05
0.04999981,-5.300103E-05
0.05099981,-5.214269E-05
0.05199981,-5.100846E-05
0.05299981,-5.005816E-05
0.05399981,-4.941441E-05
0.05499981,-4.843346E-05
0.05599981,-4.754446E-05
0.05699981,-4.690071E-05
0.05799981,-4.595042E-05
0.05899981,-4.530666E-05
0.05999981,-4.438702E-05
0.06099981,-4.368196E-05
0.06199981,-4.29769E-05
0.06299981,-4.214922E-05
0.06399981,-4.132153E-05
0.06499981,-4.061648E-05
0.06599981,-3.966617E-05
0.06699981,-3.899177E-05
0.06799981,-3.804147E-05
0.06899981,-3.730575E-05
0.06999981,-3.672331E-05
0.07099981,-3.583432E-05
0.07199981,-3.531319E-05
0.07299981,-3.460813E-05
0.07399981,-3.384176E-05
0.07499981,-3.34739E-05
0.07599981,-3.255426E-05
0.07699981,-3.194116E-05
0.07799981,-3.126675E-05
0.07899981,-3.031645E-05
0.07999981,-2.964205E-05
0.08099981,-2.915157E-05
0.08199981,-2.841586E-05
0.08299981,-2.783341E-05
0.08399981,-2.70977E-05
0.08499981,-2.645395E-05
0.08599981,-2.599412E-05
0.08699981,-2.525841E-05
0.08799981,-2.4584E-05
0.08899981,-2.387894E-05
0.08999981,-2.311257E-05
0.09099981,-2.259144E-05
0.09199981,-2.164114E-05
0.09299981,-2.127328E-05
0.09399981,-2.075215E-05
0.09499981,-1.986316E-05
0.09599981,-1.946465E-05
0.09699981,-1.882089E-05
0.09799981,-1.817714E-05
0.09899981,-1.78706E-05
0.09999981,-1.688964E-05
0.1009998,-1.63072E-05
0.1019998,-1.560214E-05
0.1029998,-1.489708E-05
0.1039998,-1.425333E-05
0.1049998,-1.373219E-05
0.1059998,-1.290451E-05
0.1069998,-1.262862E-05
0.1079998,-1.183159E-05
0.1089998,-1.106522E-05
0.1099998,-1.066671E-05
0.1109998,-1.002296E-05
0.1119998,-9.471173E-06
0.1129998,-8.193918E-06
0.1139998,-7.449006E-06
0.1149998,-6.897219E-06
0.1159998,-6.01436E-06
0.1169998,-5.548407E-06
0.1179998,-5.008882E-06
0.1189998,-4.199595E-06
0.1199998,-3.804147E-06
0.1209998,-3.194116E-06
0.1219998,-2.280602E-06
0.1229998,-1.891286E-06
0.1239998,-9.563138E-07
0.1249998,-3.156279E-07
0.1259998,1.564563E-07
0.1269998,1.134345E-06
0.1279998,1.600299E-06
0.1289998,2.041728E-06
0.1299998,2.988962E-06
0.1309998,3.534618E-06
0.1319998,4.503311E-06
0.1329998,5.220634E-06
0.1339998,5.778551E-06
0.1349998,6.658345E-06
0.1359998,7.038464E-06
0.1369998,7.614775E-06
0.1379998,8.457783E-06
0.1389998,8.862427E-06
0.1399998,1.003651E-05
0.1409998,1.077529E-05
0.1419998,1.14313E-05
0.1429998,1.244904E-05
0.1439998,1.280464E-05
0.1449998,1.350357E-05
0.1459998,1.442934E-05
0.1469998,1.468483E-05
0.1479998,1.54512E-05
0.1489998,1.60643E-05
0.1499998,1.67387E-05
0.1509998,1.7689E-05
0.1519998,1.833275E-05
0.1529998,1.900716E-05
0.1539998,1.99268E-05
0.1549998,2.05399E-05
0.1559998,2.164347E-05
0.1569998,2.24405E-05
0.1579998,2.302294E-05
0.1589998,2.418782E-05
0.1599998,2.516878E-05
0.1609998,2.559795E-05
0.1619998,2.65789E-05
0.1629998,2.731462E-05
0.1639998,2.854081E-05
0.1649998,2.924587E-05
0.1659998,3.007355E-05
0.1669998,3.111581E-05
0.1679998,3.203546E-05
0.1689998,3.298576E-05
0.1699998,3.405868E-05
0.1709998,3.464112E-05
0.1719998,3.602059E-05
0.1729998,3.694023E-05
0.1739998,3.767595E-05
0.1749998,3.896345E-05
0.1759998,4.000571E-05
0.1769998,4.074143E-05
0.1779998,4.218221E-05
0.1789998,4.282596E-05
0.1799998,4.411346E-05
0.1809998,4.509441E-05
0.1819998,4.604472E-05
0.1829998,4.763876E-05
0.1839998,4.865037E-05
0.1849998,4.984592E-05
0.1859998,5.119473E-05
0.1869998,5.193044E-05
0.1879998,5.343253E-05
0.1889998,5.447479E-05
0.1899998,5.542509E-05
0.1909998,5.708045E-05
0.1919998,5.827599E-05
0.1929998,5.916498E-05
0.1939998,6.100427E-05
0.1949998,6.210784E-05
0.1959998,6.382452E-05
0.1969998,6.495875E-05
0.1979998,6.62769E-05
0.1989998,6.805488E-05
0.1999998,6.937304E-05
0.2009998,7.06912E-05
0.2019998,7.262245E-05
0.2029998,7.351144E-05
0.2039998,7.544269E-05
0.2049998,7.715936E-05
0.2059998,7.829359E-05
0.2069998,8.022485E-05
0.2079998,8.172693E-05
0.2089998,8.313705E-05
0.2099998,8.522158E-05
0.2109998,8.660105E-05
0.2119998,8.874689E-05
0.2129998,9.018766E-05
0.2139998,9.184302E-05
0.2149998,9.426475E-05
0.2159998,9.570553E-05
0.2169998,9.77594E-05
0.2179998,9.999721E-05
0.2189998,0.0001013154
0.2199998,0.0001038597
0.2209998,0.0001057603
0.2219998,0.0001072624
0.2229998,0.0001099294
0.2239998,0.000111738
0.2249998,0.0001135773
0.2259998,0.0001162136
0.2269998,0.0001181449
0.2279998,0.0001208118
0.2289998,0.000123019
0.2299998,0.0001249809
0.2309998,0.0001279237
0.2319998,0.0001302535
0.2329998,0.0001323687
0.2339998,0.0001351583
0.2349998,0.0001372121
0.2359998,0.0001403389
0.2369998,0.000142914
0.2379998,0.0001451518
0.2389998,0.0001485238
0.2399998,0.0001509455
0.2409998,0.0001538577
0.2419998,0.0001570458
0.2429998,0.0001595595
0.2439998,0.0001629622
0.2449998,0.0001657825
0.2459998,0.0001682962
0.2469998,0.000172036
0.2479998,0.000174795
0.2489998,0.0001779524
0.2499998,0.0001817536
0.2509998,0.0001843286
0.2519998,0.0001884057
0.2529998,0.0001917164
0.2539998,0.0001947819
0.2549998,0.0001989816
0.2559998,0.0002024763
0.2569998,0.0002060629
0.2579998,0.0002101706
0.2589998,0.0002133894
0.2599998,0.0002178957
0.2609998,0.0002212064
0.2619998,0.0002252528
0.2629998,0.000229943
0.2639998,0.0002331311
0.2649998,0.0002374535
0.2659998,0.0002421743
0.2669998,0.0002455157
0.2679998,0.0002510029
0.2689998,0.0002554172
0.2699998,0.0002592184
0.2709998,0.0002647056
0.2719998,0.000268844
0.2729998,0.0002731663
0.2739998,0.000278347
0.2749998,0.0002830678
0.2759998,0.0002921522
0.2769998,0.0002961373
0.2779998,0.0003007355
0.2789998,0.0003062534
0.2799998,0.0003108516
0.2809998,0.0003163695
0.2819998,0.0003218873
0.2829998,0.0003264856
0.2839998,0.0003329231
0.2849998,0.0003381344
0.2859998,0.0003433457
0.2869998,0.0003497833
0.2879998,0.0003549946
0.2889998,0.0003605125
0.2899998,0.00036695
0.2909998,0.0003721613
0.2919998,0.0003795184
0.2929998,0.0003847298
0.2939998,0.0003911673
0.2949998,0.0003979113
0.2959998,0.0004031227
0.2969998,0.0004101733
0.2979998,0.0004172239
0.2989998,0.0004221287
0.2999998,0.0004300989
0.3009998,0.0004362299
0.3019998,0.0004420543
0.3029998,0.0004500245
0.3039998,0.0004564621
0.3049998,0.0004628996
0.3059998,0.0004702567
0.3069998,0.000478227
0.3079998,0.000484971
0.3089998,0.0004917151
0.3099998,0.0004984592
0.3109998,0.0005061228
0.3119998,0.0005122538
0.3129998,0.0005199176
0.3139998,0.0005275813
0.3149998,0.0005337122
0.3159998,0.0005426022
0.3169998,0.0005490396
0.3179998,0.0005560903
0.3189998,0.0005652867
0.3199998,0.0005714177
0.3209998,0.0005790814
0.3219998,0.0005870516
0.3229998,0.0005931826
0.3239998,0.000602379
0.3249998,0.0006091231
0.3259998,0.0006164802
0.3269998,0.0006253702
0.3279998,0.0006318077
0.3289998,0.0006391648
0.3299998,0.0006471351
0.3309998,0.0006538791
0.3319998,0.0006630756
0.3329998,0.0006698197
0.3339998,0.0006768703
0.3349998,0.0006854536
0.3359998,0.0006918911
0.3369998,0.0006998614
0.3379998,0.0007078316
0.3389998,0.0007148822
0.3399998,0.0007243853
0.3409998,0.0007302097
0.3419998,0.0007378734
0.3429998,0.0007464567
0.3439998,0.0007513615
0.3449998,0.0007605579
0.3459998,0.0007685282
0.3469998,0.0007743526
0.3479998,0.0007838556
0.3489998,0.0007896801
0.3499998,0.0007967306
0.3509998,0.0008050074
0.3519998,0.0008111384
0.3529998,0.0008191086
0.3539998,0.0008264658
0.3549998,0.0008322902
0.3559998,0.0008408736
0.3569998,0.000846698
0.3579998,0.0008549748
0.3589998,0.0008626385
0.3599998,0.0008681564
0.3609998,0.0008755135
0.3619998,0.0008822576
0.3629998,0.000888082
0.3639998,0.0008969719
0.3649998,0.0009024898
0.3659998,0.0009086208
0.3669998,0.000916591
0.3679998,0.0009221089
0.3689998,0.000929466
0.3699998,0.0009359035
0.3709998,0.000941728
0.3719998,0.0009503114
0.3729998,0.0009549095
0.3739998,0.0009610406
0.3749998,0.0009683977
0.3759998,0.0009723828
0.3769998,0.0009800465
0.3779998,0.0009870972
0.3789998,0.0009910823
0.3799998,0.0009990525
0.3809998,0.001003957
0.3819998,0.001009475
0.3829998,0.001016832
0.3839998,0.001019898
0.3849998,0.001026948
0.3859998,0.001033079
0.3869998,0.001037371
0.3879998,0.001046261
0.3889998,0.00104902
0.3899998,0.001054844
0.3909998,0.001062201
0.3919998,0.001064654
0.3929998,0.001071704
0.3939998,0.001076916
0.3949998,0.001079981
0.3959998,0.001087951
0.3969998,0.001093469
0.3979998,0.001096228
0.3989998,0.001103279
0.3999998,0.001106038
0.4009998,0.001111862
0.4019998,0.001116767
0.4029998,0.001121365
0.4039998,0.001127496
0.4049998,0.001129949
0.4059998,0.00113516
0.4069998,0.001140371
0.4079998,0.001142517
0.4089998,0.001152633
0.4099998,0.001158151
0.4109998,0.001158764
0.4119998,0.001165815
0.4129998,0.001166428
0.4139998,0.001170413
0.4149998,0.001175931
0.4159998,0.00117777
0.4169998,0.001183288
0.4179998,0.00118758
0.4189998,0.001189112
0.4199998,0.001196163
0.4209998,0.001197389
0.4219998,0.001201374
0.4229998,0.001207199
0.4239998,0.001208425
0.4249998,0.001213023
0.4259998,0.001216702
0.4269998,0.001218234
0.4279998,0.001224365
0.4289998,0.001226818
0.4299998,0.001229883
0.4309998,0.001234481
0.4319998,0.001236014
0.4329998,0.001240612
0.4339998,0.001243371
0.4349998,0.001245211
0.4359998,0.001252261
0.4369998,0.001252261
0.4379998,0.00125594
0.4389998,0.001261764
0.4399998,0.001261151
0.4409998,0.001267895
0.4419998,0.001272187
0.4429998,0.001272187
0.4439998,0.001278931
0.4449998,0.00128077
0.4459998,0.00128261
0.4469998,0.001288434
0.4479998,0.001291193
0.4489998,0.001295791
0.4499998,0.001300083
0.4509998,0.001301922
0.4519998,0.001308666
0.4529998,0.001310505
0.4539998,0.00131541
0.4549998,0.001321848
0.4559998,0.001323687
0.4569998,0.001330738
0.4579998,0.001334723
0.4589998,0.001339321
0.4599998,0.001347598
0.4609998,0.001352503
0.4619998,0.001359247
0.4629998,0.00136783
0.4639998,0.001371815
0.4649998,0.001381318
0.4659998,0.001388982
0.4669998,0.001397872
0.4679998,0.001411053
0.4689998,0.001419024
0.4699998,0.001429446
0.4709998,0.00144416
0.4719998,0.001454277
0.4729998,0.001472056
0.4739998,0.001488917
0.4749998,0.001504551
0.4759998,0.001526316
0.4769998,0.001544708
0.4779998,0.001568006
0.4789998,0.00159345
0.4799998,0.001618893
0.4809998,0.001651081
0.4819998,0.001682655
0.4829998,0.001717295
0.4839998,0.001759292
0.4849998,0.001797611
0.4859998,0.001843899
0.4869998,0.001897239
0.4879998,0.001947819
0.4889998,0.002010662
0.4899998,0.002074731
0.4909998,0.002141865
0.4919998,0.002220647
0.4929998,0.002301576
0.4939998,0.002387103
0.4949998,0.002484279
0.4959998,0.002583294
0.4969998,0.002691812
0.4979998,0.0028083
0.4989998,0.002931533
0.4999998,0.003064882
0.5009998,0.003231135
0.5019998,0.003375213
0.5029998,0.003528487
0.5039998,0.003690958
0.5049998,0.00386569
0.5059998,0.004046554
0.5069998,0.004230483
0.5079998,0.004432804
0.5089998,0.004632061
0.5099998,0.004843579
0.5109998,0.005067359
0.5119998,0.00529727
0.5129998,0.005533312
0.5139998,0.005775486
0.5149998,0.006020725
0.5159998,0.006284356
0.5169998,0.006544922
0.5179998,0.006814685
0.5189998,0.007093643
0.5199998,0.007372602
0.5209998,0.007660758
0.5219998,0.007955044
0.5229998,0.008252396
0.5239998,0.008555878
0.5249998,0.008865492
0.5259998,0.009181237
0.5269998,0.009496982
0.5279998,0.009818858
0.5289998,0.01014993
0.5299998,0.01047794
0.5309998,0.01081514
0.5319998,0.01115541
0.5329998,0.01149261
0.5339998,0.01184514
0.5349998,0.01219461
0.5359998,0.01254101
0.5369998,0.01290273
0.5379998,0.01325833
0.5389998,0.01361699
0.5399998,0.01398791
0.5409998,0.01435271
0.5419998,0.01472056
0.5429998,0.01509762
0.5439998,0.01547161
0.5449998,0.01584559
0.5459998,0.01622878
0.5469998,0.0166089
0.5479998,0.01699209
0.5489998,0.0173814
0.5499998,0.01776459
0.5509998,0.01815697
0.5519998,0.01854935
0.5529998,0.0189448
0.5539998,0.01933718
0.5549998,0.01973876
0.5559998,0.02013421
0.5569998,0.02053272
0.5579998,0.0209343
0.5589998,0.02133894
0.5599998,0.02173745
0.5609998,0.02214823
0.5619998,0.02255287
0.5629998,0.02295445
0.5639998,0.02338055
0.5649998,0.02378213
0.5659998,0.02419291
0.5669998,0.02461901
0.5679998,0.02502365
0.5689998,0.02544056
0.5699998,0.0258636
0.5709998,0.02627437
0.5719998,0.0266974
0.5729998,0.02711738
0.5739998,0.02753428
0.5749998,0.02795732
0.5759998,0.02838648
0.5769998,0.02880339
0.5779998,0.02923256
0.5789998,0.02965866
0.5799998,0.03007863
0.5809998,0.03126909
0.5819998,0.0316676
0.5829998,0.03209677
0.5839998,0.03252594
0.5849998,0.03295511
0.5859998,0.03338427
0.5869998,0.03384409
0.5879998,0.03427326
0.5889998,0.03470243
0.5899998,0.03516225
0.5909998,0.03559142
0.5919998,0.03602059
0.5929998,0.03648041
0.5939998,0.03690958
0.5949998,0.0373694
0.5959998,0.03782922
0.5969998,0.03825839
0.5979998,0.03868756
0.5989998,0.03914738
0.5999998,0.03957655
0.6009998,0.04003637
0.6019998,0.04049619
0.6029998,0.04092536
0.6039998,0.04138518
0.6049998,0.04184501
0.6059998,0.04227417
0.6069998,0.04273399
0.6079998,0.04319382
0.6089998,0.04365364
0.6099998,0.04408281
0.6109998,0.04454263
0.6119998,0.04500245
0.6129998,0.04543162
0.6139998,0.0459221
0.6149998,0.04638192
0.6159998,0.04684174
0.6169998,0.04727091
0.6179998,0.04776139
0.6189998,0.04819056
0.6199998,0.04865038
0.6209998,0.04914085
0.6219998,0.04957002
0.6229998,0.05002984
0.6239998,0.05048966
0.6249998,0.05094949
0.6259998,0.05140931
0.6269998,0.05186913
0.6279998,0.05232896
0.6289998,0.05275812
0.6299998,0.05321795
0.6309998,0.05367777
0.6319998,0.05413759
0.6329998,0.05462807
0.6339998,0.05505724
0.6349998,0.05551706
0.6359998,0.05600753
0.6369998,0.0564367
0.6379998,0.05689653
0.6389998,0.057387
0.6399998,0.05781617
0.6409998,0.05827599
0.6419998,0.05876647
0.6429998,0.05922629
0.6439998,0.05968611
0.6449998,0.06014594
0.6459998,0.06060576
0.6469998,0.06106558
0.6479998,0.06155606
0.6489998,0.06201588
0.6499998,0.06247571
0.6509998,0.06293552
0.6519998,0.06339534
0.6529998,0.06388583
0.6539998,0.06434565
0.6549998,0.06480547
0.6559998,0.06526529
0.6569998,0.06575577
0.6579998,0.06618494
0.6589998,0.06667542
0.6599998,0.0671659
0.6609998,0.06759506
0.6619998,0.06808554
0.6629998,0.06854536
0.6639998,0.06900518
0.6649998,0.06949566
0.6659998,0.06995548
0.6669998,0.07044595
0.6679998,0.07090578
0.6689998,0.07139625
0.6699998,0.07185608
0.6709998,0.0723159
0.6719998,0.07280638
0.6729998,0.0732662
0.6739998,0.07372602
0.6749998,0.07421651
0.6759998,0.07467633
0.6769998,0.07513615
0.6779998,0.07562663
0.6789998,0.0761171
0.6799998,0.07657693
0.6809998,0.07703675
0.6819998,0.07755788
0.6829998,0.07798705
0.6839998,0.07847752
0.6849998,0.078968
0.6859998,0.07942782
0.6869998,0.0799183
0.6879998,0.08040877
0.6889998,0.08086859
0.6899998,0.08132842
0.6909998,0.0818189
0.6919998,0.08230938
0.6929998,0.08273854
0.6939998,0.08325968
0.6949998,0.0837195
0.6959998,0.08417932
0.6969998,0.0846698
0.6979998,0.08512962
0.6989998,0.0856201
0.6999998,0.08577337
0.6990003,0.08528289
0.6980003,0.08482307
0.6970003,0.08436324
0.6960003,0.08390342
0.6950003,0.0834436
0.6940003,0.08298378
0.6930003,0.08249331
0.6920003,0.08203348
0.6910003,0.08157366
0.6900003,0.08111384
0.6890003,0.08065402
0.6880003,0.0801942
0.6870003,0.07970371
0.6860003,0.07924389
0.6850003,0.07878407
0.6840003,0.07832425
0.6830003,0.07783377
0.6820003,0.07737394
0.6810003,0.07688347
0.6800003,0.0764543
0.6790003,0.07599448
0.6780003,0.075504
0.6770003,0.07507484
0.6760003,0.07458436
0.6750003,0.07412454
0.6740003,0.07366472
0.6730003,0.0732049
0.6720003,0.07274507
0.6710003,0.07225459
0.6700003,0.07182543
0.6690003,0.07133495
0.6680003,0.07087513
0.6670003,0.0704153
0.6660003,0.06995548
0.6650003,0.06949566
0.6640003,0.06903584
0.6630003,0.06857602
0.6620003,0.06808554
0.6610003,0.06765637
0.6600003,0.06719655
0.6590003,0.06670607
0.6580003,0.0662769
0.6570003,0.06581708
0.6560003,0.06535726
0.6550003,0.06489744
0.6540003,0.06443761
0.6530003,0.06397779
0.6520003,0.06351797
0.6510003,0.06305815
0.6500003,0.06259833
0.6490003,0.0621385
0.6480003,0.06167868
0.6470003,0.06121886
0.6460003,0.06075903
0.6450003,0.06029921
0.6440003,0.05983939
0.6430003,0.05941022
0.6420003,0.0589504
0.6410003,0.05849057
0.6400003,0.05803075
0.6390003,0.05757093
0.6380003,0.05714176
0.6370003,0.05668194
0.6360003,0.05622212
0.6350003,0.05579295
0.6340003,0.05533313
0.6330003,0.05484265
0.6320003,0.05441349
0.6310003,0.05395366
0.6300003,0.05349384
0.6290003,0.05306467
0.6280003,0.05260485
0.6270003,0.05214503
0.6260003,0.0516852
0.6250003,0.05125604
0.6240003,0.05079622
0.6230003,0.05033639
0.6220003,0.04990723
0.6210003,0.04947806
0.6200003,0.04901823
0.6190003,0.04858907
0.6180003,0.04812925
0.6170003,0.04770008
0.6160003,0.04724025
0.6150003,0.04678043
0.6140003,0.04635127
0.6130003,0.04589145
0.6120003,0.04543162
0.6110003,0.04500245
0.6100003,0.04457328
0.6090003,0.04411346
0.6080003,0.0436843
0.6070003,0.04325513
0.6060003,0.0427953
0.6050003,0.04236614
0.6040003,0.04193697
0.6030003,0.04147715
0.6020003,0.04104798
0.6010003,0.04061881
0.6000003,0.04018965
0.5990003,0.03976048
0.5980003,0.03930065
0.5970003,0.03887149
0.5960003,0.03844232
0.5950003,0.03801315
0.5940003,0.03758398
0.5930003,0.03715482
0.5920003,0.03672565
0.5910003,0.03629648
0.5900003,0.03583666
0.5890003,0.03543815
0.5880003,0.03500898
0.5870003,0.03457981
0.5860003,0.03415065
0.5850003,0.03372148
0.5840003,0.03329231
0.5830003,0.03286314
0.5820003,0.03246463
0.5810003,0.03203546
0.5800003,0.03160629
0.5790003,0.03120778
0.5780003,0.03077861
0.5770003,0.03034945
0.5760003,0.02992028
0.5750003,0.02952177
0.5740003,0.0290926
0.5730003,0.02869408
0.5720003,0.02826492
0.5710003,0.02786641
0.5700003,0.02746789
0.5690003,0.02703872
0.5680003,0.02664021
0.5670003,0.02621104
0.5660003,0.02581253
0.5650003,0.02541402
0.5640003,0.02501551
0.5630003,0.02458634
0.5620003,0.02421848
0.5610003,0.02381997
0.5600003,0.0233908
0.5590003,0.02302294
0.5580003,0.02262443
0.5570003,0.02219526
0.5560003,0.02182741
0.5550003,0.02142889
0.5540003,0.02103038
0.5530003,0.02063187
0.5520003,0.02026401
0.5510003,0.0198655
0.5500003,0.01949764
0.5490003,0.01909912
0.5480003,0.01873127
0.5470003,0.01836341
0.5460003,0.01799555
0.5450003,0.01759704
0.5440003,0.01722918
0.5430003,0.01686132
0.5420003,0.01649346
0.5410003,0.01615626
0.5400003,0.01575775
0.5390003,0.01542055
0.5380003,0.01505269
0.5370003,0.01468483
0.5360003,0.01434763
0.5350003,0.01397977
0.5340003,0.01361191
0.5330003,0.01327471
0.5320003,0.01246743
0.5310003,0.0121333
0.5300003,0.01179609
0.5290003,0.01146809
0.5280003,0.01114008
0.5270003,0.01081207
0.5260003,0.01049326
0.5250003,0.01017139
0.5240003,0.009852578
0.5230003,0.009546029
0.5220003,0.00923335
0.5210003,0.008926802
0.5200003,0.00862945
0.5190003,0.008325968
0.5180003,0.008034746
0.5170003,0.007743525
0.5160003,0.00745537
0.5150003,0.007173346
0.5140003,0.006897452
0.5130003,0.006621559
0.5120003,0.006348731
0.5110003,0.006082034
0.5100003,0.005824534
0.5090003,0.005567033
0.5080003,0.005312598
0.5070003,0.005070425
0.5060003,0.004831317
0.5050003,0.004595275
0.5040003,0.004365364
0.5030003,0.004138518
0.5020003,0.003920869
0.5010003,0.003706285
0.5000003,0.003494767
0.4990003,0.003292445
0.4980003,0.003096254
0.4970003,0.002903129
0.4960003,0.0027192
0.4950003,0.002538336
0.4940003,0.002363604
0.4930003,0.002195002
0.4920003,0.002029466
0.4910003,0.001876192
0.4900003,0.001725983
0.4890003,0.001581906
0.4880003,0.001443959
0.4870003,0.001306012
0.4860003,0.001183393
0.4850003,0.001029707
0.4840003,0.0009126058
0.4830003,0.0008043944
0.4820003,0.0006977156
0.4810003,0.000595635
0.4800003,0.0005009116
0.4790003,0.0004089471
0.4780003,0.000325566
0.4770003,0.0002443306
0.4760003,0.0001664674
0.4750003,9.688093E-05
0.4740003,2.698792E-05
0.4730003,-4.239445E-05
0.4720003,-9.769576E-05
0.4710003,-0.0001564611
0.4700003,-0.0002069802
0.4690003,-0.0002554455
0.4680003,-0.0003040947
0.4670003,-0.0003436289
0.4660003,-0.0003831737
0.4650003,-0.000420266
0.4640003,-0.0004518405
0.4630003,-0.0004880132
0.4620003,-0.0005159091
0.4610003,-0.0005444181
0.4600003,-0.0005720074
0.4590003,-0.0005931592
0.4580003,-0.0006155373
0.4570003,-0.0006369957
0.4560003,-0.0006532427
0.4550003,-0.0006737814
0.4540003,-0.0006900285
0.4530003,-0.0007032101
0.4520003,-0.000718844
0.4510003,-0.0007298798
0.4500003,-0.0007433679
0.4490003,-0.0007544036
0.4480003,-0.0007639066
0.4470003,-0.0007752489
0.4460003,-0.000781993
0.4450003,-0.0007905763
0.4440003,-0.0007997728
0.4430003,-0.0008034513
0.4420003,-0.0008120347
0.4410003,-0.0008184722
0.4400003,-0.0008215377
0.4390003,-0.0008307341
0.4380003,-0.0008331866
0.4370003,-0.0008371716
0.4360003,-0.0008442223
0.4350003,-0.0008448354
0.4340003,-0.000849127
0.4330003,-0.0008528056
0.4320003,-0.0008543384
0.4310003,-0.0008610824
0.4300003,-0.0008620021
0.4290003,-0.0008653741
0.4280003,-0.0008699723
0.4270003,-0.0008693592
0.4260003,-0.0008736509
0.4250003,-0.0008754902
0.4240003,-0.0008757967
0.4230003,-0.0008813146
0.4220003,-0.0008822342
0.4210003,-0.0008831539
0.4200003,-0.000887139
0.4190003,-0.0008856063
0.4180003,-0.000889898
0.4170003,-0.0008923503
0.4160003,-0.0008914307
0.4150003,-0.0008960289
0.4140003,-0.0008954158
0.4130003,-0.000896642
0.4120003,-0.0009018534
0.4110003,-0.0009009338
0.4100003,-0.0009070646
0.4090003,-0.0009113564
0.4080003,-0.0009079843
0.4070003,-0.0009107432
0.4060003,-0.0009101302
0.4050003,-0.0009101302
0.4040003,-0.0009138088
0.4030003,-0.0009144219
0.4020003,-0.0009159546
0.4010003,-0.0009165677
0.4000003,-0.0009171807
0.3990003,-0.0009208593
0.3980003,-0.0009208593
0.3970003,-0.0009230052
0.3960003,-0.0009257642
0.3950003,-0.0009239248
0.3940003,-0.0009272969
0.3930003,-0.0009288296
0.3920003,-0.0009269903
0.3910003,-0.000931895
0.3900003,-0.0009328147
0.3890003,-0.0009328147
0.3880003,-0.0009355737
0.3870003,-0.0009349606
0.3860003,-0.0009367999
0.3850003,-0.0009395588
0.3840003,-0.000937413
0.3830003,-0.0009401719
0.3820003,-0.000940785
0.3810003,-0.0009420112
0.3800003,-0.0009447701
0.3790003,-0.000944157
0.3780003,-0.0009459963
0.3770003,-0.0009472225
0.3760003,-0.0009463029
0.3750003,-0.0009496749
0.3740003,-0.0009487552
0.3730003,-0.0009493683
0.3720003,-0.0009512077
0.3710003,-0.0009518207
0.3700003,-0.0009533535
0.3690003,-0.00095366
0.3680003,-0.0009515142
0.3670003,-0.0009551927
0.3660003,-0.0009542731
0.3650003,-0.0009545796
0.3640003,-0.000957032
0.3630003,-0.0009542731
0.3620003,-0.0009554993
0.3610003,-0.0009567254
0.3600003,-0.0009542731
0.3590003,-0.0009567254
0.3580003,-0.0009573385
0.3570003,-0.0009548862
0.3560003,-0.0009561123
0.3550003,-0.0009545796
0.3540003,-0.0009542731
0.3530003,-0.0009542731
0.3520003,-0.0009530469
0.3510003,-0.0009539665
0.3500003,-0.0009512077
0.3490003,-0.0009509011
0.3480003,-0.0009515142
0.3470003,-0.0009484487
0.3460003,-0.0009487552
0.3450003,-0.0009478356
0.3440003,-0.000944157
0.3430003,-0.0009453832
0.3420003,-0.0009429308
0.3410003,-0.0009395588
0.3400003,-0.000940785
0.3390003,-0.0009380261
0.3380003,-0.0009358802
0.3370003,-0.0009349606
0.3360003,-0.0009306689
0.3350003,-0.0009309754
0.3340003,-0.0009282165
0.3330003,-0.0009242314
0.3320003,-0.0009233117
0.3310003,-0.0009196331
0.3300003,-0.0009177938
0.3290003,-0.0009159546
0.3280003,-0.0009110498
0.3270003,-0.0009104367
0.3260003,-0.0009073712
0.3250003,-0.0009033861
0.3240003,-0.0009018534
0.3230003,-0.000896642
0.3220003,-0.0008948027
0.3210003,-0.0008917373
0.3200003,-0.0008874455
0.3190003,-0.0008856063
0.3180003,-0.000880395
0.3170003,-0.0008761032
0.3160003,-0.0008745705
0.3150003,-0.0008684396
0.3140003,-0.0008656807
0.3130003,-0.0008626151
0.3120003,-0.0008564842
0.3110003,-0.0008540318
0.3100003,-0.0008497401
0.3090003,-0.0008445288
0.3080003,-0.0008420764
0.3070003,-0.0008393175
0.3060003,-0.00083288
0.3050003,-0.0008295079
0.3040003,-0.0008230705
0.3030003,-0.0008196984
0.3020003,-0.0008144871
0.3010003,-0.0008098889
0.3000003,-0.0008065169
0.2990003,-0.0008000793
0.2980003,-0.0007957877
0.2970003,-0.0007911894
0.2960003,-0.0007850585
0.2950003,-0.000781993
0.2940003,-0.0007764751
0.2930003,-0.0007706507
0.2920003,-0.0007669721
0.2910003,-0.0007608412
0.2900003,-0.0007565495
0.2890003,-0.0007519512
0.2880003,-0.0007455137
0.2870003,-0.0007418352
0.2860003,-0.0007357041
0.2850003,-0.0007298798
0.2840003,-0.0007265077
0.2830003,-0.0007197637
0.2820003,-0.0007145524
0.2810003,-0.0007096475
0.2800003,-0.000702597
0.2790003,-0.0006992249
0.2780003,-0.0006937071
0.2770003,-0.0006872696
0.2760003,-0.000683591
0.2750003,-0.0006777665
0.2740003,-0.0006719421
0.2730003,-0.000667344
0.2720003,-0.0006609064
0.2710003,-0.0006563082
0.2700003,-0.0006507903
0.2690003,-0.000645579
0.2680003,-0.0006406742
0.2670003,-0.0006345432
0.2660003,-0.0006293319
0.2650003,-0.0006247337
0.2640003,-0.0006179896
0.2630003,-0.0006140045
0.2620003,-0.0006081801
0.2610003,-0.0006026622
0.2600003,-0.0005983706
0.2590003,-0.0005922396
0.2580003,-0.0005873349
0.2570003,-0.0005827366
0.2560003,-0.0005769122
0.2550003,-0.0005726205
0.2540003,-0.0005667961
0.2530003,-0.0005609716
0.2520003,-0.0005572931
0.2510003,-0.0005514687
0.2500003,-0.0005462574
0.2490003,-0.0005422722
0.2480003,-0.0005358347
0.2470003,-0.0005318496
0.2460003,-0.0005266382
0.2450003,-0.0005211204
0.2440003,-0.0005171353
0.2430003,-0.000512537
0.2420003,-0.0005070192
0.2410003,-0.0005027275
0.2400003,-0.0004975162
0.2390003,-0.0004932245
0.2380003,-0.0004883197
0.2370003,-0.0004840281
0.2360003,-0.0004800429
0.2350003,-0.0004748316
0.2340003,-0.0004705399
0.2330003,-0.0004665548
0.2320003,-0.0004613435
0.2310003,-0.0004573583
0.2300003,-0.0004530667
0.2290003,-0.0004484684
0.2280003,-0.000445403
0.2270003,-0.0004404982
0.2260003,-0.0004362065
0.2250003,-0.000433141
0.2240003,-0.0004285428
0.2230003,-0.0004248642
0.2220003,-0.0004211857
0.2210003,-0.0004165874
0.2200003,-0.0004138285
0.2190003,-0.0004095368
0.2180003,-0.0004055517
0.2170003,-0.0004024862
0.2160003,-0.000397888
0.2150003,-0.0003951291
0.2140003,-0.0003914505
0.2130003,-0.0003874653
0.2120003,-0.0003850129
0.2110003,-0.0003810278
0.2100003,-0.0003773492
0.2090003,-0.0003745903
0.2080003,-0.0003706052
0.2070003,-0.0003681528
0.2060003,-0.0003647808
0.2050003,-0.0003620218
0.2040003,-0.0003589563
0.2030003,-0.0003555843
0.2020003,-0.0003522123
0.2010003,-0.0003500664
0.2000003,-0.0003460813
0.1990003,-0.0003439355
0.1980003,-0.0003411766
0.1970003,-0.0003378045
0.1960003,-0.0003356587
0.1950003,-0.0003328998
0.1940003,-0.0003298343
0.1930003,-0.0003276884
0.1920003,-0.0003246229
0.1910003,-0.0003221706
0.1900003,-0.0003197182
0.1890003,-0.0003169593
0.1880003,-0.0003148134
0.1870003,-0.0003120545
0.1860003,-0.0003099086
0.1850003,-0.0003077628
0.1840003,-0.0003046973
0.1830003,-0.000302858
0.1820003,-0.0003007122
0.1810003,-0.0002979533
0.1800003,-0.0002967271
0.1790003,-0.0002942747
0.1780003,-0.0002918223
0.1770003,-0.0002905961
0.1760003,-0.0002875306
0.1750003,-0.0002859978
0.1740003,-0.0002844651
0.1730003,-0.0002820127
0.1720003,-0.00028048
0.1710003,-0.0002786407
0.1700003,-0.0002764949
0.1690003,-0.0002752687
0.1680003,-0.0002731228
0.1670003,-0.0002715901
0.1660003,-0.0002700574
0.1650003,-0.000268218
0.1640003,-0.0002669919
0.1630003,-0.0002651526
0.1620003,-0.0002633133
0.1610003,-0.0002620871
0.1600003,-0.0002602478
0.1590003,-0.0002587151
0.1580003,-0.0002574889
0.1570003,-0.0002559561
0.1560003,-0.0002550365
0.1550003,-0.0002531972
0.1540003,-0.0002516645
0.1530003,-0.0002507448
0.1520003,-0.0002489055
0.1510003,-0.0002479859
0.1500003,-0.0002467597
0.1490003,-0.0002449204
0.1480003,-0.0002440007
0.1470003,-0.0002427746
0.1460003,-0.0002415484
0.1450003,-0.0002406287
0.1440003,-0.000239096
0.1430003,-0.0002381763
0.1420003,-0.0002372567
0.1410003,-0.0002360305
0.1400003,-0.0002351108
0.1390003,-0.0002341912
0.1380003,-0.000232965
0.1370003,-0.0002320454
0.1360003,-0.0002308192
0.1350003,-0.0002302061
0.1340003,-0.0002292864
0.1330003,-0.0002277537
0.1320003,-0.0002271406
0.1310003,-0.0002262209
0.1300003,-0.0002253013
0.1290003,-0.0002246882
0.1280003,-0.0002231555
0.1270003,-0.0002225424
0.1260003,-0.0002219293
0.1250003,-0.0002210096
0.1240003,-0.0002203965
0.1230003,-0.0002194769
0.1220003,-0.0002182507
0.1210003,-0.0002176376
0.1200003,-0.0002164114
0.1190003,-0.0002157983
0.1180003,-0.0002154918
0.1170003,-0.0002142656
0.1160003,-0.000213959
0.1150003,-0.0002130394
0.1140003,-0.0002121197
0.1130003,-0.0002118132
0.1120003,-0.000210587
0.1110003,-0.0002099739
0.1100003,-0.0002090542
0.1090003,-0.0002081346
0.1080003,-0.0002078281
0.1070003,-0.0002066019
0.1060003,-0.0002056822
0.1050003,-0.0002053757
0.1040003,-0.0002041495
0.1030003,-0.0002038429
0.1020003,-0.0002032298
0.1010003,-0.0002020036
0.1000003,-0.0002016971
0.09900028,-0.0002007774
0.09800029,-0.0001998578
0.09700029,-0.0001995512
0.09600028,-0.0001983251
0.09500029,-0.000197712
0.09400029,-0.0001970989
0.09300029,-0.0001961792
0.09200028,-0.0001958727
0.09100029,-0.000194953
0.09000029,-0.0001940334
0.08900028,-0.0001934203
0.08800028,-0.0001925007
0.08700029,-0.0001918875
0.08600029,-0.0001912744
0.08500028,-0.0001903548
0.08400029,-0.0001900483
0.08300029,-0.0001894352
0.08200029,-0.0001885155
0.08100028,-0.0001879024
0.08000029,-0.0001869828
0.07900029,-0.0001866762
0.07800028,-0.0001860631
0.07700028,-0.0001851435
0.07600029,-0.0001848369
0.07500029,-0.0001839173
0.07400028,-0.0001833042
0.07300029,-0.0001829976
0.07200029,-0.000182078
0.07100029,-0.0001814649
0.07000028,-0.0001811584
0.06900029,-0.0001802387
0.06800029,-0.0001799322
0.06700028,-0.0001793191
0.06600028,-0.000178706
0.06500029,-0.0001780929
0.06400029,-0.0001774798
0.06300028,-0.0001768667
0.06200029,-0.0001762536
0.06100029,-0.0001756405
0.06000029,-0.0001753339
0.05900029,-0.0001747208
0.05800029,-0.0001741077
0.05700029,-0.0001738012
0.05600028,-0.0001728816
0.05500029,-0.000172575
0.05400028,-0.0001719619
0.05300029,-0.0001713488
0.05200029,-0.0001710423
0.05100029,-0.0001704292
0.05000029,-0.0001698161
0.04900029,-0.0001695095
0.04800029,-0.0001685899
0.04700029,-0.0001679768
0.04600029,-0.0001676702
0.04500028,-0.0001670571
0.04400029,-0.000166444
0.04300028,-0.0001658309
0.04200029,-0.0001652178
0.04100028,-0.0001646047
0.04000029,-0.0001636851
0.03900029,-0.0001633786
0.03800029,-0.0001627655
0.03700029,-0.0001621524
0.03600029,-0.0001615393
0.03500029,-0.0001609262
0.03400028,-0.0001603131
0.03300029,-0.0001600065
0.03200028,-0.0001587803
0.03100029,-0.0001584738
0.03000029,-0.0001578607
0.02900029,-0.0001572476
0.02800029,-0.0001569411
0.02700029,-0.0001563279
0.02600029,-0.0001554083
0.02500029,-0.0001551017
0.02400029,-0.0001544887
0.02300029,-0.0001574114
0.02200029,-0.0001568902
0.02100029,-0.0001563384
0.02000029,-0.0001558786
0.01900029,-0.0001554188
0.01800029,-0.0001548977
0.01700029,-0.0001544685
0.01600029,-0.000153978
0.01500029,-0.0001535489
0.01400029,-0.0001529971
0.01300029,-0.0001525066
0.01200029,-0.0001522001
0.01100029,-0.0001517402
0.01000029,-0.0001512191
0.009000286,-0.0001508512
0.008000286,-0.0001502688
0.007000286,-0.0001499622
0.006000286,-0.0001495637
0.005000286,-0.0001490119
0.004000286,-0.0001487054
0.003000286,-0.0001481843
0.002000286,-0.0001477858
0.001000286,-0.0001473872
2.861023E-07,-0.0001387119
0.0009997139,-0.0001322131
0.001999714,-0.0001282586
0.002999714,-0.0001251012
0.003999714,-0.0001221277
0.004999714,-0.0001194913
0.005999714,-0.000117039
0.006999714,-0.0001146172
0.007999714,-0.0001125327
0.008999714,-0.0001105401
0.009999714,-0.0001084556
0.01099971,-0.000106555
0.01199971,-0.0001046851
0.01299971,-0.0001028764
0.01399971,-0.0001012824
0.01499971,-9.944309E-05
0.01599971,-9.784904E-05
0.01699971,-9.619367E-05
0.01799971,-9.4477E-05
0.01899971,-9.291361E-05
0.01999971,-9.119694E-05
0.02099971,-8.978682E-05
0.02199971,-8.8438E-05
0.02299971,-8.693591E-05
0.02399971,-8.55871E-05
0.02499971,-8.436092E-05
0.02599971,-8.285882E-05
0.02699971,-8.151001E-05
0.02799971,-8.006924E-05
0.02899971,-7.875108E-05
0.02999971,-7.755554E-05
0.03099971,-7.632935E-05
0.03199971,-7.516446E-05
0.03299971,-7.403023E-05
0.03399972,-7.274273E-05
0.03499971,-7.15472E-05
0.03599972,-7.016773E-05
0.03699971,-6.918678E-05
0.03799972,-6.805255E-05
0.03899971,-6.688766E-05
0.03999971,-6.590671E-05
0.04099971,-6.495641E-05
0.04199971,-6.376087E-05
0.04299971,-6.277992E-05
0.04399971,-6.146176E-05
0.04499971,-6.041949E-05
0.04599971,-5.968377E-05
0.04699972,-5.858021E-05
0.04799971,-5.766056E-05
0.04899972,-5.683288E-05
0.04999971,-5.579061E-05
0.05099971,-5.493228E-05
0.05199971,-5.395133E-05
0.05299971,-5.297037E-05
0.05399971,-5.214269E-05
0.05499971,-5.113108E-05
0.05599971,-5.027275E-05
0.05699971,-4.944507E-05
0.05799972,-4.855608E-05
0.05899971,-4.785102E-05
0.05999972,-4.690071E-05
0.06099971,-4.625697E-05
0.06199971,-4.552125E-05
0.06299971,-4.457095E-05
0.06399971,-4.386589E-05
0.06499971,-4.319148E-05
0.06599972,-4.217987E-05
0.06699971,-4.144416E-05
0.06799971,-4.061648E-05
0.06899972,-3.994207E-05
0.06999972,-3.939028E-05
0.07099971,-3.853195E-05
0.07199971,-3.785754E-05
0.07299972,-3.736707E-05
0.07399971,-3.641676E-05
0.07499971,-3.583432E-05
0.07599971,-3.488402E-05
0.07699972,-3.433224E-05
0.07799971,-3.378045E-05
0.07899971,-3.295277E-05
0.07999972,-3.237033E-05
0.08099972,-3.178789E-05
0.08199971,-3.114414E-05
0.08299971,-3.046973E-05
0.08399972,-2.955008E-05
0.08499971,-2.896764E-05
0.08599971,-2.850782E-05
0.08699971,-2.77721E-05
0.08799972,-2.728163E-05
0.08899971,-2.666853E-05
0.08999971,-2.590216E-05
0.09099972,-2.541168E-05
0.09199972,-2.440007E-05
0.09299971,-2.39096E-05
0.09399971,-2.354174E-05
0.09499972,-2.265275E-05
0.09599971,-2.216227E-05
0.09699971,-2.17331E-05
0.09799971,-2.081346E-05
0.09899972,-2.026167E-05
0.09999971,-1.943399E-05
0.1009997,-1.894351E-05
0.1019997,-1.829976E-05
0.1029997,-1.774798E-05
0.1039997,-1.72575E-05
0.1049997,-1.658309E-05
0.1059997,-1.584738E-05
0.1069997,-1.532624E-05
0.1079997,-1.446791E-05
0.1089997,-1.388547E-05
0.1099997,-1.357892E-05
0.1109997,-1.281255E-05
0.1119997,-1.21688E-05
0.1129997,-1.149439E-05
0.1139997,-1.075868E-05
0.1149997,-1.039082E-05
0.1159997,-9.593793E-06
0.1169997,-8.218442E-06
0.1179997,-7.88737E-06
0.1189997,-7.004511E-06
0.1199997,-6.517099E-06
0.1209997,-6.087931E-06
0.1219997,-5.217335E-06
0.1229997,-4.68394E-06
0.1239997,-3.767361E-06
0.1249997,-3.142003E-06
0.1259997,-2.700574E-06
0.1269997,-1.863697E-06
0.1279997,-1.299648E-06
0.1289997,-8.336945E-07
0.1299997,5.222994E-08
0.1309997,7.297016E-07
0.1319997,1.839406E-06
0.1329997,2.219526E-06
0.1339997,2.771313E-06
0.1349997,3.648041E-06
0.1359997,4.196762E-06
0.1369997,4.825186E-06
0.1379997,5.990069E-06
0.1389997,6.259832E-06
0.1399997,7.207066E-06
0.1409997,8.001026E-06
0.1419997,8.298378E-06
0.1429997,9.454065E-06
0.1439997,1.021737E-05
0.1449997,1.072624E-05
0.1459997,1.170719E-05
0.1469997,1.227737E-05
0.1479997,1.320315E-05
0.1489997,1.415651E-05
0.1499997,1.478494E-05
0.1509997,1.552985E-05
0.1519997,1.575775E-05
0.1529997,1.649346E-05
0.1539997,1.762769E-05
0.1549997,1.811817E-05
0.1559997,1.906847E-05
0.1569997,1.971222E-05
0.1579997,2.047859E-05
0.1589997,2.179675E-05
0.1599997,2.247115E-05
0.1609997,2.302294E-05
0.1619997,2.415717E-05
0.1629997,2.480092E-05
0.1639997,2.618039E-05
0.1649997,2.700807E-05
0.1659997,2.765182E-05
0.1669997,2.872474E-05
0.1679997,2.958307E-05
0.1689997,3.07173E-05
0.1699997,3.197415E-05
0.1709997,3.246463E-05
0.1719997,3.366017E-05
0.1729997,3.454915E-05
0.1739997,3.553011E-05
0.1749997,3.687892E-05
0.1759997,3.773726E-05
0.1769997,3.871821E-05
0.1779997,4.003637E-05
0.1789997,4.068012E-05
0.1799997,4.205959E-05
0.1809997,4.316316E-05
0.1819997,4.438936E-05
0.1829997,4.59834E-05
0.1839997,4.662716E-05
0.1849997,4.782269E-05
0.1859997,4.935544E-05
0.1869997,4.987657E-05
0.1879997,5.171586E-05
0.1889997,5.29727E-05
0.1899997,5.407628E-05
0.1909997,5.573164E-05
0.1919997,5.698849E-05
0.1929997,5.80001E-05
0.1939997,5.956349E-05
0.1949997,6.072838E-05
0.1959997,6.24757E-05
0.1969997,6.391648E-05
0.1979997,6.511201E-05
0.1989997,6.685934E-05
0.1999997,6.81775E-05
0.2009997,6.949566E-05
0.2019997,7.112036E-05
0.2029997,7.234656E-05
0.2039997,7.45537E-05
0.2049997,7.636234E-05
0.2059997,7.76805E-05
0.2069997,7.979568E-05
0.2079997,8.102187E-05
0.2089997,8.252395E-05
0.2099997,8.463914E-05
0.2109997,8.59573E-05
0.2119997,8.825641E-05
0.2129997,9.009569E-05
0.2139997,9.162844E-05
0.2149997,9.395821E-05
0.2159997,9.564422E-05
0.2169997,9.751417E-05
0.2179997,9.984394E-05
0.2189997,0.0001013154
0.2199997,0.0001036451
0.2209997,0.0001060055
0.2219997,0.0001080288
0.2229997,0.0001102666
0.2239997,0.0001122898
0.2249997,0.000114405
0.2259997,0.0001168267
0.2269997,0.0001186353
0.2279997,0.0001217008
0.2289997,0.0001238467
0.2299997,0.0001259925
0.2309997,0.0001290886
0.2319997,0.0001312345
0.2329997,0.0001335642
0.2339997,0.0001364764
0.2349997,0.000138561
0.2359997,0.0001419943
0.2369997,0.0001447226
0.2379997,0.0001469604
0.2389997,0.0001503631
0.2399997,0.0001530301
0.2409997,0.0001554211
0.2419997,0.0001589464
0.2429997,0.0001615827
0.2439997,0.0001652307
0.2449997,0.0001683268
0.2459997,0.0001712697
0.2469997,0.0001747643
0.2479997,0.0001775233
0.2489997,0.000180742
0.2499997,0.0001844206
0.2509997,0.0001873021
0.2519997,0.0001917471
0.2529997,0.0001949045
0.2539997,0.0001982153
0.2549997,0.0002025069
0.2559997,0.0002059096
0.2569997,0.0002096495
0.2579997,0.0002139718
0.2589997,0.0002168228
0.2599997,0.0002214516
0.2609997,0.0002254674
0.2619997,0.000229238
0.2629997,0.0002341734
0.2639997,0.0002378213
0.2649997,0.0002418064
0.2659997,0.0002469258
0.2669997,0.0002504817
0.2679997,0.0002553865
0.2689997,0.0002601993
0.2699997,0.0002646443
0.2709997,0.0002695797
0.2719997,0.0002737181
0.2729997,0.0002786535
0.2739997,0.0002836809
0.2749997,0.0002921522
0.2759997,0.0002970569
0.2769997,0.0003013486
0.2779997,0.0003062534
0.2789997,0.0003123844
0.2799997,0.000316676
0.2809997,0.0003218873
0.2819997,0.0003277118
0.2829997,0.0003326166
0.2839997,0.0003393606
0.2849997,0.0003445719
0.2859997,0.0003491702
0.2869997,0.0003559142
0.2879997,0.0003617386
0.2889997,0.00036695
0.2899997,0.0003740006
0.2909997,0.0003789053
0.2919997,0.0003859559
0.2929997,0.0003914738
0.2939997,0.0003976048
0.2949997,0.0004046554
0.2959997,0.0004104798
0.2969997,0.0004169173
0.2979997,0.0004236614
0.2989997,0.0004288727
0.2999997,0.000436843
0.3009997,0.0004432805
0.3019997,0.0004494115
0.3029997,0.0004570751
0.3039997,0.000462593
0.3049997,0.0004693371
0.3059997,0.0004770008
0.3069997,0.0004846645
0.3079997,0.0004923282
0.3089997,0.0004981526
0.3099997,0.000503977
0.3109997,0.0005122538
0.3119997,0.0005186913
0.3129997,0.000525742
0.3139997,0.0005337122
0.3149997,0.0005395366
0.3159997,0.00054812
0.3169997,0.0005548641
0.3179997,0.0005616081
0.3189997,0.0005692719
0.3199997,0.0005772421
0.3209997,0.0005845992
0.3219997,0.0005913433
0.3229997,0.0005977808
0.3239997,0.0006069773
0.3249997,0.0006128017
0.3259997,0.0006204654
0.3269997,0.0006290487
0.3279997,0.0006348731
0.3289997,0.0006431499
0.3299997,0.0006508137
0.3309997,0.0006563315
0.3319997,0.000666141
0.3329997,0.0006722721
0.3339997,0.0006790161
0.3349997,0.0006875995
0.3359997,0.000694037
0.3369997,0.0007010876
0.3379997,0.0007093644
0.3389997,0.0007161084
0.3399997,0.0007246918
0.3409997,0.0007305162
0.3419997,0.0007378734
0.3429997,0.0007455371
0.3439997,0.0007516681
0.3449997,0.0007599448
0.3459997,0.000767302
0.3469997,0.0007731264
0.3479997,0.0007820163
0.3489997,0.0007881473
0.3499997,0.0007939717
0.3509997,0.0008025551
0.3519997,0.000808686
0.3529997,0.0008160432
0.3539997,0.0008234003
0.3549997,0.0008286117
0.3559997,0.0008378081
0.3569997,0.0008430194
0.3579997,0.0008497635
0.3589997,0.0008580403
0.3599997,0.000862945
0.3609997,0.0008696892
0.3619997,0.0008767397
0.3629997,0.0008822576
0.3639997,0.0008902278
0.3649997,0.0008963588
0.3659997,0.0009018767
0.3669997,0.0009092339
0.3679997,0.0009141387
0.3689997,0.0009224154
0.3699997,0.0009279333
0.3709997,0.0009340643
0.3719997,0.0009423411
0.3729997,0.0009463262
0.3739997,0.0009527637
0.3749997,0.0009598143
0.3759997,0.0009628798
0.3769997,0.000970237
0.3779997,0.0009782072
0.3789997,0.0009812727
0.3799997,0.0009895496
0.3809997,0.0009941477
0.3819997,0.0009981329
0.3829997,0.00100641
0.3839997,0.001009475
0.3849997,0.001015299
0.3859997,0.001022657
0.3869997,0.001026948
0.3879997,0.001033386
0.3889997,0.001037678
0.3899997,0.001043809
0.3909997,0.001049633
0.3919997,0.001053005
0.3929997,0.001059442
0.3939997,0.001064041
0.3949997,0.001068332
0.3959997,0.001075996
0.3969997,0.001079368
0.3979997,0.001083353
0.3989997,0.001090404
0.3999997,0.00109255
0.4009997,0.001098681
0.4019997,0.001104199
0.4029997,0.001106651
0.4039997,0.001114621
0.4049997,0.00111646
0.4059997,0.001120139
0.4069997,0.001126576
0.4079997,0.001128722
0.4089997,0.001136693
0.4099997,0.001144663
0.4109997,0.001145889
0.4119997,0.001150181
0.4129997,0.001152327
0.4139997,0.001156312
0.4149997,0.00116091
0.4159997,0.001164282
0.4169997,0.001170106
0.4179997,0.001171639
0.4189997,0.001175011
0.4199997,0.001181755
0.4209997,0.001182062
0.4219997,0.001186966
0.4229997,0.001192484
0.4239997,0.001193098
0.4249997,0.001198922
0.4259997,0.001202601
0.4269997,0.00120352
0.4279997,0.001210571
0.4289997,0.001213636
0.4299997,0.001215169
0.4309997,0.001219767
0.4319997,0.001221913
0.4329997,0.001225592
0.4339997,0.00122927
0.4349997,0.001231723
0.4359997,0.001236934
0.4369997,0.001238467
0.4379997,0.001243065
0.4389997,0.001246743
0.4399997,0.001247663
0.4409997,0.001254101
0.4419997,0.00125686
0.4429997,0.001258699
0.4439997,0.001265443
0.4449997,0.001265443
0.4459997,0.001269428
0.4469997,0.001275559
0.4479997,0.001277398
0.4489997,0.00128261
0.4499997,0.001287208
0.4509997,0.001287514
0.4519997,0.001295485
0.4529997,0.001297324
0.4539997,0.001301309
0.4549997,0.00130836
0.4559997,0.001310505
0.4569997,0.001315717
0.4579997,0.001321848
0.4589997,0.001325526
0.4599997,0.00133319
0.4609997,0.001340547
0.4619997,0.001345759
0.4629997,0.001353116
0.4639997,0.001359247
0.4649997,0.001369056
0.4659997,0.0013758
0.4669997,0.001384997
0.4679997,0.001398178
0.4689997,0.001404922
0.4699997,0.001417184
0.4709997,0.001432818
0.4719997,0.001441095
0.4729997,0.001459181
0.4739997,0.001476961
0.4749997,0.001491369
0.4759997,0.00151436
0.4769997,0.00153306
0.4779997,0.001554824
0.4789997,0.001583333
0.4799997,0.001609083
0.4809997,0.001639432
0.4819997,0.001673152
0.4829997,0.001707486
0.4839997,0.001749176
0.4849997,0.001790867
0.4859997,0.001837768
0.4869997,0.001888042
0.4879997,0.001943834
0.4889997,0.00200637
0.4899997,0.002069826
0.4909997,0.002140025
0.4919997,0.002220341
0.4929997,0.00230127
0.4939997,0.002390782
0.4949997,0.002487651
0.4959997,0.002587279
0.4969997,0.002701928
0.4979997,0.00281811
0.4989997,0.002942875
0.4999997,0.003108516
0.5009997,0.003243397
0.5019997,0.00339054
0.5029997,0.003549946
0.5039997,0.003712416
0.5049997,0.003890214
0.5059997,0.004074143
0.5069997,0.004261137
0.5079997,0.004463459
0.5089997,0.004668847
0.5099997,0.00488343
0.5109997,0.005104146
0.5119997,0.005340187
0.5129997,0.00557623
0.5139997,0.005818403
0.5149997,0.006072837
0.5159997,0.006333403
0.5169997,0.00659397
0.5179997,0.006869863
0.5189997,0.007148822
0.5199997,0.007427781
0.5209997,0.007722067
0.5219997,0.008016353
0.5229997,0.008310639
0.5239997,0.008620254
0.5249997,0.008929867
0.5259997,0.009242547
0.5269997,0.009567488
0.5279997,0.009886298
0.5289997,0.0102143
0.5299997,0.01054844
0.5309997,0.01088258
0.5319997,0.01122285
0.5329997,0.01156618
0.5339997,0.01191258
0.5349997,0.01226511
0.5359997,0.01261764
0.5369997,0.01297324
0.5379997,0.0133319
0.5389997,0.01369363
0.5399997,0.01406148
0.5409997,0.01442321
0.5419997,0.0147972
0.5429997,0.01517119
0.5439997,0.01554518
0.5449997,0.0159253
0.5459997,0.01630542
0.5469997,0.01668247
0.5479997,0.01707179
0.5489997,0.01745497
0.5499997,0.01783816
0.5509997,0.01823667
0.5519997,0.01861986
0.5529997,0.01901837
0.5539997,0.01941688
0.5549997,0.01980926
0.5559997,0.02020778
0.5569997,0.02060936
0.5579997,0.02100787
0.5589997,0.02140945
0.5599997,0.02181409
0.5609997,0.0222218
0.5619997,0.02262644
0.5629997,0.02304029
0.5639997,0.02344799
0.5649997,0.02385877
0.5659997,0.02427261
0.5669997,0.02468032
0.5679997,0.02509416
0.5689997,0.02551719
0.5699997,0.02592797
0.5709997,0.02634181
0.5719997,0.02677098
0.5729997,0.02717868
0.5739997,0.02760479
0.5749997,0.02803089
0.5759997,0.02844473
0.5769997,0.0288739
0.5779997,0.0293
0.5789997,0.02971691
0.5799997,0.03014607
0.5809997,0.0313304
0.5819997,0.03172891
0.5829997,0.03215808
0.5839997,0.03258725
0.5849997,0.03304707
0.5859997,0.03347624
0.5869997,0.03390541
0.5879997,0.03433457
0.5889997,0.03476374
0.5899997,0.03522356
0.5909997,0.03565273
0.5919997,0.0360819
0.5929997,0.03654172
0.5939997,0.03697089
0.5949997,0.03740006
0.5959997,0.03785988
0.5969997,0.0383197
0.5979997,0.03874887
0.5989997,0.03920869
0.5999997,0.03966851
0.6009997,0.04009768
0.6019997,0.0405575
0.6029997,0.04101732
0.6039997,0.04144649
0.6049997,0.04190632
0.6059997,0.04233548
0.6069997,0.0427953
0.6079997,0.04325513
0.6089997,0.04371495
0.6099997,0.04414412
0.6109997,0.04460394
0.6119997,0.04506376
0.6129997,0.04549293
0.6139997,0.04595275
0.6149997,0.04641258
0.6159997,0.0468724
0.6169997,0.04733222
0.6179997,0.04779204
0.6189997,0.04822121
0.6199997,0.04868103
0.6209997,0.04914085
0.6219997,0.04960068
0.6229997,0.05002984
0.6239997,0.05048966
0.6249997,0.05094949
0.6259997,0.05140931
0.6269997,0.05186913
0.6279997,0.05232896
0.6289997,0.05278878
0.6299997,0.0532486
0.6309997,0.05370842
0.6319997,0.0541989
0.6329997,0.05465872
0.6339997,0.05511854
0.6349997,0.05557837
0.6359997,0.05603819
0.6369997,0.05649801
0.6379997,0.05695784
0.6389997,0.05741766
0.6399997,0.05787748
0.6409997,0.05836796
0.6419997,0.05879712
0.6429997,0.05925695
0.6439997,0.05974742
0.6449997,0.06020725
0.6459997,0.06066707
0.6469997,0.06112689
0.6479997,0.06161737
0.6489997,0.06204654
0.6499997,0.06253701
0.6509997,0.06299683
0.6519997,0.06345665
0.6529997,0.06394713
0.6539997,0.06440695
0.6549997,0.06486678
0.6559997,0.0653266
0.6569997,0.06581708
0.6579997,0.06624625
0.6589997,0.06673672
0.6599997,0.06722721
0.6609997,0.06765637
0.6619997,0.06814685
0.6629997,0.06860667
0.6639997,0.06906649
0.6649997,0.06955697
0.6659997,0.07004745
0.6669997,0.07050727
0.6679997,0.07099774
0.6689997,0.07145756
0.6699997,0.07191739
0.6709997,0.07237721
0.6719997,0.07286769
0.6729997,0.07335817
0.6739997,0.07381799
0.6749997,0.07430847
0.6759997,0.07476829
0.6769997,0.07522812
0.6779997,0.07571859
0.6789997,0.07617841
0.6799997,0.07663824
0.6809997,0.07712871
0.6819997,0.07758854
0.6829997,0.07807901
0.6839997,0.07856949
0.6849997,0.07902931
0.6859997,0.07951979
0.6869997,0.07997961
0.6879997,0.08043943
0.6889997,0.08092991
0.6899997,0.08138973
0.6909997,0.0818802
0.6919997,0.08237069
0.6929997,0.08279985
0.6939997,0.08329033
0.6949997,0.08378081
0.6959997,0.08424063
0.6969997,0.08470046
0.6979997,0.08522158
0.6989997,0.08568141
0.6999997,0.08580403
0.6990004,0.0853442
0.6980004,0.08485373
0.6970004,0.0843939
0.6960004,0.08393408
0.6950004,0.08347426
0.6940004,0.08298378
0.6930004,0.08252396
0.6920004,0.08206414
0.6910004,0.08160432
0.6900004,0.0811445
0.6890004,0.08068467
0.6880004,0.0801942
0.6870004,0.07973437
0.6860004,0.07927455
0.6850004,0.07881473
0.6840004,0.0783549
0.6830004,0.07789508
0.6820004,0.07743526
0.6810004,0.07694478
0.6800004,0.07648496
0.6790004,0.07602514
0.6780004,0.07553466
0.6770004,0.07510549
0.6760004,0.07461502
0.6750004,0.0741552
0.6740004,0.07369537
0.6730004,0.07323555
0.6720004,0.07277572
0.6710004,0.0723159
0.6700004,0.07182543
0.6690004,0.07139625
0.6680004,0.07090578
0.6670004,0.07044595
0.6660004,0.07001679
0.6650004,0.06952631
0.6640004,0.06906649
0.6630004,0.06860667
0.6620004,0.06814685
0.6610004,0.06768703
0.6600004,0.06722721
0.6590004,0.06676738
0.6580004,0.06630756
0.6570004,0.06584774
0.6560004,0.06538791
0.6550004,0.06492809
0.6540004,0.06449892
0.6530004,0.06400844
0.6520004,0.06354862
0.6510004,0.0630888
0.6500004,0.06262898
0.6490004,0.06216915
0.6480004,0.06173999
0.6470004,0.06128017
0.6460004,0.06078969
0.6450004,0.06036052
0.6440004,0.05987004
0.6430004,0.05944088
0.6420004,0.05901171
0.6410004,0.05852123
0.6400004,0.05806141
0.6390004,0.05763224
0.6380004,0.05717242
0.6370004,0.0567126
0.6360004,0.05628343
0.6350004,0.05582361
0.6340004,0.05536379
0.6330004,0.05493462
0.6320004,0.0544748
0.6310004,0.05401497
0.6300004,0.05355515
0.6290004,0.05309533
0.6280004,0.0526355
0.6270004,0.05220634
0.6260004,0.05174651
0.6250004,0.05128669
0.6240004,0.05085753
0.6230004,0.0503977
0.6220004,0.04993788
0.6210004,0.04950871
0.6200004,0.04907954
0.6190004,0.04861972
0.6180004,0.04819056
0.6170004,0.04773073
0.6160004,0.04727091
0.6150004,0.04684174
0.6140004,0.04638192
0.6130004,0.04595275
0.6120004,0.04549293
0.6110004,0.04506376
0.6100004,0.04460394
0.6090004,0.04420543
0.6080004,0.0437456
0.6070004,0.04328578
0.6060004,0.04285662
0.6050004,0.04242745
0.6040004,0.04196763
0.6030004,0.04156911
0.6020004,0.04110929
0.6010004,0.04068012
0.6000004,0.04025095
0.5990004,0.03982178
0.5980004,0.03936196
0.5970004,0.03896345
0.5960004,0.03850363
0.5950004,0.03807446
0.5940004,0.03761464
0.5930004,0.03721613
0.5920004,0.0367563
0.5910004,0.03632713
0.5900004,0.03592863
0.5890004,0.03549946
0.5880004,0.03507029
0.5870004,0.03464112
0.5860004,0.03421196
0.5850004,0.03381344
0.5840004,0.03335362
0.5830004,0.03295511
0.5820004,0.03252594
0.5810004,0.03209677
0.5800004,0.0316676
0.5790004,0.03126909
0.5780004,0.03083992
0.5770004,0.03041076
0.5760004,0.03001224
0.5750004,0.02958308
0.5740004,0.02915391
0.5730004,0.02875539
0.5720004,0.02832623
0.5710004,0.02792772
0.5700004,0.0275292
0.5690004,0.02710003
0.5680004,0.02670152
0.5670004,0.02630301
0.5660004,0.02587384
0.5650004,0.02547533
0.5640004,0.02507682
0.5630004,0.0246783
0.5620004,0.02427979
0.5610004,0.02388128
0.5600004,0.02348276
0.5590004,0.02308425
0.5580004,0.02268574
0.5570004,0.02228723
0.5560004,0.02188871
0.5550004,0.0214902
0.5540004,0.02109169
0.5530004,0.02072383
0.5520004,0.02032532
0.5510004,0.01995746
0.5500004,0.01955895
0.5490004,0.01919109
0.5480004,0.01879258
0.5470004,0.01842472
0.5460004,0.01805686
0.5450004,0.017689
0.5440004,0.01732115
0.5430004,0.01692263
0.5420004,0.01658543
0.5410004,0.01621757
0.5400004,0.01584971
0.5390004,0.01548185
0.5380004,0.015114
0.5370004,0.01477679
0.5360004,0.01440894
0.5350004,0.01404108
0.5340004,0.01370388
0.5330004,0.01336667
0.5320004,0.01253181
0.5310004,0.01220074
0.5300004,0.01186353
0.5290004,0.01153246
0.5280004,0.01120752
0.5270004,0.01087951
0.5260004,0.01055457
0.5250004,0.01023576
0.5240004,0.009916953
0.5230004,0.009607339
0.5220004,0.009297726
0.5210004,0.008991177
0.5200004,0.00869076
0.5190004,0.008390343
0.5180004,0.008096056
0.5170004,0.007804835
0.5160004,0.00751668
0.5150004,0.007234655
0.5140004,0.006955697
0.5130004,0.006679803
0.5120004,0.006406975
0.5110004,0.006137213
0.5100004,0.005879712
0.5090004,0.005622211
0.5080004,0.005367777
0.5070004,0.005125604
0.5060004,0.00488343
0.5050004,0.004644323
0.5040004,0.004417477
0.5030004,0.004187566
0.5020004,0.003969917
0.5010004,0.003755333
0.5000004,0.003543815
0.4990004,0.003341493
0.4980004,0.003142236
0.4970004,0.002946045
0.4960004,0.002762116
0.4950004,0.002578188
0.4940004,0.002403455
0.4930004,0.002234854
0.4920004,0.002069318
0.4910004,0.001912978
0.4900004,0.001762769
0.4890004,0.001615626
0.4880004,0.001477679
0.4870004,0.001339733
0.4860004,0.001214048
0.4850004,0.001061282
0.4840004,0.0009420345
0.4830004,0.0008335165
0.4820004,0.0007253049
0.4810004,0.0006229177
0.4800004,0.0005278878
0.4790004,0.0004331644
0.4780004,0.0003497833
0.4770004,0.0002688545
0.4760004,0.0001894585
0.4750004,0.0001195655
0.4740004,4.875285E-05
0.4730004,-2.102804E-05
0.4720004,-7.777012E-05
0.4710004,-0.0001369033
0.4700004,-0.000186932
0.4690004,-0.0002364702
0.4680004,-0.0002853339
0.4670004,-0.0003255426
0.4660004,-0.0003660069
0.4650004,-0.0004021796
0.4640004,-0.0004346738
0.4630004,-0.0004705399
0.4620004,-0.0004990489
0.4610004,-0.0005278645
0.4600004,-0.0005554538
0.4590004,-0.0005759926
0.4580004,-0.0005992902
0.4570004,-0.000620442
0.4560004,-0.0006366891
0.4550004,-0.0006572278
0.4540004,-0.0006731683
0.4530004,-0.000686963
0.4520004,-0.0007022904
0.4510004,-0.0007139393
0.4500004,-0.0007271208
0.4490004,-0.0007381566
0.4480004,-0.0007479661
0.4470004,-0.0007596149
0.4460004,-0.0007657459
0.4450004,-0.0007737162
0.4440004,-0.0007829126
0.4430004,-0.0007875108
0.4420004,-0.0007957877
0.4410004,-0.0008028382
0.4400004,-0.0008049841
0.4390004,-0.0008132609
0.4380004,-0.0008166329
0.4370004,-0.0008203115
0.4360004,-0.000826749
0.4350004,-0.0008282817
0.4340004,-0.0008322669
0.4330004,-0.000836252
0.4320004,-0.0008374782
0.4310004,-0.0008433026
0.4300004,-0.0008454485
0.4290004,-0.000848514
0.4280004,-0.000852499
0.4270004,-0.0008521925
0.4260004,-0.0008564842
0.4250004,-0.000858017
0.4240004,-0.0008577104
0.4230004,-0.0008635348
0.4220004,-0.0008644544
0.4210004,-0.0008653741
0.4200004,-0.0008693592
0.4190004,-0.0008687461
0.4180004,-0.0008721182
0.4170004,-0.000874264
0.4160004,-0.0008733444
0.4150004,-0.0008776361
0.4140004,-0.0008776361
0.4130004,-0.0008785557
0.4120004,-0.0008825408
0.4110004,-0.0008822342
0.4100004,-0.0008889784
0.4090004,-0.0008926569
0.4080004,-0.0008880587
0.4070004,-0.0008914307
0.4060004,-0.0008911242
0.4050004,-0.0008914307
0.4040004,-0.0008944962
0.4030004,-0.0008941896
0.4020004,-0.000896642
0.4010004,-0.0008972551
0.4000004,-0.0008969486
0.3990004,-0.0009012403
0.3980004,-0.0009009338
0.3970004,-0.0009024665
0.3960004,-0.0009064515
0.3950004,-0.0009043057
0.3940004,-0.0009064515
0.3930004,-0.0009082909
0.3920004,-0.0009064515
0.3910004,-0.0009113564
0.3900004,-0.0009116629
0.3890004,-0.0009113564
0.3880004,-0.0009150349
0.3870004,-0.0009147284
0.3860004,-0.000915648
0.3850004,-0.0009171807
0.3840004,-0.0009159546
0.3830004,-0.0009196331
0.3820004,-0.00091902
0.3810004,-0.0009196331
0.3800004,-0.0009226986
0.3790004,-0.000921779
0.3780004,-0.0009242314
0.3770004,-0.0009248445
0.3760004,-0.0009230052
0.3750004,-0.0009276034
0.3740004,-0.0009263772
0.3730004,-0.0009266838
0.3720004,-0.0009297492
0.3710004,-0.0009291361
0.3700004,-0.0009303623
0.3690004,-0.0009309754
0.3680004,-0.0009288296
0.3670004,-0.0009322016
0.3660004,-0.0009312819
0.3650004,-0.0009312819
0.3640004,-0.0009331212
0.3630004,-0.0009315885
0.3620004,-0.000931895
0.3610004,-0.0009328147
0.3600004,-0.0009312819
0.3590004,-0.0009337344
0.3580004,-0.0009334278
0.3570004,-0.000931895
0.3560004,-0.0009331212
0.3550004,-0.0009303623
0.3540004,-0.0009309754
0.3530004,-0.0009306689
0.3520004,-0.0009288296
0.3510004,-0.0009303623
0.3500004,-0.0009282165
0.3490004,-0.0009269903
0.3480004,-0.0009285231
0.3470004,-0.000925151
0.3460004,-0.0009260707
0.3450004,-0.0009254576
0.3440004,-0.0009205528
0.3430004,-0.0009223921
0.3420004,-0.0009202462
0.3410004,-0.0009174873
0.3400004,-0.0009177938
0.3390004,-0.0009153415
0.3380004,-0.0009138088
0.3370004,-0.0009125826
0.3360004,-0.000908904
0.3350004,-0.0009085974
0.3340004,-0.0009055319
0.3330004,-0.0009024665
0.3320004,-0.0009021599
0.3310004,-0.0008978682
0.3300004,-0.000896642
0.3290004,-0.0008948027
0.3280004,-0.0008902045
0.3270004,-0.000889898
0.3260004,-0.0008865259
0.3250004,-0.0008831539
0.3240004,-0.0008828474
0.3230004,-0.0008776361
0.3220004,-0.0008745705
0.3210004,-0.0008727313
0.3200004,-0.0008687461
0.3190004,-0.0008669068
0.3180004,-0.0008626151
0.3170004,-0.0008583235
0.3160004,-0.0008564842
0.3150004,-0.0008515794
0.3140004,-0.0008488205
0.3130004,-0.000845755
0.3120004,-0.0008402371
0.3110004,-0.0008383978
0.3100004,-0.0008341062
0.3090004,-0.0008295079
0.3080004,-0.000826749
0.3070004,-0.0008239901
0.3060004,-0.0008193919
0.3050004,-0.0008157133
0.3040004,-0.0008089693
0.3030004,-0.00080713
0.3020004,-0.0008019186
0.3010004,-0.0007973204
0.3000004,-0.0007945614
0.2990004,-0.000788737
0.2980004,-0.0007844454
0.2970004,-0.0007807668
0.2960004,-0.0007746358
0.2950004,-0.0007715704
0.2940004,-0.0007678918
0.2930004,-0.0007620673
0.2920004,-0.0007577756
0.2910004,-0.0007525643
0.2900004,-0.0007482726
0.2890004,-0.0007442875
0.2880004,-0.0007387697
0.2870004,-0.000735091
0.2860004,-0.0007298798
0.2850004,-0.0007246684
0.2840004,-0.0007203768
0.2830004,-0.0007148589
0.2820004,-0.0007102606
0.2810004,-0.0007056625
0.2800004,-0.0006992249
0.2790004,-0.0006955464
0.2780004,-0.0006909482
0.2770004,-0.0006851237
0.2760004,-0.0006817517
0.2750004,-0.0006759273
0.2740004,-0.0006704094
0.2730004,-0.0006667308
0.2720004,-0.0006602933
0.2710004,-0.0006566148
0.2700004,-0.00065171
0.2690004,-0.0006464986
0.2680004,-0.0006422069
0.2670004,-0.000636076
0.2660004,-0.0006311712
0.2650004,-0.0006271861
0.2640004,-0.0006210551
0.2630004,-0.00061707
0.2620004,-0.0006121653
0.2610004,-0.0006069539
0.2600004,-0.0006029688
0.2590004,-0.0005971444
0.2580004,-0.0005922396
0.2570004,-0.000587948
0.2560004,-0.0005827366
0.2550004,-0.0005787515
0.2540004,-0.0005735401
0.2530004,-0.0005680223
0.2520004,-0.0005643437
0.2510004,-0.0005591324
0.2500004,-0.0005542276
0.2490004,-0.000550549
0.2480004,-0.0005444181
0.2470004,-0.0005404329
0.2460004,-0.0005361412
0.2450004,-0.0005309299
0.2440004,-0.0005272513
0.2430004,-0.0005226531
0.2420004,-0.0005177484
0.2410004,-0.0005140697
0.2400004,-0.0005085519
0.2390004,-0.0005048733
0.2380004,-0.0005005816
0.2370004,-0.00049629
0.2360004,-0.0004923049
0.2350004,-0.0004877066
0.2340004,-0.0004834149
0.2330004,-0.0004797364
0.2320004,-0.0004748316
0.2310004,-0.0004714596
0.2300004,-0.0004674745
0.2290004,-0.0004628762
0.2280004,-0.0004601173
0.2270004,-0.0004552125
0.2260004,-0.0004509208
0.2250004,-0.0004481619
0.2240004,-0.0004435637
0.2230004,-0.0004404982
0.2220004,-0.0004368196
0.2210004,-0.0004328345
0.2200004,-0.0004303821
0.2190004,-0.0004260904
0.2180004,-0.0004221053
0.2170004,-0.0004193464
0.2160004,-0.0004150547
0.2150004,-0.0004119892
0.2140004,-0.0004089237
0.2130004,-0.0004052451
0.2120004,-0.0004024862
0.2110004,-0.0003994207
0.2100004,-0.0003957421
0.2090004,-0.0003926767
0.2080004,-0.0003889981
0.2070004,-0.0003862391
0.2060004,-0.0003831737
0.2050004,-0.0003807213
0.2040004,-0.0003776558
0.2030004,-0.0003745903
0.2020004,-0.0003715248
0.2010004,-0.0003690725
0.2000004,-0.0003657004
0.1990004,-0.0003632481
0.1980004,-0.0003607956
0.1970004,-0.0003574236
0.1960004,-0.0003552778
0.1950004,-0.0003525188
0.1940004,-0.0003497599
0.1930004,-0.0003476141
0.1920004,-0.0003445486
0.1910004,-0.0003424028
0.1900004,-0.0003399504
0.1890004,-0.000337498
0.1880004,-0.0003356587
0.1870004,-0.0003328998
0.1860004,-0.0003304474
0.1850004,-0.0003286081
0.1840004,-0.0003255426
0.1830004,-0.0003240099
0.1820004,-0.000321864
0.1810004,-0.0003194116
0.1800004,-0.0003178789
0.1790004,-0.0003154265
0.1780004,-0.0003132806
0.1770004,-0.0003114414
0.1760004,-0.000308989
0.1750004,-0.0003074562
0.1740004,-0.0003053104
0.1730004,-0.0003034711
0.1720004,-0.0003019384
0.1710004,-0.0003004056
0.1700004,-0.0002982598
0.1690004,-0.0002967271
0.1680004,-0.0002945812
0.1670004,-0.0002930485
0.1660004,-0.0002915157
0.1650004,-0.0002893699
0.1640004,-0.0002881437
0.1630004,-0.000286611
0.1620004,-0.0002847717
0.1610004,-0.0002835455
0.1600004,-0.0002813996
0.1590004,-0.0002801734
0.1580004,-0.0002789472
0.1570004,-0.0002774145
0.1560004,-0.0002761883
0.1550004,-0.0002749621
0.1540004,-0.0002731228
0.1530004,-0.0002718967
0.1520004,-0.0002700574
0.1510004,-0.0002691377
0.1500004,-0.000268218
0.1490004,-0.0002663788
0.1480004,-0.0002654591
0.1470004,-0.0002642329
0.1460004,-0.0002623936
0.1450004,-0.0002617805
0.1440004,-0.0002602478
0.1430004,-0.0002593282
0.1420004,-0.0002584085
0.1410004,-0.0002571823
0.1400004,-0.0002562627
0.1390004,-0.0002550365
0.1380004,-0.0002538103
0.1370004,-0.0002528907
0.1360004,-0.0002516645
0.1350004,-0.0002510514
0.1340004,-0.0002498252
0.1330004,-0.0002482924
0.1320004,-0.0002479859
0.1310004,-0.0002467597
0.1300004,-0.00024584
0.1290004,-0.000245227
0.1280004,-0.0002436942
0.1270004,-0.0002427746
0.1260004,-0.0002421615
0.1250004,-0.0002409353
0.1240004,-0.0002403222
0.1230004,-0.0002397091
0.1220004,-0.0002384829
0.1210004,-0.0002378698
0.1200004,-0.0002366436
0.1190004,-0.0002360305
0.1180004,-0.0002354174
0.1170004,-0.0002344978
0.1160004,-0.0002338847
0.1150004,-0.000232965
0.1140004,-0.0002317388
0.1130004,-0.0002314323
0.1120004,-0.0002302061
0.1110004,-0.0002298995
0.1100004,-0.0002289799
0.1090004,-0.0002280602
0.1080004,-0.0002274471
0.1070004,-0.0002265275
0.1060004,-0.0002259144
0.1050004,-0.0002253013
0.1040004,-0.0002240751
0.1030004,-0.0002237686
0.1020004,-0.0002231555
0.1010004,-0.0002219293
0.1000004,-0.0002213162
0.09900038,-0.0002207031
0.09800038,-0.0002197834
0.09700038,-0.0002194769
0.09600038,-0.0002182507
0.09500038,-0.0002176376
0.09400038,-0.0002170245
0.09300038,-0.0002161049
0.09200038,-0.0002154918
0.09100038,-0.0002148787
0.09000038,-0.0002142656
0.08900038,-0.0002136525
0.08800038,-0.0002124263
0.08700038,-0.0002118132
0.08600038,-0.0002112001
0.08500038,-0.000210587
0.08400038,-0.0002099739
0.08300038,-0.0002093608
0.08200038,-0.0002084412
0.08100038,-0.0002078281
0.08000038,-0.0002066019
0.07900038,-0.0002062953
0.07800038,-0.0002056822
0.07700038,-0.0002050691
0.07600038,-0.000204456
0.07500038,-0.0002035364
0.07400038,-0.0002026167
0.07300038,-0.0002026167
0.07200038,-0.0002013905
0.07100038,-0.000201084
0.07000038,-0.0002007774
0.06900038,-0.0001998578
0.06800038,-0.0001992447
0.06700038,-0.0001983251
0.06600038,-0.000197712
0.06500039,-0.0001974054
0.06400038,-0.0001967923
0.06300038,-0.0001961792
0.06200038,-0.0001955661
0.06100038,-0.0001946465
0.06000038,-0.0001940334
0.05900038,-0.0001934203
0.05800038,-0.0001931137
0.05700038,-0.0001925007
0.05600038,-0.000191581
0.05500038,-0.0001909679
0.05400038,-0.0001903548
0.05300038,-0.0001897417
0.05200038,-0.0001894352
0.05100038,-0.0001888221
0.05000038,-0.0001879024
0.04900038,-0.0001872893
0.04800038,-0.0001863697
0.04700038,-0.0001857566
0.04600038,-0.00018545
0.04500038,-0.0001845304
0.04400038,-0.0001839173
0.04300038,-0.0001833042
0.04200038,-0.0001823845
0.04100038,-0.0001817715
0.04000038,-0.0001811584
0.03900038,-0.0001802387
0.03800038,-0.0001796256
0.03700038,-0.000178706
0.03600038,-0.0001780929
0.03500038,-0.0001774798
0.03400038,-0.0001768667
0.03300038,-0.000175947
0.03200038,-0.0001750274
0.03100038,-0.0001744143
0.03000038,-0.0001738012
0.02900038,-0.0001728816
0.02800038,-0.0001722685
0.02700038,-0.0001713488
0.02600038,-0.0001707357
0.02500038,-0.0001701226
0.02400038,-0.0001695095
0.02300038,-0.0001685899
0.02200038,-0.0001679768
0.02100038,-0.0001670571
0.02000038,-0.000166444
0.01900038,-0.0001658309
0.01800038,-0.0001652178
0.01700038,-0.0001642982
0.01600038,-0.0001636851
0.01500038,-0.000163072
0.01400038,-0.0001621524
0.01300038,-0.0001615393
0.01200038,-0.0001609262
0.01100038,-0.0001600065
0.01000038,-0.0001593934
0.009000381,-0.0001587803
0.008000381,-0.0001578607
0.007000382,-0.0001572476
0.006000381,-0.0001563279
0.005000381,-0.0001557148
0.004000382,-0.000158331
0.003000381,-0.0001575033
0.002000381,-0.0001567369
0.001000381,-0.0001559706
3.814697E-07,-0.0001471726
0.0009996186,-0.0001405819
0.001999618,-0.0001364741
0.002999618,-0.0001331327
0.003999618,-0.000129914
0.004999619,-0.0001270937
0.005999619,-0.0001243655
0.006999618,-0.0001218211
0.007999619,-0.000119614
0.008999619,-0.0001173455
0.009999619,-0.0001149544
0.01099962,-0.0001129312
0.01199962,-0.0001109387
0.01299962,-0.0001090381
0.01399962,-0.0001071988
0.01499962,-0.0001051755
0.01599962,-0.0001034589
0.01699962,-0.0001018035
0.01799962,-0.0001001175
0.01899962,-9.849279E-05
0.01999962,-9.668415E-05
0.02099962,-9.515141E-05
0.02199962,-9.367998E-05
0.02299962,-9.22392E-05
0.02399962,-9.082907E-05
0.02499962,-8.929634E-05
0.02599962,-8.785557E-05
0.02699962,-8.666002E-05
0.02799962,-8.509662E-05
0.02899962,-8.380912E-05
0.02999962,-8.249097E-05
0.03099962,-8.11115E-05
0.03199962,-8.003858E-05
0.03299962,-7.887369E-05
0.03399962,-7.752488E-05
0.03499962,-7.639066E-05
0.03599962,-7.50725E-05
0.03699962,-7.406089E-05
0.03799962,-7.298797E-05
0.03899962,-7.166981E-05
0.03999962,-7.059689E-05
0.04099962,-6.973856E-05
0.04199962,-6.857367E-05
0.04299962,-6.765403E-05
0.04399962,-6.636653E-05
0.04499962,-6.538557E-05
0.04599962,-6.449658E-05
0.04699962,-6.345432E-05
0.04799962,-6.262664E-05
0.04899962,-6.152307E-05
0.04999962,-6.051145E-05
0.05099962,-5.965312E-05
0.05199962,-5.879479E-05
0.05299962,-5.799776E-05
0.05399962,-5.704746E-05
0.05499962,-5.588258E-05
0.05599962,-5.520818E-05
0.05699962,-5.447246E-05
0.05799962,-5.358347E-05
0.05899962,-5.290906E-05
0.05999962,-5.174418E-05
0.06099962,-5.09165E-05
0.06199962,-5.039536E-05
0.06299962,-4.956769E-05
0.06399962,-4.870935E-05
0.06499962,-4.794298E-05
0.06599962,-4.708464E-05
0.06699962,-4.659417E-05
0.06799962,-4.58278E-05
0.06899962,-4.493881E-05
0.06999962,-4.414178E-05
0.07099961,-4.343672E-05
0.07199962,-4.285428E-05
0.07299962,-4.233315E-05
0.07399962,-4.147481E-05
0.07499962,-4.076975E-05
0.07599962,-3.988076E-05
0.07699962,-3.939028E-05
0.07799962,-3.889981E-05
0.07899962,-3.804147E-05
0.07999962,-3.736707E-05
0.08099962,-3.669266E-05
0.08199961,-3.586498E-05
0.08299962,-3.543581E-05
0.08399962,-3.466944E-05
0.08499962,-3.417896E-05
0.08599962,-3.365783E-05
0.08699962,-3.273819E-05
0.08799962,-3.203312E-05
0.08899962,-3.138937E-05
0.08999962,-3.080693E-05
0.09099962,-3.031645E-05
0.09199962,-2.961139E-05
0.09299962,-2.902895E-05
0.09399962,-2.83852E-05
0.09499962,-2.755752E-05
0.09599962,-2.691377E-05
0.09699962,-2.636198E-05
0.09799962,-2.562626E-05
0.09899962,-2.528906E-05
0.09999962,-2.446138E-05
0.1009996,-2.400156E-05
0.1019996,-2.317388E-05
0.1029996,-2.228489E-05
0.1039996,-2.191703E-05
0.1049996,-2.136525E-05
0.1059996,-2.066019E-05
0.1069996,-2.029233E-05
0.1079996,-1.937268E-05
0.1089996,-1.866762E-05
0.1099996,-1.817714E-05
0.1109996,-1.731881E-05
0.1119996,-1.673637E-05
0.1129996,-1.624589E-05
0.1139996,-1.554083E-05
0.1149996,-1.492773E-05
0.1159996,-1.40694E-05
0.1169996,-1.342565E-05
0.1179996,-1.299648E-05
0.1189996,-1.213814E-05
0.1199996,-1.161701E-05
0.1209996,-1.097326E-05
0.1219996,-1.005362E-05
0.1229996,-9.563139E-06
0.1239996,-8.160197E-06
0.1249996,-7.798471E-06
0.1259996,-7.3785E-06
0.1269996,-6.30558E-06
0.1279996,-5.625044E-06
0.1289996,-4.932245E-06
0.1299996,-4.159743E-06
0.1309996,-3.748969E-06
0.1319996,-2.700574E-06
0.1329996,-2.07215E-06
0.1339996,-1.419202E-06
0.1349996,-4.014614E-07
0.1359996,2.422898E-07
0.1369996,7.664874E-07
0.1379996,1.680001E-06
0.1389996,2.124496E-06
0.1399996,3.142236E-06
0.1409996,4.05575E-06
0.1419996,4.794531E-06
0.1429996,5.668194E-06
0.1439996,6.269029E-06
0.1449996,6.971024E-06
0.1459996,7.881473E-06
0.1469996,8.479242E-06
0.1479996,9.690107E-06
0.1489996,1.045954E-05
0.1499996,1.117687E-05
0.1509996,1.224978E-05
0.1519996,1.247768E-05
0.1529996,1.315209E-05
0.1539996,1.410239E-05
0.1549996,1.459286E-05
0.1559996,1.57884E-05
0.1569996,1.683067E-05
0.1579996,1.762769E-05
0.1589996,1.873127E-05
0.1599996,1.940567E-05
0.1609996,2.011073E-05
0.1619996,2.127562E-05
0.1629996,2.204199E-05
0.1639996,2.342145E-05
0.1649996,2.424914E-05
0.1659996,2.519943E-05
0.1669996,2.618039E-05
0.1679996,2.713069E-05
0.1689996,2.805033E-05
0.1699996,2.927653E-05
0.1709996,3.016552E-05
0.1719996,3.157564E-05
0.1729996,3.252594E-05
0.1739996,3.341493E-05
0.1749996,3.47944E-05
0.1759996,3.553011E-05
0.1769996,3.67563E-05
0.1779996,3.828905E-05
0.1789996,3.908607E-05
0.1799996,4.049619E-05
0.1809996,4.159976E-05
0.1819996,4.24581E-05
0.1829996,4.429739E-05
0.1839996,4.533965E-05
0.1849996,4.644323E-05
0.1859996,4.791466E-05
0.1869996,4.889561E-05
0.1879996,5.048966E-05
0.1889996,5.205306E-05
0.1899996,5.309533E-05
0.1909996,5.465872E-05
0.1919996,5.597688E-05
0.1929996,5.735634E-05
0.1939996,5.919564E-05
0.1949996,6.02379E-05
0.1959996,6.198522E-05
0.1969996,6.333403E-05
0.1979996,6.480547E-05
0.1989996,6.673672E-05
0.1999996,6.799357E-05
0.2009996,6.952632E-05
0.2019996,7.139625E-05
0.2029996,7.262245E-05
0.2039996,7.492156E-05
0.2049996,7.67302E-05
0.2059996,7.80177E-05
0.2069996,8.001026E-05
0.2079996,8.169628E-05
0.2089996,8.356622E-05
0.2099996,8.558944E-05
0.2109996,8.706087E-05
0.2119996,8.932933E-05
0.2129996,9.122992E-05
0.2139996,9.297725E-05
0.2149996,9.530702E-05
0.2159996,9.717696E-05
0.2169996,9.916953E-05
0.2179996,0.0001014993
0.2189996,0.000103124
0.2199996,0.0001058523
0.2209996,0.0001082433
0.2219996,0.0001101133
0.2229996,0.0001126576
0.2239996,0.0001147115
0.2249996,0.0001167347
0.2259996,0.0001196776
0.2269996,0.0001215475
0.2279996,0.0001246743
0.2289996,0.0001270348
0.2299996,0.000129058
0.2309996,0.0001320622
0.2319996,0.0001344839
0.2329996,0.0001372428
0.2339996,0.000140247
0.2349996,0.0001425768
0.2359996,0.0001457649
0.2369996,0.0001485544
0.2379996,0.0001511601
0.2389996,0.0001545934
0.2399996,0.0001572911
0.2409996,0.0001602646
0.2419996,0.0001637899
0.2429996,0.0001665488
0.2439996,0.00017035
0.2449996,0.0001730783
0.2459996,0.0001761744
0.2469996,0.000179945
0.2479996,0.0001828878
0.2489996,0.0001866584
0.2499996,0.0001905822
0.2509996,0.0001935251
0.2519996,0.0001977554
0.2529996,0.0002013421
0.2539996,0.0002044689
0.2549996,0.0002086686
0.2559996,0.0002126843
0.2569996,0.0002165162
0.2579996,0.0002208079
0.2589996,0.0002241492
0.2599996,0.0002289314
0.2609996,0.0002327939
0.2619996,0.0002368404
0.2629996,0.0002416531
0.2639996,0.0002453317
0.2649996,0.0002499606
0.2659996,0.0002550186
0.2669996,0.000258544
0.2679996,0.0002640618
0.2689996,0.0002684455
0.2699996,0.0002725839
0.2709996,0.0002781937
0.2719996,0.0002824854
0.2729996,0.000290926
0.2739996,0.0002958308
0.2749996,0.000300429
0.2759996,0.0003062534
0.2769996,0.0003108516
0.2779996,0.0003154498
0.2789996,0.0003215808
0.2799996,0.0003264856
0.2809996,0.00033231
0.2819996,0.0003378279
0.2829996,0.0003427326
0.2839996,0.0003491702
0.2849996,0.0003543815
0.2859996,0.0003595928
0.2869996,0.0003666434
0.2879996,0.0003718548
0.2889996,0.0003782923
0.2899996,0.0003847298
0.2909996,0.000389328
0.2919996,0.0003966852
0.2929996,0.0004025096
0.2939996,0.0004089471
0.2949996,0.0004156911
0.2959996,0.000421209
0.2969996,0.0004276465
0.2979996,0.0004346971
0.2989996,0.0004408281
0.2999996,0.0004484918
0.3009996,0.0004546228
0.3019996,0.0004610603
0.3029996,0.0004681109
0.3039996,0.0004742419
0.3049996,0.000481599
0.3059996,0.0004886496
0.3069996,0.0004963133
0.3079996,0.0005033639
0.3089996,0.0005094949
0.3099996,0.000516239
0.3109996,0.0005245158
0.3119996,0.0005297271
0.3129996,0.0005376973
0.3139996,0.0005456676
0.3149996,0.000551492
0.3159996,0.0005600754
0.3169996,0.0005665129
0.3179996,0.0005726438
0.3189996,0.0005815338
0.3199996,0.0005885844
0.3209996,0.0005953284
0.3219996,0.0006029921
0.3229996,0.0006094296
0.3239996,0.0006183196
0.3249996,0.0006244505
0.3259996,0.0006318077
0.3269996,0.0006397779
0.3279996,0.0006462154
0.3289996,0.0006541857
0.3299996,0.0006612363
0.3309996,0.0006670607
0.3319996,0.0006768703
0.3329996,0.0006823881
0.3339996,0.0006894387
0.3349996,0.0006980221
0.3359996,0.0007038465
0.3369996,0.0007115102
0.3379996,0.000719787
0.3389996,0.0007256114
0.3399996,0.0007341948
0.3409996,0.0007406324
0.3419996,0.0007467633
0.3429996,0.0007553466
0.3439996,0.0007614776
0.3449996,0.0007688347
0.3459996,0.000776805
0.3469996,0.0007823228
0.3479996,0.0007905997
0.3489996,0.0007964241
0.3499996,0.0008034747
0.3509996,0.0008108319
0.3519996,0.0008172694
0.3529996,0.00082432
0.3539996,0.000831064
0.3549996,0.0008368884
0.3559996,0.0008460849
0.3569996,0.0008503766
0.3579996,0.0008580403
0.3589996,0.0008663171
0.3599996,0.0008706088
0.3609996,0.000878579
0.3619996,0.0008853231
0.3629996,0.0008890016
0.3639996,0.0008978916
0.3649996,0.0009043291
0.3659996,0.0009092339
0.3669996,0.0009175107
0.3679996,0.0009221089
0.3689996,0.0009285464
0.3699996,0.0009352904
0.3709996,0.0009411149
0.3719996,0.000948472
0.3729996,0.0009530703
0.3739996,0.0009595078
0.3749996,0.0009665584
0.3759996,0.0009705435
0.3769996,0.0009779007
0.3779996,0.0009837251
0.3789996,0.0009883234
0.3799996,0.0009962936
0.3809996,0.0009993591
0.3819996,0.00100549
0.3829996,0.001012847
0.3839996,0.001015606
0.3849996,0.001023576
0.3859996,0.001029401
0.3869996,0.001032466
0.3879996,0.001040436
0.3889996,0.001045035
0.3899996,0.001049633
0.3909996,0.001056683
0.3919996,0.001060056
0.3929996,0.001065573
0.3939996,0.001071704
0.3949996,0.001075076
0.3959996,0.001081514
0.3969996,0.001086419
0.3979996,0.00109163
0.3989996,0.001096535
0.3999996,0.001099907
0.4009996,0.001106038
0.4019996,0.001110023
0.4029996,0.001114315
0.4039996,0.001122285
0.4049996,0.001122898
0.4059996,0.001128416
0.4069996,0.001134547
0.4079996,0.001135466
0.4089996,0.001144969
0.4099996,0.001152327
0.4109996,0.001151713
0.4119996,0.001158458
0.4129996,0.00115999
0.4139996,0.001163362
0.4149996,0.0011698
0.4159996,0.001172559
0.4169996,0.001175931
0.4179996,0.001181142
0.4189996,0.001183595
0.4199996,0.001188806
0.4209996,0.001190952
0.4219996,0.00119555
0.4229996,0.001200148
0.4239996,0.001202294
0.4249996,0.001207505
0.4259996,0.001210571
0.4269996,0.001213023
0.4279996,0.001219767
0.4289996,0.001220687
0.4299996,0.001224672
0.4309996,0.001229577
0.4319996,0.001229883
0.4329996,0.001236321
0.4339996,0.001240306
0.4349996,0.001239999
0.4359996,0.001246743
0.4369996,0.001248889
0.4379996,0.001251648
0.4389996,0.001258086
0.4399996,0.001258392
0.4409996,0.001263297
0.4419996,0.001268202
0.4429996,0.001270654
0.4439996,0.001274639
0.4449996,0.001277398
0.4459996,0.00128077
0.4469996,0.001284755
0.4479996,0.001288741
0.4489996,0.001293952
0.4499996,0.001296404
0.4509996,0.001300083
0.4519996,0.001307133
0.4529996,0.00130744
0.4539996,0.001313878
0.4549996,0.001320008
0.4559996,0.001320928
0.4569996,0.001328898
0.4579996,0.00133411
0.4589996,0.001336562
0.4599996,0.001346372
0.4609996,0.001352503
0.4619996,0.001357101
0.4629996,0.001365991
0.4639996,0.001371202
0.4649996,0.001380092
0.4659996,0.001388982
0.4669996,0.001396646
0.4679996,0.001408907
0.4689996,0.001417184
0.4699996,0.00142914
0.4709996,0.001442321
0.4719996,0.001453664
0.4729996,0.00147175
0.4739996,0.00148769
0.4749996,0.001503018
0.4759996,0.001526009
0.4769996,0.001543482
0.4779996,0.001566473
0.4789996,0.001594369
0.4799996,0.001618893
0.4809996,0.001651081
0.4819996,0.001684188
0.4829996,0.001716375
0.4839996,0.001759599
0.4849996,0.001800063
0.4859996,0.001845126
0.4869996,0.001899078
0.4879996,0.001952418
0.4889996,0.002013421
0.4899996,0.002079635
0.4909996,0.002148608
0.4919996,0.002227698
0.4929996,0.002309853
0.4939996,0.002398752
0.4949996,0.002495928
0.4959996,0.002595863
0.4969996,0.002709285
0.4979996,0.002825467
0.4989996,0.002951152
0.4999996,0.003117712
0.5009996,0.003252594
0.5019996,0.003399737
0.5029996,0.003559142
0.5039996,0.003721613
0.5049996,0.003896345
0.5059996,0.004080274
0.5069996,0.004270334
0.5079996,0.004472656
0.5089996,0.004678043
0.5099996,0.004889561
0.5109996,0.005113342
0.5119996,0.005349384
0.5129996,0.005585426
0.5139996,0.005830665
0.5149996,0.006082034
0.5159996,0.0063426
0.5169996,0.006603166
0.5179996,0.00687906
0.5189996,0.007154953
0.5199996,0.007436977
0.5209996,0.007731264
0.5219996,0.008022484
0.5229996,0.008319836
0.5239996,0.00862945
0.5249996,0.008939064
0.5259996,0.009254809
0.5269996,0.009576684
0.5279996,0.009895494
0.5289996,0.01022657
0.5299996,0.01055764
0.5309996,0.01088871
0.5319996,0.01123511
0.5329996,0.01157231
0.5339996,0.01191871
0.5349996,0.01227431
0.5359996,0.01262377
0.5369996,0.0129763
0.5379996,0.0133411
0.5389996,0.01369976
0.5399996,0.01406455
0.5409996,0.01443547
0.5419996,0.01480333
0.5429996,0.01517425
0.5439996,0.01555131
0.5449996,0.01592836
0.5459996,0.01630235
0.5469996,0.0166886
0.5479996,0.01707485
0.5489996,0.01745191
0.5499996,0.01784429
0.5509996,0.01823667
0.5519996,0.01861679
0.5529996,0.01902143
0.5539996,0.01941382
0.5549996,0.01980313
0.5559996,0.02021391
0.5569996,0.02060936
0.5579996,0.0210048
0.5589996,0.02141558
0.5599996,0.02181716
0.5609996,0.02221567
0.5619996,0.02262951
0.5629996,0.02303415
0.5639996,0.0234388
0.5649996,0.0238557
0.5659996,0.02426648
0.5669996,0.02467419
0.5679996,0.02509416
0.5689996,0.02551106
0.5699996,0.02592184
0.5709996,0.02634487
0.5719996,0.02676485
0.5729996,0.02717562
0.5739996,0.02759866
0.5749996,0.02801863
0.5759996,0.02843553
0.5769996,0.02886777
0.5779996,0.02928774
0.5789996,0.02971077
0.5799996,0.03014607
0.5809996,0.03129975
0.5819996,0.03172891
0.5829996,0.03215808
0.5839996,0.03258725
0.5849996,0.03301642
0.5859996,0.03344558
0.5869996,0.03387475
0.5879996,0.03433457
0.5889996,0.03476374
0.5899996,0.03519291
0.5909996,0.03562208
0.5919996,0.0360819
0.5929996,0.03651107
0.5939996,0.03697089
0.5949996,0.03740006
0.5959996,0.03785988
0.5969996,0.03828905
0.5979996,0.03874887
0.5989996,0.03917804
0.5999996,0.03963786
0.6009996,0.04009768
0.6019996,0.04052685
0.6029996,0.04095602
0.6039996,0.04141584
0.6049996,0.04187566
0.6059996,0.04230483
0.6069996,0.04276465
0.6079996,0.04322447
0.6089996,0.04365364
0.6099996,0.04411346
0.6109996,0.04457328
0.6119996,0.04500245
0.6129996,0.04546228
0.6139996,0.0459221
0.6149996,0.04638192
0.6159996,0.04684174
0.6169996,0.04730156
0.6179996,0.04773073
0.6189996,0.04819056
0.6199996,0.04865038
0.6209996,0.04907954
0.6219996,0.04957002
0.6229996,0.04999919
0.6239996,0.05045901
0.6249996,0.05091884
0.6259996,0.05137866
0.6269996,0.05183848
0.6279996,0.0522983
0.6289996,0.05275812
0.6299996,0.05321795
0.6309996,0.05367777
0.6319996,0.05413759
0.6329996,0.05459742
0.6339996,0.05508789
0.6349996,0.05551706
0.6359996,0.05597688
0.6369996,0.05646735
0.6379996,0.05692718
0.6389996,0.057387
0.6399996,0.05784683
0.6409996,0.05830665
0.6419996,0.05876647
0.6429996,0.05922629
0.6439996,0.05971677
0.6449996,0.06014594
0.6459996,0.06063641
0.6469996,0.06109623
0.6479996,0.06155606
0.6489996,0.06204654
0.6499996,0.06250636
0.6509996,0.06296618
0.6519996,0.063426
0.6529996,0.06391648
0.6539996,0.06434565
0.6549996,0.06480547
0.6559996,0.06529595
0.6569996,0.06575577
0.6579996,0.0662156
0.6589996,0.06670607
0.6599996,0.06713524
0.6609996,0.06762572
0.6619996,0.06808554
0.6629996,0.06854536
0.6639996,0.06903584
0.6649996,0.06949566
0.6659996,0.06998613
0.6669996,0.07047661
0.6679996,0.07090578
0.6689996,0.07139625
0.6699996,0.07188674
0.6709996,0.07234656
0.6719996,0.07280638
0.6729996,0.07329686
0.6739996,0.07375668
0.6749996,0.07421651
0.6759996,0.07470698
0.6769996,0.07516681
0.6779996,0.07562663
0.6789996,0.0761171
0.6799996,0.07657693
0.6809996,0.07703675
0.6819996,0.07755788
0.6829996,0.07798705
0.6839996,0.07847752
0.6849996,0.078968
0.6859996,0.07942782
0.6869996,0.07988765
0.6879996,0.08037812
0.6889996,0.08083794
0.6899996,0.08129777
0.6909996,0.08178824
0.6919996,0.08224807
0.6929996,0.08270789
0.6939996,0.08319836
0.6949996,0.08365819
0.6959996,0.08414867
0.6969996,0.08463915
0.6979996,0.08506831
0.6989996,0.08558945
0.6999996,0.08571207
0.6990005,0.08525224
0.6980005,0.08476176
0.6970005,0.08430194
0.6960005,0.08381146
0.6950005,0.0833823
0.6940005,0.08292247
0.6930005,0.08240134
0.6920004,0.08197217
0.6910005,0.08151235
0.6900005,0.08102188
0.6890005,0.08059271
0.6880005,0.08013289
0.6870005,0.07964241
0.6860005,0.07918259
0.6850005,0.07872277
0.6840005,0.07823228
0.6830005,0.07780312
0.6820005,0.07731264
0.6810005,0.07685282
0.6800005,0.076393
0.6790005,0.07590251
0.6780005,0.07544269
0.6770005,0.07501353
0.6760005,0.07455371
0.6750005,0.07406323
0.6740005,0.07360341
0.6730005,0.07317424
0.6720005,0.07268376
0.6710005,0.07222394
0.6700005,0.07176412
0.6690005,0.07130429
0.6680005,0.07084447
0.6670005,0.07038464
0.6660005,0.06989417
0.6650005,0.06943435
0.6640005,0.06897452
0.6630005,0.0685147
0.6620005,0.06805488
0.6610005,0.06759506
0.6600005,0.06713524
0.6590005,0.06667542
0.6580005,0.0662156
0.6570005,0.06575577
0.6560005,0.06529595
0.6550004,0.06483613
0.6540005,0.0643763
0.6530005,0.06391648
0.6520005,0.06345665
0.6510005,0.06302749
0.6500005,0.06256767
0.6490005,0.06210784
0.6480005,0.06164802
0.6470005,0.0611882
0.6460005,0.06072838
0.6450005,0.06026856
0.6440005,0.05980873
0.6430005,0.05937957
0.6420005,0.05891975
0.6410004,0.05845992
0.6400005,0.0580001
0.6390005,0.05754028
0.6380005,0.05708046
0.6370005,0.05665129
0.6360005,0.05619146
0.6350005,0.05573164
0.6340005,0.05530247
0.6330005,0.05484265
0.6320005,0.05438283
0.6310005,0.05395366
0.6300005,0.05349384
0.6290005,0.05303402
0.6280005,0.05257419
0.6270005,0.05211437
0.6260005,0.0516852
0.6250005,0.05122538
0.6240005,0.05079622
0.6230005,0.05033639
0.6220005,0.04990723
0.6210005,0.0494474
0.6200005,0.04901823
0.6190005,0.04855841
0.6180004,0.04812925
0.6170005,0.04766942
0.6160005,0.04724025
0.6150005,0.04678043
0.6140005,0.04635127
0.6130005,0.04589145
0.6120005,0.04543162
0.6110005,0.04500245
0.6100005,0.04457328
0.6090005,0.04411346
0.6080005,0.0436843
0.6070005,0.04325513
0.6060005,0.04282596
0.6050005,0.0423968
0.6040004,0.04193697
0.6030005,0.0415078
0.6020005,0.04107863
0.6010005,0.04061881
0.6000005,0.04018965
0.5990005,0.03976048
0.5980005,0.03933131
0.5970005,0.03890214
0.5960005,0.03847298
0.5950005,0.03801315
0.5940005,0.03758398
0.5930005,0.03715482
0.5920005,0.03672565
0.5910005,0.03629648
0.5900005,0.03589797
0.5890005,0.0354688
0.5880005,0.03500898
0.5870005,0.03461047
0.5860005,0.0341813
0.5850005,0.03375213
0.5840005,0.03335362
0.5830005,0.03292445
0.5820005,0.03249529
0.5810004,0.03206612
0.5800005,0.03163695
0.5790005,0.03123844
0.5780005,0.03080927
0.5770005,0.0303801
0.5760005,0.02995093
0.5750005,0.02955242
0.5740005,0.02912325
0.5730005,0.02872474
0.5720005,0.02832623
0.5710005,0.02789706
0.5700005,0.02749855
0.5690005,0.02710003
0.5680005,0.02667087
0.5670004,0.02627235
0.5660005,0.02587384
0.5650005,0.02544468
0.5640005,0.02504616
0.5630005,0.02464765
0.5620005,0.02424913
0.5610005,0.02385062
0.5600005,0.02345211
0.5590005,0.0230536
0.5580005,0.02265508
0.5570005,0.02225657
0.5560005,0.02185806
0.5550005,0.02145955
0.5540005,0.02109169
0.5530005,0.02069318
0.5520005,0.02032532
0.5510005,0.01992681
0.5500005,0.01955895
0.5490005,0.01916043
0.5480005,0.01879258
0.5470005,0.01842472
0.5460005,0.01805686
0.5450005,0.017689
0.5440005,0.01732115
0.5430005,0.01692263
0.5420005,0.01658543
0.5410005,0.01621757
0.5400005,0.01584971
0.5390005,0.01548185
0.5380005,0.015114
0.5370005,0.01477679
0.5360005,0.01440894
0.5350005,0.01404108
0.5340005,0.01370388
0.5330005,0.01336667
0.5320005,0.01254101
0.5310005,0.0122038
0.5300004,0.01186966
0.5290005,0.01153553
0.5280005,0.01121059
0.5270005,0.01088258
0.5260005,0.0105607
0.5250005,0.01024189
0.5240005,0.009926149
0.5230005,0.009616536
0.5220005,0.009303857
0.5210005,0.009000373
0.5200005,0.00869689
0.5190005,0.008396474
0.5180005,0.008105253
0.5170005,0.007814032
0.5160004,0.007525877
0.5150005,0.007246917
0.5140005,0.006964893
0.5130005,0.006688999
0.5120005,0.006419237
0.5110005,0.006149475
0.5100005,0.005891975
0.5090005,0.005637539
0.5080005,0.005383104
0.5070005,0.005140931
0.5060005,0.004898758
0.5050005,0.00465965
0.5040005,0.004429739
0.5030005,0.004199828
0.5020005,0.003982178
0.5010005,0.003767595
0.5000005,0.003556076
0.4990005,0.003353755
0.4980005,0.003154498
0.4970005,0.002961373
0.4960005,0.002774378
0.4950005,0.002590449
0.4940005,0.002418783
0.4930005,0.002247115
0.4920005,0.002081579
0.4910005,0.001928305
0.4900005,0.001775031
0.4890005,0.001627888
0.4880005,0.001489941
0.4870005,0.001351995
0.4860005,0.00122631
0.4850005,0.001074463
0.4840005,0.0009555226
0.4830005,0.0008454719
0.4820005,0.0007378734
0.4810005,0.0006364059
0.4800005,0.0005416825
0.4790005,0.0004475722
0.4780005,0.0003617386
0.4770005,0.0002808099
0.4760005,0.000202027
0.4750005,0.0001309078
0.4740005,6.101478E-05
0.4730005,-9.19528E-06
0.4720005,-6.520165E-05
0.4710005,-0.0001240896
0.4700005,-0.0001755897
0.4690005,-0.0002252811
0.4680005,-0.0002726735
0.4670005,-0.0003135872
0.4660005,-0.0003540516
0.4650005,-0.0003911439
0.4640005,-0.0004227184
0.4630005,-0.000458278
0.4620005,-0.000486787
0.4610005,-0.0005162156
0.4600005,-0.0005444181
0.4590005,-0.0005643437
0.4580005,-0.0005873349
0.4570005,-0.000610326
0.4560005,-0.0006253468
0.4550005,-0.000645579
0.4540005,-0.0006621326
0.4530005,-0.0006753142
0.4520005,-0.0006912547
0.4510005,-0.0007022904
0.4500005,-0.0007148589
0.4490005,-0.0007262012
0.4480005,-0.0007369304
0.4470005,-0.0007479661
0.4460005,-0.0007537905
0.4450005,-0.000762987
0.4440005,-0.0007718769
0.4430005,-0.0007755554
0.4420005,-0.0007847519
0.4410005,-0.0007911894
0.4400005,-0.0007936418
0.4390005,-0.0008025317
0.4380005,-0.0008052906
0.4370005,-0.0008089693
0.4360005,-0.0008157133
0.4350005,-0.0008166329
0.4340005,-0.0008212312
0.4330005,-0.0008252163
0.4320005,-0.0008270555
0.4310005,-0.0008325735
0.4300005,-0.0008344128
0.4290005,-0.0008371716
0.4280005,-0.0008414634
0.4270005,-0.0008414634
0.4260005,-0.0008448354
0.4250005,-0.0008472878
0.4240005,-0.0008479009
0.4230005,-0.000852499
0.4220005,-0.0008540318
0.4210005,-0.0008555645
0.4200005,-0.0008583235
0.4190005,-0.0008574039
0.4180005,-0.0008607759
0.4170005,-0.0008623086
0.4160005,-0.0008629217
0.4150005,-0.0008672134
0.4140005,-0.0008672134
0.4130005,-0.000868133
0.4120005,-0.0008727313
0.4110005,-0.000870892
0.4100005,-0.0008773295
0.4090005,-0.0008822342
0.4080005,-0.0008776361
0.4070005,-0.000880395
0.4060005,-0.000881008
0.4050005,-0.000881008
0.4040005,-0.000883767
0.4030005,-0.0008840736
0.4020005,-0.0008852997
0.4010005,-0.0008868325
0.4000005,-0.000887139
0.3990005,-0.0008902045
0.3980005,-0.0008892849
0.3970005,-0.0008923503
0.3960005,-0.0008957224
0.3950005,-0.0008938831
0.3940005,-0.0008960289
0.3930005,-0.0008975617
0.3920005,-0.0008963355
0.3910005,-0.0009009338
0.3900005,-0.0009006272
0.3890005,-0.0009000141
0.3880005,-0.0009039992
0.3870005,-0.0009033861
0.3860005,-0.0009052254
0.3850005,-0.0009067581
0.3840005,-0.0009055319
0.3830005,-0.0009092105
0.3820005,-0.0009092105
0.3810005,-0.0009092105
0.3800005,-0.0009110498
0.3790005,-0.0009119695
0.3780005,-0.0009128891
0.3770005,-0.0009141153
0.3760005,-0.0009128891
0.3750005,-0.0009162611
0.3740005,-0.000915648
0.3730005,-0.0009162611
0.3720005,-0.0009184069
0.3710005,-0.0009187135
0.3700005,-0.00091902
0.3690005,-0.0009199397
0.3680005,-0.0009184069
0.3670005,-0.0009214724
0.3660005,-0.0009205528
0.3650005,-0.0009208593
0.3640005,-0.0009226986
0.3630005,-0.0009208593
0.3620005,-0.0009214724
0.3610005,-0.0009226986
0.3600005,-0.0009211659
0.3590005,-0.0009230052
0.3580005,-0.0009233117
0.3570005,-0.0009214724
0.3560005,-0.0009223921
0.3550005,-0.0009205528
0.3540005,-0.0009211659
0.3530005,-0.0009205528
0.3520005,-0.0009199397
0.3510005,-0.0009208593
0.3500005,-0.0009184069
0.3490005,-0.0009177938
0.3480005,-0.0009187135
0.3470005,-0.0009153415
0.3460005,-0.0009168742
0.3450005,-0.0009165677
0.3440005,-0.0009125826
0.3430005,-0.0009141153
0.3420005,-0.0009113564
0.3410005,-0.000908904
0.3400005,-0.0009104367
0.3390005,-0.0009076777
0.3380005,-0.000906145
0.3370005,-0.0009052254
0.3360005,-0.0009009338
0.3350005,-0.0009015468
0.3340005,-0.0008997075
0.3330005,-0.0008960289
0.3320005,-0.0008957224
0.3310005,-0.0008923503
0.3300005,-0.0008908176
0.3290005,-0.0008895915
0.3280005,-0.0008856063
0.3270005,-0.0008846867
0.3260005,-0.0008822342
0.3250005,-0.0008788622
0.3240005,-0.0008773295
0.3230005,-0.0008739574
0.3220005,-0.0008718116
0.3210005,-0.0008684396
0.3200005,-0.0008659872
0.3190005,-0.000864761
0.3180005,-0.0008604693
0.3170005,-0.0008564842
0.3160005,-0.0008549515
0.3150005,-0.0008500467
0.3140005,-0.000848514
0.3130005,-0.000845755
0.3120005,-0.0008402371
0.3110005,-0.0008387044
0.3100005,-0.0008347193
0.3090005,-0.0008307341
0.3080005,-0.0008282817
0.3070005,-0.0008264424
0.3060005,-0.0008212312
0.3050005,-0.0008178591
0.3040005,-0.0008126478
0.3030005,-0.0008101954
0.3020005,-0.0008062103
0.3010005,-0.0008022251
0.3000005,-0.0007985466
0.2990005,-0.0007936418
0.2980005,-0.0007905763
0.2970005,-0.0007868978
0.2960005,-0.0007807668
0.2950005,-0.0007783144
0.2940005,-0.0007743293
0.2930005,-0.0007694245
0.2920005,-0.0007666656
0.2910005,-0.0007611477
0.2900005,-0.0007571626
0.2890005,-0.0007537905
0.2880005,-0.0007476595
0.2870005,-0.0007452072
0.2860005,-0.0007409155
0.2850005,-0.0007357041
0.2840005,-0.0007323321
0.2830005,-0.0007271208
0.2820005,-0.0007225226
0.2810005,-0.0007191506
0.2800005,-0.0007127131
0.2790005,-0.0007096475
0.2780005,-0.0007047429
0.2770005,-0.000699838
0.2760005,-0.0006967725
0.2750005,-0.0006915613
0.2740005,-0.000686963
0.2730005,-0.0006826713
0.2720005,-0.00067746
0.2710005,-0.000674088
0.2700005,-0.0006688767
0.2690005,-0.000664585
0.2680005,-0.0006615195
0.2670005,-0.0006553886
0.2660005,-0.0006510969
0.2650005,-0.0006474183
0.2640005,-0.0006415938
0.2630005,-0.0006382219
0.2620005,-0.0006336236
0.2610005,-0.0006281057
0.2600005,-0.0006250403
0.2590005,-0.0006201355
0.2580005,-0.0006152307
0.2570005,-0.0006115522
0.2560005,-0.0006066473
0.2550005,-0.0006023557
0.2540005,-0.0005983706
0.2530005,-0.0005934658
0.2520005,-0.0005900938
0.2510005,-0.000585189
0.2500005,-0.0005808973
0.2490005,-0.0005769122
0.2480005,-0.0005717009
0.2470005,-0.0005683288
0.2460005,-0.0005640372
0.2450005,-0.0005594389
0.2440005,-0.0005560669
0.2430005,-0.0005517752
0.2420005,-0.0005474835
0.2410005,-0.0005434984
0.2400005,-0.0005385936
0.2390005,-0.0005355282
0.2380005,-0.000531543
0.2370005,-0.0005272513
0.2360005,-0.0005241859
0.2350005,-0.0005198942
0.2340005,-0.0005156025
0.2330005,-0.000512537
0.2320005,-0.0005079389
0.2310005,-0.0005045668
0.2300005,-0.0005011947
0.2290005,-0.0004969031
0.2280005,-0.0004938376
0.2270005,-0.000490159
0.2260005,-0.0004861739
0.2250005,-0.0004831084
0.2240005,-0.0004794298
0.2230005,-0.0004763643
0.2220005,-0.0004726858
0.2210005,-0.0004690072
0.2200005,-0.0004662482
0.2190005,-0.0004628762
0.2180005,-0.0004595042
0.2170005,-0.0004567453
0.2160005,-0.0004524536
0.2150005,-0.0004503077
0.2140005,-0.0004472423
0.2130005,-0.0004432572
0.2120005,-0.0004414178
0.2110005,-0.0004383524
0.2100005,-0.0004349803
0.2090005,-0.0004325279
0.2080005,-0.0004288494
0.2070005,-0.0004260904
0.2060005,-0.0004239446
0.2050005,-0.0004214922
0.2040005,-0.0004187333
0.2030005,-0.0004156678
0.2020005,-0.0004126023
0.2010005,-0.0004104565
0.2000005,-0.0004070844
0.1990005,-0.0004049386
0.1980005,-0.0004024862
0.1970005,-0.0003997273
0.1960005,-0.0003975815
0.1950005,-0.0003951291
0.1940005,-0.0003926767
0.1930005,-0.0003905308
0.1920005,-0.0003877719
0.1910005,-0.0003859326
0.1900005,-0.0003834802
0.1890005,-0.0003810278
0.1880005,-0.0003791885
0.1870005,-0.0003770427
0.1860005,-0.0003742838
0.1850005,-0.000372751
0.1840005,-0.0003699921
0.1830005,-0.0003684594
0.1820005,-0.0003666201
0.1810005,-0.0003644742
0.1800005,-0.0003626349
0.1790005,-0.0003604891
0.1780005,-0.0003586498
0.1770005,-0.0003568105
0.1760005,-0.0003549712
0.1750005,-0.0003531319
0.1740005,-0.0003512927
0.1730005,-0.0003494534
0.1720005,-0.0003479206
0.1710005,-0.0003460813
0.1700005,-0.0003445486
0.1690005,-0.0003430158
0.1680005,-0.00034087
0.1670005,-0.0003393373
0.1660005,-0.0003381111
0.1650005,-0.0003362718
0.1640005,-0.0003350456
0.1630005,-0.0003332063
0.1620005,-0.000331367
0.1610005,-0.0003304474
0.1600005,-0.0003289146
0.1590005,-0.0003273819
0.1580005,-0.0003261557
0.1570005,-0.0003243164
0.1560005,-0.0003233968
0.1550005,-0.0003221706
0.1540005,-0.0003206378
0.1530005,-0.0003191051
0.1520005,-0.0003172658
0.1510005,-0.0003163462
0.1500005,-0.0003154265
0.1490005,-0.0003135872
0.1480005,-0.0003129741
0.1470005,-0.0003114414
0.1460005,-0.0003099086
0.1450005,-0.0003092955
0.1440005,-0.0003077628
0.1430005,-0.0003068431
0.1420005,-0.000305617
0.1410005,-0.0003040842
0.1400005,-0.0003031646
0.1390005,-0.0003022449
0.1380005,-0.0003010187
0.1370005,-0.0003000991
0.1360005,-0.0002985664
0.1350005,-0.0002976467
0.1340005,-0.0002967271
0.1330005,-0.0002958074
0.1320005,-0.0002948878
0.1310005,-0.0002936616
0.1300005,-0.0002924354
0.1290005,-0.0002918223
0.1280005,-0.0002902895
0.1270005,-0.0002893699
0.1260005,-0.0002887568
0.1250005,-0.0002875306
0.1240005,-0.000286611
0.1230005,-0.0002856913
0.1220005,-0.0002844651
0.1210005,-0.000283852
0.1200005,-0.0002826258
0.1190005,-0.0002820127
0.1180005,-0.0002807866
0.1170005,-0.0002795603
0.1160005,-0.0002789472
0.1150005,-0.0002783342
0.1140005,-0.0002768014
0.1130005,-0.0002764949
0.1120005,-0.0002752687
0.1110005,-0.0002740425
0.1100005,-0.0002734294
0.1090005,-0.0002722032
0.1080005,-0.0002715901
0.1070005,-0.0002706705
0.1060005,-0.0002697508
0.1050005,-0.0002688312
0.1040005,-0.0002676049
0.1030005,-0.0002669919
0.1020005,-0.0002660722
0.1010005,-0.0002648461
0.1000005,-0.0002645395
0.09900048,-0.0002633133
0.09800047,-0.0002623936
0.09700048,-0.000261474
0.09600048,-0.0002602478
0.09500048,-0.0002596347
0.09400047,-0.0002587151
0.09300048,-0.0002574889
0.09200048,-0.0002568758
0.09100047,-0.0002559561
0.09000048,-0.0002547299
0.08900048,-0.0002541168
0.08800048,-0.0002528907
0.08700047,-0.0002522776
0.08600048,-0.0002516645
0.08500048,-0.0002504383
0.08400048,-0.0002495186
0.08300047,-0.0002489055
0.08200048,-0.0002476793
0.08100048,-0.0002467597
0.08000048,-0.00024584
0.07900048,-0.000245227
0.07800048,-0.0002443073
0.07700048,-0.0002430811
0.07600047,-0.000242468
0.07500048,-0.0002415484
0.07400048,-0.0002406287
0.07300048,-0.0002400156
0.07200047,-0.0002387894
0.07100048,-0.0002381763
0.07000048,-0.0002375632
0.06900048,-0.000236337
0.06800048,-0.000235724
0.06700048,-0.0002348043
0.06600048,-0.0002338847
0.06500047,-0.0002335781
0.06400048,-0.0002326585
0.06300048,-0.0002317388
0.06200048,-0.0002311257
0.06100048,-0.0002298995
0.06000048,-0.0002292864
0.05900048,-0.0002283668
0.05800048,-0.0002274471
0.05700048,-0.0002268341
0.05600048,-0.0002259144
0.05500048,-0.0002253013
0.05400048,-0.0002243817
0.05300048,-0.000223462
0.05200048,-0.0002228489
0.05100048,-0.0002219293
0.05000048,-0.0002207031
0.04900048,-0.00022009
0.04800048,-0.0002191703
0.04700048,-0.0002182507
0.04600048,-0.0002176376
0.04500048,-0.0002164114
0.04400048,-0.0002157983
0.04300048,-0.0002148787
0.04200048,-0.000213959
0.04100048,-0.0002130394
0.04000048,-0.0002121197
0.03900048,-0.0002112001
0.03800048,-0.0002102804
0.03700048,-0.0002090542
0.03600048,-0.0002084412
0.03500048,-0.0002075215
0.03400048,-0.0002062953
0.03300048,-0.0002053757
0.03200048,-0.000204456
0.03100048,-0.0002035364
0.03000048,-0.0002026167
0.02900048,-0.0002013905
0.02800048,-0.0002004709
0.02700048,-0.0001995512
0.02600048,-0.0001983251
0.02500048,-0.0001974054
0.02400048,-0.0001961792
0.02300048,-0.0001955661
0.02200048,-0.0001943399
0.02100048,-0.0001934203
0.02000048,-0.0001925007
0.01900048,-0.000191581
0.01800048,-0.0001903548
0.01700048,-0.0001894352
0.01600048,-0.000188209
0.01500048,-0.0001872893
0.01400048,-0.0001863697
0.01300048,-0.00018545
0.01200048,-0.0001845304
0.01100048,-0.0001833042
0.01000048,-0.000182078
0.009000476,-0.0001811584
0.008000477,-0.0001799322
0.007000477,-0.0001790125
0.006000477,-0.0001780929
0.005000477,-0.0001768667
0.004000477,-0.0001756405
0.003000477,-0.0001744143
0.002000477,-0.0001734946
0.001000477,-0.000172575
