EXPID. 1281
[电化学]: CV : 0 >> 0.7 >> 0 >> 0(V) @ 0.01(V/s) X 10(Seg)
起始电位 (V),0
上限电位 (V),0.7
下限电位 (V),0
终止电位 (V),0
扫速 (V/s),0.01
电解液 信息:
KOH,1
0.001,1.326752E-05
0.002,1.456422E-05
0.003,1.54808E-05
0.004,1.636979E-05
0.005,1.719441E-05
0.006,1.796997E-05
0.007,1.885897E-05
0.008,1.962533E-05
0.009,2.039477E-05
0.01,2.109064E-05
0.011,2.174971E-05
0.012,2.254981E-05
0.013,2.357473E-05
0.014,2.418782E-05
0.015,2.492354E-05
0.016,2.568991E-05
0.017,2.639497E-05
0.018,2.728396E-05
0.019,2.801968E-05
0.02,2.884736E-05
0.021,2.958307E-05
0.022,3.025748E-05
0.023,3.111581E-05
0.024,3.188219E-05
0.025,3.270986E-05
0.026,3.359886E-05
0.027,3.442654E-05
0.028,3.537684E-05
0.029,3.623517E-05
0.03,3.694023E-05
0.031,3.801315E-05
0.032,3.881018E-05
0.033,3.969917E-05
0.034,4.077208E-05
0.035,4.169173E-05
0.036,4.27953E-05
0.037,4.380691E-05
0.038,4.478787E-05
0.039,4.59221E-05
0.04,4.68724E-05
0.041,4.791466E-05
0.042,4.901823E-05
0.043,5.012181E-05
0.044,5.137865E-05
0.045,5.254354E-05
0.046,5.370842E-05
0.047,5.51492E-05
0.048,5.631408E-05
0.049,5.760158E-05
0.05,5.89504E-05
0.051,6.020725E-05
0.052,6.170933E-05
0.053,6.302749E-05
0.054,6.43763E-05
0.055,6.59397E-05
0.056,6.731917E-05
0.057,6.885191E-05
0.058,7.04153E-05
0.059,7.191739E-05
0.06,7.366471E-05
0.061,7.535073E-05
0.062,7.694478E-05
0.063,7.878407E-05
0.064,8.065401E-05
0.065,8.243199E-05
0.066,8.445521E-05
0.067,8.644777E-05
0.068,8.85323E-05
0.069,9.07701E-05
0.07,9.300791E-05
0.071,9.539899E-05
0.072,9.77594E-05
0.073,0.0001002731
0.074,0.0001030014
0.075,0.000105607
0.076,0.0001085805
0.077,0.0001114315
0.078,0.0001143743
0.079,0.0001177157
0.08,0.0001208425
0.081,0.0001242145
0.082,0.0001278931
0.083,0.0001314491
0.084,0.0001354035
0.085,0.000139266
0.086,0.0001432512
0.087,0.0001475428
0.088,0.0001518652
0.089,0.0001564021
0.09,0.0001611229
0.091,0.0001658131
0.092,0.0001709325
0.093,0.0001760825
0.094,0.0001812325
0.095,0.000186781
0.096,0.0001923908
0.097,0.0001982153
0.098,0.0002041316
0.099,0.0002101706
0.1,0.0002167308
0.101,0.0002231683
0.102,0.0002300656
0.103,0.0002369936
0.104,0.0002440136
0.105,0.0002513707
0.106,0.0002589731
0.107,0.0002665755
0.108,0.0002747297
0.109,0.0002828839
0.11,0.0002912833
0.111,0.000303801
0.112,0.0003123844
0.113,0.0003215808
0.114,0.0003310838
0.115,0.0003408933
0.116,0.0003507029
0.117,0.0003611255
0.118,0.0003715482
0.119,0.0003822774
0.12,0.0003933131
0.121,0.0004049619
0.122,0.0004166108
0.123,0.0004285662
0.124,0.0004411346
0.125,0.0004533966
0.126,0.0004662716
0.127,0.0004797597
0.128,0.0004929413
0.129,0.0005067359
0.13,0.0005208372
0.131,0.0005349384
0.132,0.0005499593
0.133,0.0005646736
0.134,0.0005796945
0.135,0.000595635
0.136,0.0006112689
0.137,0.0006272094
0.138,0.0006434565
0.139,0.0006597036
0.14,0.0006765637
0.141,0.0006931173
0.142,0.000710284
0.143,0.0007277572
0.144,0.000744924
0.145,0.0007623972
0.146,0.000780177
0.147,0.0007979569
0.148,0.0008163497
0.149,0.0008341296
0.15,0.0008525224
0.151,0.0008712219
0.152,0.0008893082
0.153,0.0009080077
0.154,0.0009270137
0.155,0.0009454066
0.156,0.0009647191
0.157,0.0009834185
0.158,0.001002425
0.159,0.001022044
0.16,0.001041356
0.161,0.001060975
0.162,0.001080901
0.163,0.00110052
0.164,0.001121365
0.165,0.001141291
0.166,0.001162136
0.167,0.001183595
0.168,0.001204746
0.169,0.001226511
0.17,0.001248889
0.171,0.001270961
0.172,0.001294565
0.173,0.001317556
0.174,0.001341467
0.175,0.001366604
0.176,0.001391128
0.177,0.001416878
0.178,0.001443241
0.179,0.001468991
0.18,0.001497807
0.181,0.001525396
0.182,0.001554211
0.183,0.001583947
0.184,0.001613375
0.185,0.00164495
0.186,0.001676831
0.187,0.001708712
0.188,0.001742739
0.189,0.001775846
0.19,0.001810486
0.191,0.001846658
0.192,0.001882831
0.193,0.001919923
0.194,0.001959162
0.195,0.001996867
0.196,0.002037638
0.197,0.002077796
0.198,0.002118567
0.199,0.002162403
0.2,0.002205013
0.201,0.002249156
0.202,0.002294832
0.203,0.002339895
0.204,0.002388023
0.205,0.00243707
0.206,0.002485505
0.207,0.002536699
0.208,0.002586666
0.209,0.002639392
0.21,0.002693345
0.211,0.002746378
0.212,0.002803396
0.213,0.002859188
0.214,0.002916205
0.215,0.002976596
0.216,0.003068665
0.217,0.003126909
0.218,0.003188219
0.219,0.003252594
0.22,0.003316969
0.221,0.003384409
0.222,0.003448785
0.223,0.003516225
0.224,0.003586731
0.225,0.003657237
0.226,0.003730809
0.227,0.003801315
0.228,0.003877952
0.229,0.003951524
0.23,0.004028161
0.231,0.004107863
0.232,0.0041845
0.233,0.004267268
0.234,0.004350036
0.235,0.004429739
0.236,0.004515572
0.237,0.004601406
0.238,0.004687239
0.239,0.004773073
0.24,0.004861972
0.241,0.004947806
0.242,0.005036704
0.243,0.005125604
0.244,0.005220633
0.245,0.005309533
0.246,0.005404562
0.247,0.005496527
0.248,0.005585426
0.249,0.005680456
0.25,0.005775486
0.251,0.005864385
0.252,0.00596248
0.253,0.006051379
0.254,0.006143344
0.255,0.006238374
0.256,0.006330338
0.257,0.006422303
0.258,0.006511202
0.259,0.006600101
0.26,0.006692065
0.261,0.006777898
0.262,0.006863732
0.263,0.006952631
0.264,0.007032333
0.265,0.007118167
0.266,0.00719787
0.267,0.007274507
0.268,0.007354209
0.269,0.007430846
0.27,0.007501352
0.271,0.007574924
0.272,0.007642365
0.273,0.00770674
0.274,0.007774181
0.275,0.007832425
0.276,0.007893735
0.277,0.007948913
0.278,0.008001027
0.279,0.008050074
0.28,0.008096056
0.281,0.008142038
0.282,0.008178824
0.283,0.00821561
0.284,0.008252396
0.285,0.008279985
0.286,0.008304508
0.287,0.008329033
0.288,0.008344361
0.289,0.008359687
0.29,0.008371949
0.291,0.008375015
0.292,0.00837808
0.293,0.008371949
0.294,0.008365818
0.295,0.008356622
0.296,0.008335164
0.297,0.00831677
0.298,0.008292247
0.299,0.008258527
0.3,0.008224807
0.301,0.00818189
0.302,0.008138973
0.303,0.008086859
0.304,0.008028615
0.305,0.007973436
0.306,0.007905996
0.307,0.007838556
0.308,0.007771115
0.309,0.007688347
0.31,0.007605579
0.311,0.007522811
0.312,0.007427781
0.313,0.007341947
0.314,0.007246917
0.315,0.007148822
0.316,0.007050727
0.317,0.0069465
0.318,0.006845339
0.319,0.006744178
0.32,0.006639952
0.321,0.006541857
0.322,0.006440695
0.323,0.006336469
0.324,0.006241439
0.325,0.006140279
0.326,0.006045248
0.327,0.005956349
0.328,0.005864385
0.329,0.005775486
0.33,0.005692718
0.331,0.005613015
0.332,0.005536378
0.333,0.005459741
0.334,0.005389235
0.335,0.005318729
0.336,0.005254354
0.337,0.00519611
0.338,0.0051348
0.339,0.005079621
0.34,0.005027508
0.341,0.004975395
0.342,0.004929413
0.343,0.00488343
0.344,0.004837448
0.345,0.004797597
0.346,0.004757746
0.347,0.004717894
0.348,0.004687239
0.349,0.004650454
0.35,0.004616733
0.351,0.004586079
0.352,0.004552358
0.353,0.004524769
0.354,0.004500245
0.355,0.004472656
0.356,0.004448132
0.357,0.004420543
0.358,0.004399084
0.359,0.004380691
0.36,0.004356168
0.361,0.004334709
0.362,0.004316316
0.363,0.004294858
0.364,0.00427953
0.365,0.004261137
0.366,0.004242745
0.367,0.004224352
0.368,0.004209024
0.369,0.004193697
0.37,0.004178369
0.371,0.004163042
0.372,0.00415078
0.373,0.004132387
0.374,0.00411706
0.375,0.004107863
0.376,0.004086405
0.377,0.004077209
0.378,0.004064947
0.379,0.004049619
0.38,0.004040423
0.381,0.004025095
0.382,0.004012833
0.383,0.004003637
0.384,0.003988309
0.385,0.003976048
0.386,0.003966851
0.387,0.003951524
0.388,0.003942328
0.389,0.003930065
0.39,0.003917804
0.391,0.003905541
0.392,0.00389328
0.393,0.003884083
0.394,0.003871821
0.395,0.003859559
0.396,0.003850363
0.397,0.003838101
0.398,0.003828905
0.399,0.003816642
0.4,0.003801315
0.401,0.003795184
0.402,0.003782922
0.403,0.00377066
0.404,0.003761464
0.405,0.003746136
0.406,0.00373694
0.407,0.003727744
0.408,0.003712416
0.409,0.003709351
0.41,0.00370322
0.411,0.003687892
0.412,0.003678696
0.413,0.003663369
0.414,0.003654172
0.415,0.003644975
0.416,0.003632714
0.417,0.003623517
0.418,0.003614321
0.419,0.003598993
0.42,0.003592863
0.421,0.0035806
0.422,0.003568338
0.423,0.003562207
0.424,0.00354688
0.425,0.003540749
0.426,0.003528487
0.427,0.003519291
0.428,0.00351316
0.429,0.003500898
0.43,0.003491701
0.431,0.003482505
0.432,0.003470243
0.433,0.003464112
0.434,0.00345185
0.435,0.003439588
0.436,0.003436523
0.437,0.003427326
0.438,0.003415064
0.439,0.003411999
0.44,0.003399737
0.441,0.003387475
0.442,0.003387475
0.443,0.003375213
0.444,0.003369082
0.445,0.003359886
0.446,0.003353755
0.447,0.003347624
0.448,0.003338427
0.449,0.003335362
0.45,0.003329231
0.451,0.003320034
0.452,0.003316969
0.453,0.003310838
0.454,0.003304707
0.455,0.003301642
0.456,0.00329551
0.457,0.003292445
0.458,0.003289379
0.459,0.003283249
0.46,0.003286314
0.461,0.003283249
0.462,0.003283249
0.463,0.003286314
0.464,0.003283249
0.465,0.003286314
0.466,0.003286314
0.467,0.003289379
0.468,0.00329551
0.469,0.003298576
0.47,0.003304707
0.471,0.003313903
0.472,0.003320034
0.473,0.003335362
0.474,0.003347624
0.475,0.003359886
0.476,0.003381344
0.477,0.003396671
0.478,0.00341813
0.479,0.003442654
0.48,0.003467177
0.481,0.003500898
0.482,0.003531553
0.483,0.003568338
0.484,0.003611255
0.485,0.003651106
0.486,0.003700154
0.487,0.003758398
0.488,0.003813577
0.489,0.003881018
0.49,0.003954589
0.491,0.004028161
0.492,0.004113995
0.493,0.004202893
0.494,0.004300989
0.495,0.004405215
0.496,0.004515572
0.497,0.004638192
0.498,0.004766942
0.499,0.004901823
0.5,0.005048967
0.501,0.005199175
0.502,0.00535858
0.503,0.005536378
0.504,0.005711111
0.505,0.005901171
0.506,0.006097361
0.507,0.006302749
0.508,0.006520398
0.509,0.006738048
0.51,0.006971024
0.511,0.007210132
0.512,0.007461501
0.513,0.007715936
0.514,0.007979568
0.515,0.008240134
0.516,0.008522158
0.517,0.008804183
0.518,0.009089272
0.519,0.00938969
0.52,0.009690107
0.521,0.009993589
0.522,0.01030933
0.523,0.01062814
0.524,0.01095002
0.525,0.01128109
0.526,0.01161216
0.527,0.01194937
0.528,0.01228657
0.529,0.01263604
0.53,0.01298243
0.531,0.01333497
0.532,0.01369669
0.533,0.01405229
0.534,0.01441708
0.535,0.01478187
0.536,0.01514973
0.537,0.01552679
0.538,0.01590077
0.539,0.01627783
0.54,0.01666101
0.541,0.01704113
0.542,0.01743045
0.543,0.0178167
0.544,0.01820602
0.545,0.01860146
0.546,0.01899691
0.547,0.01939236
0.548,0.01979394
0.549,0.02018939
0.55,0.02059709
0.551,0.02099867
0.552,0.02140025
0.553,0.02181409
0.554,0.02222487
0.555,0.02262644
0.556,0.02304948
0.557,0.02346025
0.558,0.0238741
0.559,0.024291
0.56,0.02470791
0.561,0.02512481
0.562,0.02554478
0.563,0.02597702
0.564,0.02639392
0.565,0.02682002
0.566,0.02724919
0.567,0.0276661
0.568,0.0280922
0.569,0.02852443
0.57,0.02895053
0.571,0.0293797
0.572,0.029815
0.573,0.03102385
0.574,0.03142237
0.575,0.03188219
0.576,0.03231135
0.577,0.03274052
0.578,0.03320035
0.579,0.03362951
0.58,0.03408933
0.581,0.0345185
0.582,0.03494767
0.583,0.03540749
0.584,0.03586731
0.585,0.03629648
0.586,0.03672565
0.587,0.03718547
0.588,0.0376453
0.589,0.03810512
0.59,0.03856494
0.591,0.03902476
0.592,0.03945393
0.593,0.03991375
0.594,0.04037357
0.595,0.04080274
0.596,0.04126256
0.597,0.04172239
0.598,0.04218221
0.599,0.04264203
0.6,0.0430712
0.601,0.04353102
0.602,0.0440215
0.603,0.04445067
0.604,0.04491049
0.605,0.04537031
0.606,0.04583013
0.607,0.04628995
0.608,0.04674978
0.609,0.0472096
0.61,0.04766942
0.611,0.04812925
0.612,0.04861972
0.613,0.04904889
0.614,0.04953937
0.615,0.04996854
0.616,0.05042836
0.617,0.05088818
0.618,0.05137866
0.619,0.05180782
0.62,0.0522983
0.621,0.05275812
0.622,0.05321795
0.623,0.05370842
0.624,0.05416824
0.625,0.05462807
0.626,0.05508789
0.627,0.05557837
0.628,0.05603819
0.629,0.05649801
0.63,0.05698849
0.631,0.05744831
0.632,0.05790814
0.633,0.05839861
0.634,0.05885844
0.635,0.05931826
0.636,0.05980873
0.637,0.06026856
0.638,0.06072838
0.639,0.06121886
0.64,0.06167868
0.641,0.06216915
0.642,0.06265964
0.643,0.06311946
0.644,0.06357928
0.645,0.06406976
0.646,0.06456023
0.647,0.06502005
0.648,0.06547987
0.649,0.06597035
0.65,0.06643017
0.651,0.06692065
0.652,0.06738048
0.653,0.0678403
0.654,0.06833078
0.655,0.0687906
0.656,0.06928107
0.657,0.06977155
0.658,0.07026203
0.659,0.07072186
0.66,0.07121233
0.661,0.07167216
0.662,0.07216263
0.663,0.07265311
0.664,0.07311293
0.665,0.07357275
0.666,0.07409389
0.667,0.07455371
0.668,0.07504418
0.669,0.075504
0.67,0.07599448
0.671,0.07648496
0.672,0.07694478
0.673,0.07743526
0.674,0.07792573
0.675,0.07838555
0.676,0.07887604
0.677,0.07936651
0.678,0.07985699
0.679,0.08031681
0.68,0.08077663
0.681,0.08126711
0.682,0.08175759
0.683,0.08221742
0.684,0.08270789
0.685,0.08319836
0.686,0.08365819
0.687,0.08414867
0.688,0.08460849
0.689,0.08512962
0.69,0.08558945
0.691,0.08607992
0.692,0.0865704
0.693,0.08703022
0.694,0.08755135
0.695,0.08801118
0.696,0.088471
0.697,0.08899213
0.698,0.08945195
0.699,0.08994243
0.7,0.09012636
0.6990001,0.08960523
0.6980001,0.08914541
0.6970001,0.08868558
0.6960001,0.08819511
0.6950001,0.08770462
0.6940001,0.0872448
0.6930001,0.08678498
0.6920001,0.08632516
0.6910001,0.08586534
0.6900001,0.0853442
0.6890001,0.08488438
0.6880001,0.08442456
0.6870001,0.08393408
0.6860001,0.08350492
0.6850001,0.08304509
0.6840001,0.08252396
0.6830001,0.0820948
0.6820001,0.08160432
0.6810001,0.0811445
0.6800001,0.08071532
0.6790001,0.08022485
0.6780001,0.07973437
0.6770001,0.0793052
0.6760001,0.07881473
0.6750001,0.07832425
0.6740001,0.07789508
0.6730001,0.0774046
0.6720001,0.07691412
0.6710001,0.0764543
0.6700001,0.07599448
0.6690001,0.07553466
0.6680001,0.07510549
0.6670001,0.07461502
0.6660001,0.07412454
0.6650001,0.07369537
0.6640001,0.07323555
0.6630001,0.07274507
0.6620001,0.0723159
0.6610001,0.07185608
0.6600001,0.0713656
0.6590001,0.07093643
0.6580001,0.07044595
0.6570001,0.06998613
0.6560001,0.06955697
0.6550001,0.06906649
0.6540001,0.06860667
0.6530001,0.06814685
0.6520001,0.06768703
0.6510001,0.06722721
0.6500001,0.06676738
0.6490001,0.06630756
0.6480001,0.06584774
0.6470001,0.06538791
0.6460001,0.06492809
0.6450001,0.06446826
0.6440001,0.06400844
0.6430001,0.06354862
0.6420001,0.06311946
0.6410001,0.06262898
0.6400001,0.06216915
0.6390001,0.06170933
0.6380001,0.06124951
0.6370001,0.06078969
0.6360001,0.06036052
0.6350001,0.05987004
0.6340001,0.05941022
0.6330001,0.05898106
0.6320001,0.05849057
0.6310001,0.05806141
0.6300001,0.05760158
0.6290001,0.05714176
0.6280001,0.05668194
0.6270001,0.05622212
0.6260001,0.0557623
0.6250001,0.05530247
0.6240001,0.05484265
0.6230001,0.05438283
0.6220001,0.05392301
0.6210001,0.05346319
0.6200001,0.05300336
0.6190001,0.05254354
0.6180001,0.05208372
0.6170001,0.05165455
0.6160001,0.05119473
0.6150001,0.05073491
0.6140001,0.05027508
0.6130001,0.04981526
0.6120001,0.0493861
0.6110001,0.04892627
0.6100001,0.04846645
0.6090001,0.04803728
0.6080001,0.04757746
0.6070001,0.04711764
0.6060001,0.04665781
0.6050001,0.04619799
0.6040001,0.04576882
0.6030001,0.045309
0.6020001,0.04487984
0.6010001,0.04442001
0.6000001,0.04399084
0.5990001,0.04353102
0.5980001,0.0430712
0.5970001,0.04264203
0.5960001,0.04218221
0.5950001,0.04172239
0.5940001,0.04129322
0.5930001,0.04083339
0.5920001,0.04040423
0.5910001,0.03997506
0.5900001,0.03951524
0.5890001,0.03908607
0.5880001,0.0386569
0.5870001,0.03819708
0.5860001,0.03776791
0.5850001,0.03733874
0.5840001,0.03690958
0.5830001,0.03644976
0.5820001,0.03602059
0.5810001,0.03559142
0.5800001,0.03516225
0.5790001,0.03473309
0.5780001,0.03430392
0.5770001,0.03387475
0.5760001,0.03344558
0.5750001,0.03301642
0.5740001,0.03258725
0.5730001,0.03215808
0.5720001,0.03172891
0.5710001,0.03129975
0.5700001,0.03087058
0.5690001,0.03044141
0.5680001,0.03001224
0.5670001,0.02961373
0.5660001,0.02918456
0.5650001,0.02875539
0.5640001,0.02835688
0.5630001,0.02792772
0.5620001,0.02749855
0.5610001,0.02710003
0.5600001,0.02667087
0.5590001,0.02627235
0.5580001,0.02587384
0.5570001,0.02544468
0.5560001,0.02504616
0.5550001,0.02464765
0.5540001,0.02424913
0.5530001,0.02381997
0.5520001,0.02345211
0.5510001,0.02302294
0.5500001,0.02262443
0.5490001,0.02222592
0.5480001,0.02182741
0.5470001,0.02142889
0.5460001,0.02103038
0.5450001,0.02063187
0.5440001,0.02026401
0.5430001,0.0198655
0.5420001,0.01946698
0.5410001,0.01909912
0.5400001,0.01873127
0.5390001,0.01836341
0.5380001,0.0179649
0.5370001,0.01759704
0.5360001,0.01722918
0.5350001,0.01686132
0.5340001,0.01649346
0.5330001,0.01612561
0.5320001,0.01575775
0.5310001,0.01538989
0.5300001,0.01502203
0.5290001,0.01465417
0.5280001,0.01431697
0.5270001,0.01394911
0.5260001,0.01358126
0.5250001,0.01324405
0.5240001,0.01240306
0.5230001,0.01207199
0.5220001,0.01173478
0.5210001,0.01140065
0.5200001,0.01107571
0.5190001,0.0107477
0.5180001,0.01041969
0.5170001,0.01010088
0.5160001,0.009785137
0.5150001,0.009475523
0.5140001,0.00916591
0.5130001,0.008859362
0.5120001,0.008549747
0.5110001,0.00824933
0.5100001,0.007961174
0.5090001,0.007669954
0.5080001,0.007381798
0.5070001,0.00710284
0.5060001,0.006823881
0.5050001,0.006551053
0.5040001,0.006284356
0.5030001,0.006017659
0.5020001,0.005760158
0.5010001,0.005502658
0.5000001,0.005251288
0.4990001,0.005009115
0.4980001,0.004770007
0.4970001,0.004533966
0.4960001,0.00430712
0.4950001,0.004080274
0.4940001,0.00386569
0.4930001,0.003648041
0.4920001,0.003439588
0.4910001,0.003243397
0.4900001,0.003044141
0.4890001,0.002851016
0.4880001,0.002670152
0.4870001,0.002486223
0.4860001,0.002314556
0.4850001,0.002145954
0.4840001,0.001983484
0.4830001,0.00183021
0.4820001,0.001676936
0.4810001,0.001532858
0.4800001,0.001391846
0.4790001,0.001256965
0.4780001,0.001098068
0.4770001,0.0009757549
0.4760001,0.000856201
0.4750001,0.0007473764
0.4740001,0.0006360994
0.4730001,0.0005334057
0.4720001,0.0004392953
0.4710001,0.0003430392
0.4700001,0.0002572057
0.4690001,0.0001729049
0.4680001,9.136306E-05
0.4670001,1.748492E-05
0.4660001,-5.910133E-05
0.4650001,-0.0001264193
0.4640001,-0.0001875757
0.4630001,-0.0002496517
0.4620001,-0.0003055661
0.4610001,-0.000359876
0.4600001,-0.0004101499
0.4590001,-0.0004539863
0.4580001,-0.0004999685
0.4570001,-0.0005416591
0.4560001,-0.000579058
0.4550001,-0.0006195224
0.4540001,-0.0006532427
0.4530001,-0.0006860433
0.4520001,-0.000718844
0.4510001,-0.0007449006
0.4500001,-0.0007740227
0.4490001,-0.0008000793
0.4480001,-0.0008239901
0.4470001,-0.0008506598
0.4460001,-0.0008693592
0.4450001,-0.0008883653
0.4440001,-0.0009110498
0.4430001,-0.0009266838
0.4420001,-0.0009456897
0.4410001,-0.000963163
0.4400001,-0.0009748118
0.4390001,-0.0009928982
0.4380001,-0.00100608
0.4370001,-0.001018955
0.4360001,-0.001034282
0.4350001,-0.001043785
0.4340001,-0.001056047
0.4330001,-0.001068003
0.4320001,-0.001076892
0.4310001,-0.001090687
0.4300001,-0.001098964
0.4290001,-0.00110908
0.4280001,-0.001120422
0.4270001,-0.001127166
0.4260001,-0.001137589
0.4250001,-0.001146785
0.4240001,-0.001152916
0.4230001,-0.001164565
0.4220001,-0.001171616
0.4210001,-0.00117928
0.4200001,-0.001189396
0.4190001,-0.001193994
0.4180001,-0.00120319
0.4170001,-0.001211774
0.4160001,-0.001217292
0.4150001,-0.001228021
0.4140001,-0.001233232
0.4130001,-0.001239976
0.4120001,-0.001250092
0.4110001,-0.001254997
0.4100001,-0.001268792
0.4090001,-0.001279521
0.4080001,-0.00128044
0.4070001,-0.001289024
0.4060001,-0.001295461
0.4050001,-0.001301286
0.4040001,-0.001310176
0.4030001,-0.001317226
0.4020001,-0.001325197
0.4010001,-0.00133286
0.4000001,-0.001338991
0.3990001,-0.001348188
0.3980001,-0.001354319
0.3970001,-0.001364741
0.3960001,-0.001374244
0.3950001,-0.001377616
0.3940001,-0.001388345
0.3930001,-0.001397235
0.3920001,-0.001401834
0.3910001,-0.001414096
0.3900001,-0.001421146
0.3890001,-0.001428503
0.3880001,-0.001440459
0.3870001,-0.00144659
0.3860001,-0.001455786
0.3850001,-0.001466209
0.3840001,-0.001472646
0.3830001,-0.001484602
0.3820001,-0.001491959
0.3810001,-0.001502075
0.3800001,-0.001512804
0.3790001,-0.001520774
0.3780001,-0.00153273
0.3770001,-0.001543459
0.3760001,-0.001551123
0.3750001,-0.001563998
0.3740001,-0.001571968
0.3730001,-0.00158331
0.3720001,-0.001596492
0.3710001,-0.001605688
0.3700001,-0.001617337
0.3690001,-0.001628679
0.3680001,-0.00163665
0.3670001,-0.001652897
0.3660001,-0.001661787
0.3650001,-0.001674355
0.3640001,-0.001689069
0.3630001,-0.001696733
0.3620001,-0.001711141
0.3610001,-0.001724629
0.3600001,-0.001734438
0.3590001,-0.001750686
0.3580001,-0.001763561
0.3570001,-0.001774596
0.3560001,-0.001789617
0.3550001,-0.001800653
0.3540001,-0.00181598
0.3530001,-0.001828855
0.3520001,-0.001842343
0.3510001,-0.001859817
0.3500001,-0.001870546
0.3490001,-0.001884954
0.3480001,-0.001901814
0.3470001,-0.00191285
0.3460001,-0.001931856
0.3450001,-0.001947183
0.3440001,-0.001957912
0.3430001,-0.001976612
0.3420001,-0.001991633
0.3410001,-0.002005121
0.3400001,-0.00202382
0.3390001,-0.002039148
0.3380001,-0.002055088
0.3370001,-0.002071642
0.3360001,-0.002086356
0.3350001,-0.002105055
0.3340001,-0.002120383
0.3330001,-0.002135403
0.3320001,-0.002154103
0.3310001,-0.002168204
0.3300001,-0.002186903
0.3290001,-0.002204377
0.3280001,-0.002220011
0.3270001,-0.002240856
0.3260001,-0.002256797
0.3250001,-0.002273963
0.3240001,-0.002293583
0.3230001,-0.002309216
0.3220001,-0.002328836
0.3210001,-0.002345696
0.3200001,-0.002363476
0.3190001,-0.002384321
0.3180001,-0.002399035
0.3170001,-0.002416815
0.3160001,-0.002437047
0.3150001,-0.002451761
0.3140001,-0.002472606
0.3130001,-0.002491
0.3120001,-0.00250602
0.3110001,-0.002527172
0.3100001,-0.002543419
0.3090001,-0.002561506
0.3080001,-0.002580512
0.3070001,-0.002601664
0.3060001,-0.002619443
0.3050001,-0.002635997
0.3040001,-0.002651631
0.3030001,-0.002670943
0.3020001,-0.002685964
0.3010001,-0.00270497
0.3000001,-0.002724589
0.2990001,-0.002737464
0.2980001,-0.002755857
0.2970001,-0.002773331
0.2960001,-0.002786512
0.2950001,-0.002806131
0.2940001,-0.002822685
0.2930001,-0.002836786
0.2920001,-0.002855179
0.2910001,-0.002867441
0.2900001,-0.002884608
0.2890001,-0.002901161
0.2880001,-0.002914649
0.2870001,-0.002932123
0.2860001,-0.002943465
0.2850001,-0.002958179
0.2840001,-0.002974733
0.2830001,-0.002985155
0.2820001,-0.003000176
0.2810001,-0.003013051
0.2800001,-0.002988729
0.2790001,-0.003004056
0.2780001,-0.003013253
0.2770001,-0.003025514
0.2760001,-0.003037777
0.2750001,-0.003050038
0.2740001,-0.003059235
0.2730001,-0.003071497
0.2720001,-0.003077628
0.2710001,-0.003092955
0.2700001,-0.003099086
0.2690001,-0.003111348
0.2680001,-0.00312361
0.2670001,-0.003126675
0.2660001,-0.003135872
0.2650001,-0.003145068
0.2640001,-0.003151199
0.2630001,-0.003163461
0.2620001,-0.003166527
0.2610001,-0.003172658
0.2600001,-0.003181854
0.2590001,-0.003184919
0.2580001,-0.003191051
0.2570001,-0.003194116
0.2560001,-0.003200247
0.2550001,-0.003206378
0.2540001,-0.003206378
0.2530001,-0.003212509
0.2520001,-0.003215575
0.2510001,-0.003212509
0.2500001,-0.00321864
0.2490001,-0.003221706
0.2480001,-0.00321864
0.2470001,-0.003224771
0.2460001,-0.003221706
0.2450001,-0.00321864
0.2440001,-0.003221706
0.2430001,-0.003221706
0.2420001,-0.00321864
0.2410001,-0.003215575
0.2400001,-0.003212509
0.2390001,-0.003212509
0.2380001,-0.003206378
0.2370001,-0.003203312
0.2360001,-0.003200247
0.2350001,-0.003194116
0.2340001,-0.003191051
0.2330001,-0.003184919
0.2320001,-0.003175723
0.2310001,-0.003172658
0.2300001,-0.003163461
0.2290001,-0.003154265
0.2280001,-0.003148134
0.2270001,-0.003138937
0.2260001,-0.003129741
0.2250001,-0.003120545
0.2240001,-0.003111348
0.2230001,-0.003102152
0.2220001,-0.003086824
0.2210001,-0.003077628
0.2200001,-0.003065366
0.2190001,-0.003050038
0.2180001,-0.003040842
0.2170001,-0.00302858
0.2160001,-0.003010187
0.2150001,-0.003000991
0.2140001,-0.002982598
0.2130001,-0.00296727
0.2120001,-0.002951943
0.2110001,-0.00293355
0.2100001,-0.002918222
0.2090001,-0.00289983
0.2080001,-0.002878371
0.2070001,-0.002863044
0.2060001,-0.002841586
0.2050001,-0.002826258
0.2040001,-0.002810931
0.2030001,-0.002786407
0.2020001,-0.002764949
0.2010001,-0.00274349
0.2000001,-0.002718966
0.1990001,-0.002697508
0.1980001,-0.002672984
0.1970001,-0.002651526
0.1960001,-0.002627002
0.1950001,-0.002602478
0.1940001,-0.00258102
0.1930001,-0.00255343
0.1920001,-0.002531972
0.1910001,-0.002504382
0.1900001,-0.002476793
0.1890001,-0.002452269
0.1880001,-0.002427745
0.1870001,-0.002397091
0.1860001,-0.002369501
0.1850001,-0.002344977
0.1840001,-0.002314323
0.1830001,-0.002289799
0.1820001,-0.002262209
0.1810001,-0.002231555
0.1800001,-0.002207031
0.1790001,-0.002176376
0.1780001,-0.002148786
0.1770001,-0.002121197
0.1760001,-0.002090542
0.1750001,-0.002066019
0.1740001,-0.002035364
0.1730001,-0.002007774
0.1720001,-0.001980185
0.1710001,-0.00194953
0.1700001,-0.001925006
0.1690001,-0.001897417
0.1680001,-0.001866762
0.1670001,-0.001842238
0.1660001,-0.001811583
0.1650001,-0.001783994
0.1640001,-0.00175947
0.1630001,-0.001728815
0.1620001,-0.001701226
0.1610001,-0.001676702
0.1600001,-0.001649113
0.1590001,-0.001624589
0.1580001,-0.001597
0.1570001,-0.001605688
0.1560001,-0.001581164
0.1550001,-0.001554188
0.1540001,-0.001529971
0.1530001,-0.00150514
0.1520001,-0.001478471
0.1510001,-0.001455786
0.1500001,-0.001430956
0.1490001,-0.001406738
0.1480001,-0.001384667
0.1470001,-0.001361369
0.1460001,-0.001338991
0.1450001,-0.001316613
0.1440001,-0.001293622
0.1430001,-0.001274003
0.1420001,-0.001252238
0.1410001,-0.001231086
0.1400001,-0.00121208
0.1390001,-0.001190622
0.1380001,-0.001171003
0.1370001,-0.001152916
0.1360001,-0.001132378
0.1350001,-0.001114904
0.1340001,-0.001096511
0.1330001,-0.001077812
0.1320001,-0.001061872
0.1310001,-0.001043785
0.1300001,-0.001026619
0.1290001,-0.001010371
0.1280001,-0.0009932048
0.1270001,-0.0009781838
0.1260001,-0.0009625499
0.1250001,-0.0009472225
0.1240001,-0.0009331212
0.1230001,-0.0009184069
0.1220001,-0.0009039992
0.1210001,-0.0008908176
0.1200001,-0.0008757967
0.1190001,-0.0008632282
0.1180001,-0.0008503532
0.1170001,-0.0008368651
0.1160001,-0.0008252163
0.1150001,-0.0008129543
0.1140001,-0.0008006924
0.1130001,-0.0007890436
0.1120001,-0.0007770882
0.1110001,-0.0007660525
0.1100001,-0.0007553233
0.1090001,-0.0007442875
0.1080001,-0.0007344779
0.1070001,-0.0007237488
0.1060001,-0.0007133262
0.1050001,-0.0007038232
0.1040001,-0.0006937071
0.1030001,-0.0006854302
0.1020001,-0.0006762338
0.1010001,-0.0006661177
0.1000001,-0.0006581475
0.0990001,-0.000648951
0.09800009,-0.0006406742
0.09700009,-0.0006323974
0.0960001,-0.0006238141
0.0950001,-0.0006164569
0.09400009,-0.0006087932
0.0930001,-0.0006005164
0.0920001,-0.0005940789
0.0910001,-0.0005864152
0.09000009,-0.000579058
0.0890001,-0.000572927
0.0880001,-0.0005649568
0.08700009,-0.0005588258
0.08600009,-0.0005526949
0.0850001,-0.0005456443
0.0840001,-0.0005401264
0.08300009,-0.000534302
0.08200009,-0.0005278645
0.0810001,-0.0005223466
0.0800001,-0.0005165222
0.07900009,-0.0005110043
0.0780001,-0.000505793
0.0770001,-0.0005002751
0.07600009,-0.0004956769
0.07500009,-0.0004904656
0.0740001,-0.0004852542
0.0730001,-0.000480656
0.07200009,-0.0004757512
0.07100009,-0.0004714596
0.0700001,-0.0004671679
0.0690001,-0.0004622631
0.06800009,-0.0004585845
0.0670001,-0.0004542929
0.0660001,-0.0004500012
0.06500009,-0.0004463226
0.06400009,-0.0004417244
0.0630001,-0.0004383524
0.0620001,-0.0004346738
0.06100009,-0.0004306886
0.0600001,-0.0004273166
0.0590001,-0.0004233315
0.0580001,-0.0004199595
0.0570001,-0.000416894
0.05600009,-0.0004129088
0.0550001,-0.0004101499
0.05400009,-0.0004064713
0.0530001,-0.0004030993
0.05200009,-0.0004006469
0.0510001,-0.0003972749
0.05000009,-0.0003939029
0.0490001,-0.0003911439
0.04800009,-0.0003877719
0.0470001,-0.0003853195
0.0460001,-0.0003825606
0.04500009,-0.0003794951
0.0440001,-0.0003767362
0.04300009,-0.0003739772
0.0420001,-0.0003712183
0.04100009,-0.0003687659
0.0400001,-0.0003657004
0.03900009,-0.0003635546
0.0380001,-0.0003611022
0.03700009,-0.0003583433
0.0360001,-0.0003561974
0.0350001,-0.000353745
0.03400009,-0.0003509861
0.0330001,-0.0003491468
0.03200009,-0.0003466944
0.03100009,-0.0003445486
0.0300001,-0.0003424028
0.0290001,-0.0003399504
0.0280001,-0.0003381111
0.0270001,-0.0003359652
0.0260001,-0.0003338194
0.0250001,-0.0003319801
0.0240001,-0.0003295277
0.0230001,-0.0003276884
0.02200009,-0.0003258491
0.02100009,-0.0003237033
0.02000009,-0.000321864
0.0190001,-0.0003200247
0.0180001,-0.0003181854
0.0170001,-0.0003163462
0.0160001,-0.0003145068
0.0150001,-0.0003126676
0.0140001,-0.0003108283
0.0130001,-0.0003092955
0.0120001,-0.0003074562
0.01100009,-0.000305617
0.0100001,-0.0003040842
0.009000096,-0.0003025515
0.008000095,-0.0003004056
0.007000095,-0.0002991795
0.006000096,-0.0002973401
0.005000095,-0.0002955009
0.004000095,-0.0002942747
0.003000095,-0.0002927419
0.002000095,-0.0002909026
0.001000095,-0.0002896764
9.536743E-08,-0.0002758818
0.0009999046,-0.0002633133
0.001999905,-0.0002550365
0.002999905,-0.000248599
0.003999905,-0.0002421615
0.004999904,-0.0002369501
0.005999905,-0.0002320454
0.006999905,-0.0002271406
0.007999904,-0.0002228489
0.008999905,-0.0002182507
0.009999905,-0.000213959
0.0109999,-0.0002102804
0.0119999,-0.0002062953
0.0129999,-0.0002026167
0.0139999,-0.0001992447
0.0149999,-0.0001955661
0.0159999,-0.0001921941
0.0169999,-0.0001888221
0.0179999,-0.00018545
0.0189999,-0.0001823845
0.0199999,-0.0001793191
0.0209999,-0.0001762536
0.0219999,-0.0001731881
0.02299991,-0.0001704292
0.02399991,-0.0001673637
0.02499991,-0.0001649113
0.02599991,-0.0001618458
0.0269999,-0.0001590869
0.0279999,-0.0001563279
0.0289999,-0.0001568902
0.0299999,-0.0001545298
0.0309999,-0.0001518015
0.0319999,-0.0001492572
0.0329999,-0.0001466822
0.0339999,-0.0001442911
0.0349999,-0.0001420533
0.03599991,-0.0001392944
0.0369999,-0.0001369953
0.03799991,-0.0001346348
0.0389999,-0.0001319985
0.03999991,-0.0001297607
0.0409999,-0.0001273696
0.04199991,-0.0001248559
0.0429999,-0.0001227101
0.0439999,-0.0001202271
0.0449999,-0.0001181119
0.0459999,-0.0001160274
0.04699991,-0.0001135137
0.0479999,-0.0001114598
0.04899991,-0.0001092833
0.0499999,-0.0001069229
0.05099991,-0.0001046544
0.0519999,-0.0001024779
0.05299991,-0.0001002401
0.0539999,-9.818624E-05
0.0549999,-9.597909E-05
0.0559999,-9.386391E-05
0.0569999,-9.162611E-05
0.05799991,-8.941896E-05
0.0589999,-8.736509E-05
0.05999991,-8.488204E-05
0.0609999,-8.285882E-05
0.06199991,-8.083561E-05
0.0629999,-7.844453E-05
0.06399991,-7.632935E-05
0.06499991,-7.418351E-05
0.0659999,-7.179243E-05
0.0669999,-7.004511E-05
0.06799991,-6.743945E-05
0.0689999,-6.520165E-05
0.0699999,-6.317843E-05
0.07099991,-6.075669E-05
0.07199991,-5.861086E-05
0.0729999,-5.643437E-05
0.0739999,-5.398198E-05
0.07499991,-5.192811E-05
0.07599991,-4.938375E-05
0.0769999,-4.720726E-05
0.0779999,-4.490815E-05
0.07899991,-4.239445E-05
0.0799999,-4.018731E-05
0.0809999,-3.773492E-05
0.08199991,-3.519057E-05
0.08299991,-3.286081E-05
0.0839999,-2.997925E-05
0.0849999,-2.77721E-05
0.08599991,-2.55343E-05
0.08699991,-2.262209E-05
0.0879999,-2.038429E-05
0.0889999,-1.771732E-05
0.08999991,-1.492773E-05
0.0909999,-1.275124E-05
0.0919999,-9.655102E-06
0.09299991,-7.110752E-06
0.09399991,-4.627711E-06
0.0949999,-3.953305E-07
0.0959999,1.928305E-06
0.09699991,4.62593E-06
0.09799991,7.810966E-06
0.0989999,1.04902E-05
0.0999999,1.40247E-05
0.1009999,1.686333E-05
0.1019999,1.995746E-05
0.1029999,2.271639E-05
0.1039999,2.56286E-05
0.1049999,2.88167E-05
0.1059999,3.225004E-05
0.1069999,3.516225E-05
0.1079999,3.89328E-05
0.1089999,4.21209E-05
0.1099999,4.546228E-05
0.1109999,4.941675E-05
0.1119999,5.285009E-05
0.1129999,5.646735E-05
0.1139999,6.05751E-05
0.1149999,6.422302E-05
0.1159999,6.848405E-05
0.1169999,7.228524E-05
0.1179999,7.593317E-05
0.1189999,8.050074E-05
0.1199999,8.436324E-05
0.1209999,8.85323E-05
0.1219999,9.331445E-05
0.1229999,9.705434E-05
0.1239999,0.0001023576
0.1249999,0.0001068332
0.1259999,0.0001109103
0.1269999,0.0001163669
0.1279999,0.0001210264
0.1289999,0.0001259005
0.1299999,0.0001313877
0.1309999,0.0001360166
0.1319999,0.0001418717
0.1329999,0.0001468378
0.1339999,0.000152325
0.1349999,0.0001583027
0.1359999,0.0001636366
0.1369999,0.0001694304
0.1379999,0.0001755
0.1389999,0.0001810792
0.1399999,0.0001882524
0.1409999,0.0001944447
0.1419999,0.0002005144
0.1429999,0.0002077489
0.1439999,0.0002141558
0.1449999,0.0002208079
0.1459999,0.0002281651
0.1469999,0.0002347252
0.1479999,0.0002428794
0.1489999,0.0002500832
0.1499999,0.0002569499
0.1509999,0.0002653187
0.1519999,0.0002727065
0.1529999,0.0002811366
0.1539999,0.0002936849
0.1549999,0.000300429
0.1559999,0.000309932
0.1569999,0.0003182088
0.1579999,0.0003267921
0.1589999,0.0003362951
0.1599999,0.000345185
0.1609999,0.0003543815
0.1619999,0.0003644976
0.1629999,0.0003733875
0.1639999,0.0003847298
0.1649999,0.0003942328
0.1659999,0.0004043488
0.1669999,0.0004159977
0.1679999,0.0004258072
0.1689999,0.0004371495
0.1699999,0.0004487984
0.1709999,0.0004586079
0.1719999,0.0004717895
0.1729999,0.0004834383
0.1739999,0.000494474
0.1749999,0.0005076557
0.1759999,0.0005193045
0.1769999,0.0005315664
0.1779999,0.0005450545
0.1789999,0.0005573165
0.1799999,0.0005714177
0.1809999,0.0005842927
0.1819999,0.0005980873
0.1829999,0.0006124952
0.1839999,0.0006259833
0.1849999,0.0006410041
0.1859999,0.0006551053
0.1869999,0.0006692066
0.1879999,0.0006860667
0.1889999,0.0006998614
0.1899999,0.0007151888
0.1909999,0.0007320489
0.1919999,0.0007470698
0.1929999,0.0007636235
0.1939999,0.000780177
0.1949999,0.0007951979
0.1959999,0.0008135908
0.1969999,0.0008292248
0.1979999,0.0008460849
0.1989999,0.0008650909
0.1999999,0.0008810314
0.2009999,0.0008988112
0.2019999,0.0009175107
0.2029999,0.0009343708
0.2039999,0.0009539899
0.2049999,0.000973609
0.2059999,0.0009910823
0.2069999,0.001010088
0.2079999,0.001027868
0.2089999,0.001047487
0.2099999,0.001066493
0.2109999,0.001085806
0.2119999,0.001106957
0.2129999,0.001124737
0.2139999,0.001144356
0.2149999,0.001165508
0.2159999,0.001183595
0.2169999,0.001205359
0.2179999,0.001225898
0.2189999,0.001244904
0.2199999,0.001267589
0.2209999,0.001286595
0.2219999,0.001306827
0.2229999,0.001328592
0.2239999,0.001348517
0.2249999,0.001369976
0.2259999,0.001390821
0.2269999,0.001410134
0.2279999,0.001432818
0.2289999,0.001452744
0.2299999,0.00147267
0.2309999,0.001495661
0.2319999,0.001514973
0.2329999,0.001536738
0.2339999,0.001558503
0.2349999,0.001577816
0.2359999,0.001601113
0.2369999,0.001620426
0.2379999,0.001640965
0.2389999,0.001663649
0.2399999,0.001682042
0.2409999,0.001703807
0.2419999,0.001724039
0.2429999,0.001744271
0.2439999,0.001767262
0.2449999,0.001785042
0.2459999,0.001804968
0.2469999,0.00182612
0.2479999,0.001844206
0.2489999,0.001865051
0.2499999,0.001885284
0.2509999,0.001902757
0.2519999,0.001924828
0.2529999,0.001941995
0.2539999,0.001960388
0.2549999,0.001980314
0.2559999,0.001998706
0.2569999,0.002019245
0.2579999,0.002036105
0.2589999,0.002052046
0.2599999,0.002072585
0.2609999,0.002086992
0.2619999,0.002105079
0.2629999,0.002123778
0.2639999,0.002137266
0.2649999,0.002156272
0.2659999,0.0021716
0.2669999,0.002186927
0.2679999,0.002205933
0.2689999,0.002219728
0.2699999,0.002235975
0.2709999,0.002251609
0.2719999,0.002264177
0.2729999,0.002281651
0.2739999,0.002294526
0.2749999,0.002309546
0.2759999,0.002325793
0.2769999,0.002336523
0.2779999,0.002350931
0.2789999,0.002365032
0.2799999,0.002374535
0.2809999,0.002391088
0.2819999,0.002402431
0.2829999,0.002412853
0.2839999,0.00243002
0.2849999,0.002438603
0.2859999,0.002451172
0.2869999,0.00246466
0.2879999,0.002475082
0.2889999,0.002488264
0.2899999,0.002498993
0.2909999,0.00250819
0.2919999,0.002521678
0.2929999,0.002530261
0.2939999,0.00254191
0.2949999,0.002554172
0.2959999,0.002560609
0.2969999,0.002572871
0.2979999,0.002582068
0.2989999,0.002589425
0.2999999,0.002602607
0.3009999,0.002610883
0.3019999,0.002618547
0.3029999,0.002629276
0.3039999,0.002635714
0.3049999,0.002646136
0.3059999,0.002654413
0.3069999,0.002666369
0.3079999,0.002676485
0.3089999,0.002681083
0.3099999,0.002689053
0.3109999,0.002697024
0.3119999,0.002701622
0.3129999,0.002712657
0.3139999,0.002718482
0.3149999,0.002724306
0.3159999,0.002734116
0.3169999,0.002738714
0.3179999,0.002746071
0.3189999,0.002753122
0.3199999,0.00275864
0.3209999,0.00276753
0.3219999,0.002772741
0.3229999,0.00277642
0.3239999,0.002785003
0.3249999,0.002787149
0.3259999,0.002794199
0.3269999,0.002801863
0.3279999,0.002802476
0.3289999,0.002810446
0.3299999,0.002815351
0.3309999,0.002816884
0.3319999,0.002824854
0.3329999,0.002824547
0.3339999,0.002828839
0.3349999,0.002837423
0.3359999,0.002837729
0.3369999,0.002842634
0.3379999,0.002846312
0.3389999,0.002849071
0.3399999,0.002855509
0.3409999,0.002855509
0.3419999,0.002858574
0.3429999,0.002862559
0.3439999,0.002861333
0.3449999,0.002867158
0.3459999,0.002870836
0.3469999,0.002870223
0.3479999,0.002875434
0.3489999,0.002874208
0.3499999,0.002874515
0.3509999,0.002878194
0.3519999,0.0028785
0.3529999,0.002879726
0.3539999,0.002880339
0.3549999,0.002879726
0.3559999,0.002882485
0.3569999,0.002880033
0.3579999,0.002883405
0.3589999,0.002883098
0.3599999,0.002880646
0.3609999,0.002882792
0.3619999,0.002880953
0.3629999,0.002878194
0.3639999,0.002880646
0.3649999,0.002876354
0.3659999,0.002875434
0.3669999,0.002876048
0.3679999,0.00287053
0.3689999,0.002870836
0.3699999,0.002868077
0.3709999,0.002865932
0.3719999,0.002866545
0.3729999,0.00286072
0.3739999,0.002857961
0.3749999,0.002856735
0.3759999,0.002850604
0.3769999,0.002849685
0.3779999,0.002846926
0.3789999,0.002840795
0.3799999,0.002840182
0.3809999,0.002834663
0.3819999,0.002829759
0.3829999,0.002827613
0.3839999,0.002820563
0.3849999,0.002817497
0.3859999,0.002813512
0.3869999,0.002807381
0.3879999,0.002804928
0.3889999,0.002797571
0.3899999,0.002794506
0.3909999,0.002789601
0.3919999,0.002781937
0.3929999,0.002778872
0.3939999,0.002772128
0.3949999,0.002765077
0.3959999,0.002762931
0.3969999,0.002754961
0.3979999,0.00274975
0.3989999,0.002745765
0.3999999,0.002735649
0.4009999,0.002732277
0.4019999,0.002725226
0.4029999,0.002717256
0.4039999,0.002715416
0.4049999,0.0027053
0.4059999,0.002698863
0.4069999,0.002694571
0.4079999,0.002683535
0.4089999,0.002682922
0.4099999,0.002682309
0.4109999,0.002671273
0.4119999,0.002665756
0.4129999,0.002655026
0.4139999,0.002648895
0.4149999,0.002642151
0.4159999,0.002632955
0.4169999,0.002628663
0.4179999,0.00261916
0.4189999,0.002611496
0.4199999,0.002608738
0.4209999,0.002596782
0.4219999,0.002592184
0.4229999,0.002587892
0.4239999,0.002576244
0.4249999,0.002572871
0.4259999,0.002565208
0.4269999,0.002555091
0.4279999,0.002552946
0.4289999,0.002544975
0.4299999,0.002535779
0.4309999,0.002532407
0.4319999,0.002522904
0.4329999,0.002516773
0.4339999,0.002511868
0.4349999,0.002502365
0.4359999,0.00249838
0.4369999,0.002490103
0.4379999,0.002484892
0.4389999,0.002479987
0.4399999,0.002471097
0.4409999,0.002469565
0.4419999,0.002461901
0.4429999,0.002455464
0.4439999,0.002453318
0.4449999,0.002443815
0.4459999,0.002440442
0.4469999,0.002437377
0.4479999,0.002430633
0.4489999,0.00243002
0.4499999,0.002424195
0.4509999,0.002418065
0.4519999,0.002418371
0.4529999,0.002413773
0.4539999,0.002409788
0.4549999,0.002411627
0.4559999,0.002407335
0.4569999,0.002404883
0.4579999,0.002405802
0.4589999,0.00240427
0.4599999,0.002406109
0.4609999,0.002410707
0.4619999,0.002411934
0.4629999,0.002414079
0.4639999,0.002416838
0.4649999,0.002425728
0.4659999,0.002428794
0.4669999,0.002436457
0.4679999,0.002450865
0.4689999,0.002457303
0.4699999,0.002471097
0.4709999,0.002489184
0.4719999,0.002499913
0.4729999,0.002523824
0.4739999,0.002547734
0.4749999,0.002567966
0.4759999,0.002601687
0.4769999,0.002629889
0.4779999,0.002662997
0.4789999,0.002706526
0.4799999,0.00274791
0.4809999,0.002796958
0.4819999,0.002850911
0.4829999,0.002907316
0.4839999,0.00297353
0.4849999,0.00307173
0.4859999,0.003148367
0.4869999,0.00322807
0.4879999,0.003316969
0.4889999,0.003421195
0.4899999,0.003522356
0.4909999,0.003635779
0.4919999,0.003761464
0.4929999,0.003890214
0.4939999,0.004031226
0.4949999,0.0041845
0.4959999,0.004337775
0.4969999,0.004506376
0.4979999,0.004684174
0.4989999,0.004871169
0.4999999,0.005067359
0.5009999,0.005266616
0.5019999,0.005481199
0.5029999,0.00570498
0.5039999,0.00592876
0.5049999,0.006173999
0.5059999,0.006416172
0.5069999,0.006679803
0.5079999,0.006934239
0.5089999,0.007200935
0.5099999,0.007486025
0.5109999,0.007761919
0.5119999,0.008053139
0.5129999,0.008359687
0.5139999,0.008657039
0.5149999,0.008963588
0.5159999,0.009288529
0.5169999,0.009601207
0.5179999,0.009923084
0.5189999,0.01025722
0.5199999,0.01058523
0.5209999,0.0109255
0.5219999,0.01126576
0.5229999,0.01161216
0.5239999,0.01197082
0.5249999,0.01232336
0.5259999,0.01267895
0.5269999,0.01304681
0.5279999,0.01340854
0.5289999,0.01377333
0.5299999,0.01415345
0.5309999,0.01452437
0.5319999,0.01490143
0.5329999,0.01528155
0.5339999,0.01566167
0.5349999,0.01604792
0.5359999,0.01642804
0.5369999,0.01682348
0.5379999,0.01721893
0.5389999,0.01760518
0.5399999,0.01801596
0.5409999,0.01840834
0.5419999,0.01880072
0.5429999,0.0192115
0.5439999,0.01960694
0.5449999,0.02001465
0.5459999,0.02042236
0.5469999,0.02082701
0.5479999,0.02124391
0.5489999,0.02165469
0.5499999,0.02206853
0.5509999,0.0224885
0.5519999,0.02290234
0.5529999,0.02331311
0.5539999,0.02373921
0.5549999,0.02415612
0.5559999,0.02457302
0.5569999,0.02500219
0.5579999,0.02542217
0.5589999,0.0258452
0.5599999,0.02627437
0.5609999,0.02670354
0.5619999,0.02712044
0.5629999,0.02755574
0.5639999,0.02798797
0.5649999,0.02840488
0.5659999,0.02884631
0.5669999,0.02927854
0.5679999,0.02970158
0.5689999,0.03014607
0.5699999,0.0313304
0.5709999,0.03175957
0.5719999,0.03218874
0.5729999,0.03264856
0.5739999,0.03307773
0.5749999,0.03350689
0.5759999,0.03396672
0.5769999,0.03439588
0.5779999,0.0348557
0.5789999,0.03531553
0.5799999,0.03574469
0.5809999,0.03617386
0.5819999,0.03663369
0.5829999,0.03709351
0.5839999,0.03752267
0.5849999,0.0379825
0.5859999,0.03847298
0.5869999,0.03890214
0.5879999,0.03936196
0.5889999,0.03982178
0.5899999,0.04025095
0.5909999,0.04071078
0.5919999,0.0411706
0.5929999,0.04159977
0.5939999,0.04205959
0.5949999,0.04251941
0.5959999,0.04297924
0.5969999,0.04343906
0.5979999,0.04389888
0.5989999,0.04432805
0.5999999,0.04478787
0.6009999,0.04524769
0.6019999,0.04570751
0.6029999,0.04619799
0.6039999,0.04662716
0.6049999,0.04708698
0.6059999,0.0475468
0.6069999,0.04800662
0.6079999,0.04846645
0.6089999,0.04892627
0.6099999,0.0493861
0.6109999,0.04984592
0.6119999,0.05030574
0.6129999,0.05073491
0.6139999,0.05122538
0.6149999,0.0516852
0.6159999,0.05214503
0.6169999,0.05260485
0.6179999,0.05306467
0.6189999,0.05352449
0.6199999,0.05401497
0.6209999,0.0544748
0.6219999,0.05493462
0.6229999,0.05539444
0.6239999,0.05585426
0.6249999,0.05628343
0.6259999,0.05677391
0.6269999,0.05723373
0.6279999,0.05769355
0.6289999,0.05815337
0.6299999,0.05864385
0.6309999,0.05907302
0.6319999,0.0595635
0.6329999,0.06002332
0.6339999,0.06048314
0.6349999,0.06094296
0.6359999,0.06140279
0.6369999,0.06186261
0.6379999,0.06232243
0.6389999,0.06281291
0.6399999,0.06324207
0.6409999,0.0637019
0.6419999,0.06419238
0.6429999,0.06462154
0.6439999,0.06511202
0.6449999,0.06557184
0.6459999,0.06603166
0.6469999,0.06649148
0.6479999,0.06698196
0.6489999,0.06744178
0.6499999,0.0679016
0.6509999,0.06839209
0.6519999,0.06885191
0.6529999,0.06931173
0.6539999,0.06980221
0.6549999,0.07029268
0.6559999,0.07078316
0.6569999,0.07124298
0.6579999,0.07173347
0.6589999,0.07222394
0.6599999,0.07268376
0.6609999,0.07317424
0.6619999,0.07366472
0.6629999,0.0741552
0.6639999,0.07461502
0.6649999,0.07510549
0.6659999,0.07562663
0.6669999,0.0761171
0.6679999,0.07660758
0.6689999,0.07709806
0.6699999,0.07758854
0.6709999,0.07807901
0.6719999,0.07856949
0.6729999,0.07905997
0.6739999,0.07955044
0.6749999,0.08004092
0.6759999,0.0805314
0.6769999,0.08102188
0.6779999,0.08151235
0.6789999,0.08200283
0.6799999,0.08249331
0.6809999,0.08298378
0.6819999,0.08347426
0.6829999,0.08396474
0.6839999,0.08445521
0.6849999,0.08494569
0.6859999,0.08543617
0.6869999,0.08592664
0.6879999,0.08641712
0.6889999,0.0869076
0.6899999,0.08736742
0.6909999,0.08788855
0.6919999,0.08837903
0.6929999,0.08883885
0.6939999,0.08935999
0.6949999,0.08985046
0.6959999,0.09031029
0.6969999,0.09083142
0.6979999,0.09129124
0.6989999,0.09175106
0.6999999,0.09193499
0.6990002,0.09144451
0.6980002,0.09095404
0.6970002,0.09049422
0.6960002,0.09000374
0.6950002,0.08951326
0.6940002,0.08905344
0.6930002,0.08856296
0.6920002,0.08807249
0.6910002,0.08761266
0.6900002,0.08712219
0.6890002,0.08663171
0.6880002,0.08620254
0.6870002,0.08571207
0.6860002,0.08522158
0.6850002,0.08476176
0.6840002,0.08427128
0.6830002,0.08381146
0.6820002,0.08332099
0.6810002,0.08286116
0.6800002,0.08240134
0.6790002,0.08191086
0.6780002,0.08145104
0.6770002,0.08096056
0.6760002,0.08050074
0.6750002,0.08004092
0.6740002,0.07955044
0.6730002,0.07909062
0.6720002,0.0786308
0.6710002,0.07814032
0.6700002,0.0776805
0.6690002,0.07722067
0.6680002,0.0767302
0.6670002,0.07623972
0.6660002,0.0757799
0.6650002,0.07532008
0.6640002,0.07486025
0.6630002,0.07440043
0.6620002,0.07390995
0.6610002,0.07341947
0.6600002,0.07299031
0.6590002,0.07249983
0.6580002,0.07204001
0.6570002,0.07158019
0.6560002,0.07108971
0.6550002,0.07062989
0.6540002,0.07017007
0.6530002,0.06967959
0.6520002,0.06921976
0.6510002,0.0687906
0.6500002,0.06830012
0.6490002,0.0678403
0.6480002,0.06738048
0.6470002,0.06688999
0.6460002,0.06646083
0.6450002,0.06597035
0.6440002,0.06551053
0.6430002,0.06508137
0.6420002,0.06459089
0.6410002,0.06413107
0.6400002,0.06367125
0.6390002,0.06321142
0.6380002,0.0627516
0.6370002,0.06229177
0.6360002,0.06183195
0.6350002,0.06134148
0.6340002,0.06088165
0.6330002,0.06042183
0.6320002,0.059962
0.6310002,0.05950218
0.6300002,0.05904236
0.6290002,0.05858254
0.6280002,0.05812272
0.6270002,0.05766289
0.6260002,0.05720307
0.6250002,0.05677391
0.6240002,0.05631408
0.6230002,0.05582361
0.6220002,0.05539444
0.6210002,0.05493462
0.6200002,0.0544748
0.6190002,0.05401497
0.6180002,0.05355515
0.6170002,0.05309533
0.6160002,0.0526355
0.6150002,0.05220634
0.6140002,0.05174651
0.6130002,0.05128669
0.6120002,0.05082687
0.6110002,0.05036705
0.6100002,0.04993788
0.6090002,0.04947806
0.6080002,0.04901823
0.6070002,0.04858907
0.6060002,0.04812925
0.6050002,0.04766942
0.6040002,0.04724025
0.6030002,0.04678043
0.6020002,0.04632061
0.6010002,0.04586079
0.6000002,0.04543162
0.5990002,0.0449718
0.5980002,0.04454263
0.5970002,0.04408281
0.5960002,0.04365364
0.5950002,0.04319382
0.5940002,0.04276465
0.5930002,0.04230483
0.5920002,0.04187566
0.5910002,0.04141584
0.5900002,0.04098667
0.5890002,0.0405575
0.5880002,0.04009768
0.5870002,0.03966851
0.5860002,0.03920869
0.5850002,0.03877952
0.5840002,0.03835035
0.5830002,0.03789053
0.5820002,0.03746137
0.5810002,0.0370322
0.5800002,0.03657238
0.5790002,0.03614321
0.5780002,0.03571404
0.5770002,0.03528487
0.5760002,0.0348557
0.5750002,0.03442654
0.5740002,0.03399737
0.5730002,0.0335682
0.5720002,0.03313904
0.5710002,0.03270987
0.5700002,0.0322807
0.5690002,0.03185153
0.5680002,0.03142237
0.5670002,0.0309932
0.5660002,0.03056403
0.5650002,0.03016552
0.5640002,0.02973635
0.5630002,0.02930718
0.5620002,0.02887801
0.5610002,0.0284795
0.5600002,0.02805033
0.5590002,0.02762116
0.5580002,0.02722265
0.5570002,0.02679349
0.5560002,0.02636432
0.5550002,0.0259658
0.5540002,0.02553664
0.5530002,0.02513812
0.5520002,0.02473961
0.5510002,0.02431045
0.5500002,0.02391193
0.5490002,0.02351342
0.5480002,0.02311491
0.5470002,0.02271639
0.5460002,0.02231788
0.5450002,0.02188871
0.5440002,0.0214902
0.5430002,0.02112234
0.5420002,0.02072383
0.5410002,0.02032532
0.5400002,0.01992681
0.5390002,0.01952829
0.5380002,0.01916043
0.5370002,0.01876192
0.5360002,0.01839406
0.5350002,0.01802621
0.5340002,0.01762769
0.5330002,0.01725983
0.5320002,0.01689198
0.5310002,0.01649346
0.5300002,0.01612561
0.5290002,0.01575775
0.5280002,0.01538989
0.5270002,0.01502203
0.5260002,0.01465417
0.5250002,0.01431697
0.5240002,0.01394911
0.5230002,0.01358126
0.5220002,0.01324405
0.5210002,0.01240306
0.5200002,0.01206279
0.5190002,0.01172252
0.5180002,0.01138532
0.5170002,0.01105425
0.5160002,0.01071704
0.5150002,0.01039517
0.5140002,0.01007023
0.5130002,0.009745286
0.5120002,0.009426476
0.5110002,0.009107665
0.5100002,0.008801118
0.5090002,0.008497634
0.5080002,0.008191085
0.5070002,0.0078968
0.5060002,0.007599448
0.5050002,0.007308227
0.5040002,0.007023137
0.5030002,0.006741113
0.5020002,0.006465219
0.5010002,0.006189326
0.5000002,0.005922629
0.4990002,0.005655932
0.4980002,0.005398431
0.4970002,0.005143996
0.4960002,0.004895692
0.4950002,0.004653519
0.4940002,0.004414412
0.4930002,0.004181435
0.4920002,0.003948458
0.4910002,0.003730809
0.4900002,0.00351316
0.4890002,0.003301642
0.4880002,0.00309932
0.4870002,0.002896998
0.4860002,0.002706938
0.4850002,0.002519943
0.4840002,0.002336015
0.4830002,0.002161282
0.4820002,0.001989615
0.4810002,0.001827144
0.4800002,0.001670805
0.4790002,0.001514465
0.4780002,0.001370388
0.4770002,0.001229375
0.4760002,0.001061588
0.4750002,0.0009371297
0.4740002,0.0008096057
0.4730002,0.0006915845
0.4720002,0.0005830665
0.4710002,0.0004711764
0.4700002,0.0003718548
0.4690002,0.000275292
0.4680002,0.0001802621
0.4670002,9.504164E-05
0.4660002,1.166051E-05
0.4650002,-7.326387E-05
0.4640002,-0.0001431262
0.4630002,-0.0002157475
0.4620002,-0.0002805211
0.4610002,-0.0003430158
0.4600002,-0.0004024862
0.4590002,-0.0004533732
0.4580002,-0.0005064061
0.4570002,-0.0005539211
0.4560002,-0.0005977575
0.4550002,-0.0006437397
0.4540002,-0.0006832844
0.4530002,-0.0007216029
0.4520002,-0.0007574691
0.4510002,-0.0007868978
0.4500002,-0.0008215377
0.4490002,-0.0008506598
0.4480002,-0.000877023
0.4470002,-0.000906145
0.4460002,-0.0009276034
0.4450002,-0.0009499814
0.4440002,-0.0009738922
0.4430002,-0.0009919786
0.4420002,-0.001012211
0.4410002,-0.00103183
0.4400002,-0.001044705
0.4390002,-0.001063098
0.4380002,-0.001077812
0.4370002,-0.0010913
0.4360002,-0.001106015
0.4350002,-0.001116131
0.4340002,-0.001130538
0.4330002,-0.001142494
0.4320002,-0.001151077
0.4310002,-0.001164259
0.4300002,-0.001172536
0.4290002,-0.001183878
0.4280002,-0.001195833
0.4270002,-0.001199818
0.4260002,-0.001211774
0.4250002,-0.001220051
0.4240002,-0.001224955
0.4230002,-0.001236604
0.4220002,-0.001243348
0.4210002,-0.001249479
0.4200002,-0.001260208
0.4190002,-0.001264193
0.4180002,-0.001271857
0.4170002,-0.001279521
0.4160002,-0.001285345
0.4150002,-0.001293929
0.4140002,-0.00129822
0.4130002,-0.001304964
0.4120002,-0.001313241
0.4110002,-0.001317226
0.4100002,-0.001331021
0.4090002,-0.001340217
0.4080002,-0.001341444
0.4070002,-0.001349107
0.4060002,-0.001351866
0.4050002,-0.00135861
0.4040002,-0.0013675
0.4030002,-0.001371179
0.4020002,-0.001378843
0.4010002,-0.001384974
0.4000002,-0.001388039
0.3990002,-0.001398462
0.3980002,-0.001403979
0.3970002,-0.001410417
0.3960002,-0.00141992
0.3950002,-0.001422372
0.3940002,-0.001430343
0.3930002,-0.001438926
0.3920002,-0.001442911
0.3910002,-0.001452414
0.3900002,-0.001460078
0.3890002,-0.001466515
0.3880002,-0.001474486
0.3870002,-0.00148031
0.3860002,-0.0014892
0.3850002,-0.001495944
0.3840002,-0.001502075
0.3830002,-0.001513724
0.3820002,-0.001517709
0.3810002,-0.001527518
0.3800002,-0.001537328
0.3790002,-0.001541926
0.3780002,-0.001553575
0.3770002,-0.001562465
0.3760002,-0.001567676
0.3750002,-0.001579632
0.3740002,-0.001587295
0.3730002,-0.001594959
0.3720002,-0.001606608
0.3710002,-0.001615498
0.3700002,-0.001624388
0.3690002,-0.001634197
0.3680002,-0.001642168
0.3670002,-0.001653816
0.3660002,-0.001663013
0.3650002,-0.001672822
0.3640002,-0.001684471
0.3630002,-0.001692135
0.3620002,-0.00170409
0.3610002,-0.001714819
0.3600002,-0.001723403
0.3590002,-0.001737198
0.3580002,-0.001748233
0.3570002,-0.001758349
0.3560002,-0.001771837
0.3550002,-0.001780114
0.3540002,-0.001793296
0.3530002,-0.001804025
0.3520002,-0.001815367
0.3510002,-0.001831001
0.3500002,-0.001840198
0.3490002,-0.001851233
0.3480002,-0.001866561
0.3470002,-0.00187637
0.3460002,-0.001891085
0.3450002,-0.001905493
0.3440002,-0.001914995
0.3430002,-0.001930629
0.3420002,-0.001942278
0.3410002,-0.00195546
0.3400002,-0.001970174
0.3390002,-0.001983356
0.3380002,-0.001997764
0.3370002,-0.002010945
0.3360002,-0.00202474
0.3350002,-0.00204068
0.3340002,-0.002052635
0.3330002,-0.00206643
0.3320002,-0.002081758
0.3310002,-0.002094326
0.3300002,-0.002110573
0.3290002,-0.002125287
0.3280002,-0.002137549
0.3270002,-0.002156862
0.3260002,-0.002169737
0.3250002,-0.002184145
0.3240002,-0.002201312
0.3230002,-0.00221388
0.3220002,-0.00223074
0.3210002,-0.002246374
0.3200002,-0.002260475
0.3190002,-0.002278868
0.3180002,-0.002292356
0.3170002,-0.002306457
0.3160002,-0.002323318
0.3150002,-0.002337726
0.3140002,-0.002355199
0.3130002,-0.002370526
0.3120002,-0.002383401
0.3110002,-0.0024021
0.3100002,-0.002414976
0.3090002,-0.002430916
0.3080002,-0.00244747
0.3070002,-0.002465863
0.3060002,-0.002481803
0.3050002,-0.002495904
0.3040002,-0.00250694
0.3030002,-0.002525639
0.3020002,-0.002539128
0.3010002,-0.002553229
0.3000002,-0.002570089
0.2990002,-0.002582964
0.2980002,-0.002597985
0.2970002,-0.002613006
0.2960002,-0.002625574
0.2950002,-0.002641515
0.2940002,-0.002656229
0.2930002,-0.002670637
0.2920002,-0.002684125
0.2910002,-0.002695467
0.2900002,-0.002711408
0.2890002,-0.002723057
0.2880002,-0.002736851
0.2870002,-0.002752792
0.2860002,-0.002761988
0.2850002,-0.002775476
0.2840002,-0.002789578
0.2830002,-0.00279908
0.2820002,-0.002811956
0.2810002,-0.002823605
0.2800002,-0.002832188
0.2790002,-0.002846289
0.2780002,-0.002856712
0.2770002,-0.002866828
0.2760002,-0.002879703
0.2750002,-0.002889819
0.2740002,-0.002899322
0.2730002,-0.002909744
0.2720002,-0.002918634
0.2710002,-0.002929057
0.2700002,-0.002937334
0.2690002,-0.002947756
0.2680002,-0.002956646
0.2670002,-0.002962471
0.2660002,-0.002971667
0.2650002,-0.002977798
0.2640002,-0.002984236
0.2630002,-0.002994965
0.2620002,-0.00299895
0.2610002,-0.003006614
0.2600002,-0.002979532
0.2590002,-0.002979532
0.2580002,-0.002985663
0.2570002,-0.002991794
0.2560002,-0.00299486
0.2550002,-0.003000991
0.2540002,-0.003004056
0.2530002,-0.003004056
0.2520002,-0.003013253
0.2510002,-0.003010187
0.2500002,-0.003013253
0.2490002,-0.003016318
0.2480002,-0.003016318
0.2470002,-0.003019383
0.2460002,-0.003019383
0.2450002,-0.003019383
0.2440002,-0.003019383
0.2430002,-0.003019383
0.2420002,-0.003019383
0.2410002,-0.003016318
0.2400002,-0.003013253
0.2390002,-0.003016318
0.2380002,-0.003010187
0.2370002,-0.003007122
0.2360002,-0.003007122
0.2350002,-0.003000991
0.2340002,-0.002997925
0.2330002,-0.002991794
0.2320002,-0.002985663
0.2310002,-0.002982598
0.2300002,-0.002973401
0.2290002,-0.00296727
0.2280002,-0.002964205
0.2270002,-0.002951943
0.2260002,-0.002945812
0.2250002,-0.002939681
0.2240002,-0.002930485
0.2230002,-0.002921288
0.2220002,-0.002912092
0.2210002,-0.00289983
0.2200002,-0.002890633
0.2190002,-0.002878371
0.2180002,-0.002869175
0.2170002,-0.002856913
0.2160002,-0.002844651
0.2150002,-0.002835455
0.2140002,-0.002820127
0.2130002,-0.0028048
0.2120002,-0.002795603
0.2110002,-0.00277721
0.2100002,-0.002761883
0.2090002,-0.002746556
0.2080002,-0.002728163
0.2070002,-0.002715901
0.2060002,-0.002697508
0.2050002,-0.00268218
0.2040002,-0.002666853
0.2030002,-0.002645395
0.2020002,-0.002627002
0.2010002,-0.002608609
0.2000002,-0.002587151
0.1990002,-0.002568757
0.1980002,-0.002547299
0.1970002,-0.002525841
0.1960002,-0.002504382
0.1950002,-0.002482924
0.1940002,-0.002461466
0.1930002,-0.002436942
0.1920002,-0.002415484
0.1910002,-0.002394025
0.1900002,-0.002369501
0.1890002,-0.002344977
0.1880002,-0.002323519
0.1870002,-0.00229593
0.1860002,-0.002274471
0.1850002,-0.002253013
0.1840002,-0.002222358
0.1830002,-0.002203965
0.1820002,-0.002176376
0.1810002,-0.002151852
0.1800002,-0.002127328
0.1790002,-0.002099739
0.1780002,-0.002075215
0.1770002,-0.002050691
0.1760002,-0.002023102
0.1750002,-0.001998578
0.1740002,-0.001970988
0.1730002,-0.001946465
0.1720002,-0.001921941
0.1710002,-0.001894351
0.1700002,-0.001869828
0.1690002,-0.001845304
0.1680002,-0.001817714
0.1670002,-0.001796256
0.1660002,-0.001768667
0.1650002,-0.001744143
0.1640002,-0.001719619
0.1630002,-0.00169203
0.1620002,-0.001667506
0.1610002,-0.001642982
0.1600002,-0.001618458
0.1590002,-0.001597
0.1580002,-0.001607528
0.1570002,-0.001582084
0.1560002,-0.001559706
0.1550002,-0.001535489
0.1540002,-0.001513417
0.1530002,-0.001491039
0.1520002,-0.001466822
0.1510002,-0.001445364
0.1500002,-0.001422985
0.1490002,-0.001400914
0.1480002,-0.001380375
0.1470002,-0.00135861
0.1460002,-0.001337459
0.1450002,-0.001317533
0.1440002,-0.001296381
0.1430002,-0.001277682
0.1420002,-0.00125745
0.1410002,-0.001238443
0.1400002,-0.001220357
0.1390002,-0.001200738
0.1380002,-0.001182652
0.1370002,-0.001164872
0.1360002,-0.001145866
0.1350002,-0.001130232
0.1340002,-0.001112759
0.1330002,-0.001095285
0.1320002,-0.001080264
0.1310002,-0.001063404
0.1300002,-0.001047464
0.1290002,-0.001032443
0.1280002,-0.001015583
0.1270002,-0.001002401
0.1260002,-0.0009876869
0.1250002,-0.0009723594
0.1240002,-0.000959791
0.1230002,-0.0009456897
0.1220002,-0.000931895
0.1210002,-0.0009196331
0.1200002,-0.0009055319
0.1190002,-0.0008935765
0.1180002,-0.0008816211
0.1170002,-0.0008687461
0.1160002,-0.0008574039
0.1150002,-0.000845755
0.1140002,-0.0008344128
0.1130002,-0.0008236835
0.1120002,-0.0008120347
0.1110002,-0.0008019186
0.1100002,-0.000791496
0.1090002,-0.0007810733
0.1080002,-0.0007718769
0.1070002,-0.0007614543
0.1060002,-0.0007522578
0.1050002,-0.0007430614
0.1040002,-0.0007329452
0.1030002,-0.000724975
0.1020002,-0.0007160851
0.1010002,-0.0007065821
0.1000002,-0.0006992249
0.09900019,-0.0006906416
0.09800019,-0.0006823648
0.09700019,-0.0006750076
0.09600019,-0.0006664242
0.09500019,-0.0006590671
0.09400019,-0.0006520165
0.09300019,-0.0006443528
0.09200019,-0.0006376088
0.09100019,-0.0006302515
0.09000019,-0.0006235075
0.08900019,-0.00061707
0.08800019,-0.0006100194
0.08700019,-0.0006038884
0.08600019,-0.0005977575
0.08500019,-0.0005910134
0.08400019,-0.0005854955
0.08300019,-0.0005793645
0.08200019,-0.0005735401
0.08100019,-0.0005683288
0.08000019,-0.0005618913
0.07900019,-0.0005569865
0.07800019,-0.0005520818
0.07700019,-0.0005462574
0.07600019,-0.0005419657
0.07500019,-0.0005364478
0.07400019,-0.000531543
0.07300019,-0.0005272513
0.07200019,-0.00052204
0.07100019,-0.0005174418
0.07000019,-0.0005131501
0.06900019,-0.0005082454
0.06800019,-0.0005045668
0.06700019,-0.0004999685
0.06600019,-0.0004956769
0.06500019,-0.0004919983
0.06400019,-0.0004880132
0.06300019,-0.0004840281
0.06200019,-0.0004800429
0.06100019,-0.0004760578
0.06000019,-0.0004729923
0.05900019,-0.0004693137
0.05800019,-0.0004656352
0.05700019,-0.0004625697
0.05600019,-0.0004585845
0.05500019,-0.0004555191
0.05400019,-0.0004527601
0.05300019,-0.0004490816
0.05200019,-0.0004463226
0.05100019,-0.0004432572
0.05000019,-0.0004398851
0.04900019,-0.0004371261
0.04800019,-0.0004337541
0.04700019,-0.0004309952
0.04600019,-0.0004282363
0.04500019,-0.0004251708
0.04400019,-0.0004224119
0.04300019,-0.0004193464
0.04200019,-0.000416894
0.04100019,-0.0004141351
0.04000019,-0.0004113761
0.03900019,-0.0004092303
0.03800019,-0.0004061648
0.03700019,-0.0004037124
0.03600019,-0.0004015666
0.03500019,-0.0003988076
0.03400019,-0.0003963552
0.03300019,-0.0003942094
0.03200019,-0.0003914505
0.03100019,-0.0003896112
0.03000019,-0.0003874653
0.02900019,-0.0003850129
0.02800019,-0.0003831737
0.02700019,-0.0003810278
0.02600019,-0.0003785754
0.02500019,-0.0003767362
0.02400019,-0.0003748969
0.02300019,-0.000372751
0.02200019,-0.0003712183
0.02100019,-0.0003690725
0.02000019,-0.0003675397
0.01900019,-0.0003657004
0.01800019,-0.0003638611
0.01700019,-0.0003623284
0.01600019,-0.0003604891
0.01500019,-0.0003589563
0.01400019,-0.0003577302
0.01300019,-0.0003558909
0.01200019,-0.0003543581
0.01100019,-0.0003528254
0.01000019,-0.0003512927
0.009000191,-0.0003500664
0.00800019,-0.0003482272
0.007000191,-0.000347001
0.006000191,-0.0003457748
0.005000191,-0.000344242
0.004000191,-0.0003430158
0.003000191,-0.0003414831
0.002000191,-0.0003402569
0.001000191,-0.0003390307
1.907349E-07,-0.0003255426
0.0009998092,-0.0003132806
0.001999809,-0.0003053104
0.002999809,-0.0002985664
0.003999809,-0.0002927419
0.004999809,-0.0002872241
0.005999809,-0.0002823193
0.006999809,-0.0002777211
0.007999809,-0.0002731228
0.00899981,-0.0002685246
0.009999809,-0.0002645395
0.01099981,-0.0002605543
0.01199981,-0.0002562627
0.01299981,-0.0002525841
0.01399981,-0.0002489055
0.01499981,-0.0002449204
0.01599981,-0.0002415484
0.01699981,-0.0002378698
0.01799981,-0.0002344978
0.01899981,-0.0002311257
0.01999981,-0.0002277537
0.02099981,-0.0002243817
0.02199981,-0.0002213162
0.02299981,-0.0002179441
0.02399981,-0.0002148787
0.02499981,-0.0002118132
0.02599981,-0.0002087477
0.02699981,-0.0002059888
0.02799981,-0.0002026167
0.02899981,-0.0001995512
0.02999981,-0.0001967923
0.03099981,-0.0001937268
0.03199981,-0.0001906613
0.03299981,-0.000188209
0.03399981,-0.0001851435
0.03499981,-0.0001823845
0.03599981,-0.0001796256
0.03699981,-0.0001768667
0.03799981,-0.0001738012
0.03899981,-0.0001710423
0.03999981,-0.0001685899
0.04099981,-0.0001655244
0.04199981,-0.000163072
0.04299981,-0.0001606196
0.04399981,-0.0001575541
0.04499981,-0.0001551017
0.04599981,-0.0001555721
0.04699981,-0.0001528744
0.04799981,-0.0001504221
0.04899981,-0.0001478777
0.04999981,-0.0001449962
0.05099981,-0.0001426664
0.05199981,-0.0001398155
0.05299981,-0.0001372405
0.05399981,-0.0001349414
0.05499981,-0.0001320292
0.05599981,-0.0001294542
0.05699981,-0.0001271244
0.05799981,-0.0001244574
0.05899981,-0.0001218824
0.05999981,-0.0001193381
0.06099981,-0.0001167937
0.06199981,-0.000114372
0.06299981,-0.0001116131
0.06399981,-0.0001090687
0.06499981,-0.0001065244
0.06599981,-0.0001038574
0.06699981,-0.0001015276
0.06799981,-9.858475E-05
0.06899981,-9.622433E-05
0.06999981,-9.364932E-05
0.07099981,-9.082907E-05
0.07199981,-8.852997E-05
0.07299981,-8.583234E-05
0.07399981,-8.295078E-05
0.07499981,-8.07743E-05
0.07599981,-7.764751E-05
0.07699981,-7.516446E-05
0.07799981,-7.280405E-05
0.07899981,-6.979987E-05
0.07999981,-6.725552E-05
0.08099981,-6.471117E-05
0.08199981,-6.173765E-05
0.08299981,-5.910133E-05
0.08399981,-5.612781E-05
0.08499981,-5.321561E-05
0.08599981,-5.060995E-05
0.08699981,-4.751381E-05
0.08799981,-4.472422E-05
0.08899981,-4.172005E-05
0.08999981,-3.862391E-05
0.09099981,-3.595694E-05
0.09199981,-3.255426E-05
0.09299981,-2.945812E-05
0.09399981,-2.666853E-05
0.09499981,-2.320453E-05
0.09599981,-2.013905E-05
0.09699981,-1.69816E-05
0.09799981,-1.336434E-05
0.09899981,-1.042147E-05
0.09999981,-6.620275E-06
0.1009998,-3.585447E-06
0.1019998,1.306012E-06
0.1029998,4.549293E-06
0.1039998,7.887604E-06
0.1049998,1.133934E-05
0.1059998,1.521411E-05
0.1069998,1.83021E-05
0.1079998,2.219526E-05
0.1089998,2.584318E-05
0.1099998,2.946045E-05
0.1109998,3.387475E-05
0.1119998,3.761464E-05
0.1129998,4.169173E-05
0.1139998,4.613668E-05
0.1149998,5.012181E-05
0.1159998,5.481199E-05
0.1169998,5.913433E-05
0.1179998,6.327272E-05
0.1189998,6.830012E-05
0.1199998,7.274507E-05
0.1209998,7.743525E-05
0.1219998,8.243199E-05
0.1229998,8.675433E-05
0.1239998,9.224153E-05
0.1249998,9.720762E-05
0.1259998,0.000102143
0.1269998,0.0001076916
0.1279998,0.0001126576
0.1289998,0.0001179916
0.1299998,0.0001240612
0.1309998,0.0001292726
0.1319998,0.0001355875
0.1329998,0.0001411053
0.1339998,0.0001471137
0.1349998,0.0001536738
0.1359998,0.0001594369
0.1369998,0.0001659664
0.1379998,0.0001726798
0.1389998,0.0001785962
0.1399998,0.0001861679
0.1409998,0.0001931572
0.1419998,0.0001995028
0.1429998,0.0002073811
0.1439998,0.0002140945
0.1449998,0.0002216355
0.1459998,0.0002296365
0.1469998,0.0002369017
0.1479998,0.000245485
0.1489998,0.000253394
0.1499998,0.0002610883
0.1509998,0.0002699169
0.1519998,0.0002780711
0.1529998,0.000286961
0.1539998,0.0003001224
0.1549998,0.0003077862
0.1559998,0.0003172891
0.1569998,0.0003261791
0.1579998,0.000335682
0.1589998,0.0003461047
0.1599998,0.0003553011
0.1609998,0.0003654172
0.1619998,0.0003761464
0.1629998,0.0003859559
0.1639998,0.0003972982
0.1649998,0.0004077209
0.1659998,0.0004184501
0.1669998,0.000430712
0.1679998,0.0004411346
0.1689998,0.0004527835
0.1699998,0.0004650454
0.1709998,0.0004763877
0.1719998,0.0004895693
0.1729998,0.0005015247
0.1739998,0.00051348
0.1749998,0.0005269682
0.1759998,0.0005395366
0.1769998,0.0005530248
0.1779998,0.0005662063
0.1789998,0.0005790814
0.1799998,0.0005944088
0.1809998,0.0006072838
0.1819998,0.000621385
0.1829998,0.000637019
0.1839998,0.0006502006
0.1849998,0.0006658345
0.1859998,0.0006811619
0.1869998,0.0006952632
0.1879998,0.0007124299
0.1889998,0.0007274507
0.1899998,0.0007421651
0.1909998,0.0007593317
0.1919998,0.0007758854
0.1929998,0.000792439
0.1939998,0.0008089925
0.1949998,0.0008249331
0.1959998,0.0008430194
0.1969998,0.0008595731
0.1979998,0.0008770463
0.1989998,0.0008951327
0.1999998,0.0009116862
0.2009998,0.0009300791
0.2019998,0.0009487786
0.2029998,0.0009653322
0.2039998,0.000985871
0.2049998,0.001005183
0.2059998,0.001022657
0.2069998,0.001043195
0.2079998,0.001060056
0.2089998,0.001079675
0.2099998,0.0010996
0.2109998,0.00111738
0.2119998,0.001139145
0.2129998,0.001157231
0.2139998,0.001175931
0.2149998,0.001197696
0.2159998,0.001215782
0.2169998,0.001236627
0.2179998,0.001257779
0.2189998,0.001276479
0.2199998,0.001298244
0.2209998,0.001317863
0.2219998,0.001338095
0.2229998,0.001358634
0.2239998,0.001378866
0.2249998,0.001400018
0.2259998,0.001420556
0.2269998,0.001440482
0.2279998,0.00146378
0.2289998,0.001481253
0.2299998,0.001501792
0.2309998,0.001523863
0.2319998,0.001542256
0.2329998,0.001564327
0.2339998,0.00158456
0.2349998,0.001603566
0.2359998,0.001627476
0.2369998,0.001646789
0.2379998,0.001666408
0.2389998,0.001688173
0.2399998,0.001705953
0.2409998,0.001727411
0.2419998,0.001747643
0.2429998,0.001766956
0.2439998,0.001788721
0.2449998,0.001806501
0.2459998,0.001826426
0.2469998,0.001846658
0.2479998,0.001863519
0.2489998,0.001884977
0.2499998,0.001903063
0.2509998,0.001920843
0.2519998,0.001942302
0.2529998,0.001957936
0.2539998,0.001977248
0.2549998,0.001996254
0.2559998,0.002013421
0.2569998,0.00203304
0.2579998,0.002050207
0.2589998,0.002065227
0.2599998,0.00208546
0.2609998,0.002100787
0.2619998,0.002116421
0.2629998,0.002135427
0.2639998,0.002149222
0.2649998,0.002165776
0.2659998,0.002182329
0.2669998,0.002195511
0.2679998,0.002213903
0.2689998,0.002229231
0.2699998,0.002243025
0.2709998,0.00225866
0.2719998,0.002271228
0.2729998,0.002287168
0.2739998,0.002300043
0.2749998,0.002313225
0.2759998,0.002329472
0.2769998,0.002339588
0.2779998,0.002353383
0.2789998,0.002367484
0.2799998,0.00237668
0.2809998,0.002391088
0.2819998,0.00240335
0.2829998,0.002412853
0.2839998,0.002427567
0.2849998,0.00243707
0.2859998,0.002447493
0.2869998,0.002460062
0.2879998,0.002470484
0.2889998,0.00248244
0.2899998,0.002492556
0.2909998,0.002501752
0.2919998,0.002514627
0.2929998,0.002521371
0.2939998,0.002532714
0.2949998,0.002543136
0.2959998,0.002549267
0.2969998,0.002561529
0.2979998,0.002567966
0.2989998,0.002575324
0.2999998,0.002588199
0.3009998,0.002592797
0.3019998,0.00260138
0.3029998,0.00261119
0.3039998,0.002613949
0.3049998,0.002625904
0.3059998,0.002633261
0.3069998,0.002642458
0.3079998,0.002654413
0.3089998,0.002657479
0.3099998,0.00266177
0.3109998,0.002670354
0.3119998,0.002674952
0.3129998,0.002681083
0.3139998,0.002688747
0.3149998,0.002692425
0.3159998,0.002699476
0.3169998,0.002704381
0.3179998,0.002709285
0.3189998,0.00271419
0.3199998,0.002720321
0.3209998,0.002727372
0.3219998,0.00273013
0.3229998,0.002734422
0.3239998,0.002742086
0.3249998,0.002741473
0.3259998,0.002748524
0.3269998,0.002754348
0.3279998,0.002752815
0.3289998,0.002760173
0.3299998,0.00276569
0.3309998,0.002763544
0.3319998,0.002770902
0.3329998,0.002772434
0.3339998,0.002772741
0.3349998,0.002779485
0.3359998,0.002779485
0.3369998,0.002782244
0.3379998,0.002786229
0.3389998,0.002788988
0.3399998,0.002792053
0.3409998,0.002792973
0.3419998,0.002794812
0.3429998,0.002795732
0.3439998,0.002795425
0.3449998,0.002800637
0.3459998,0.002800024
0.3469998,0.002800943
0.3479998,0.002804315
0.3489998,0.00280033
0.3499998,0.002804009
0.3509998,0.002805235
0.3519998,0.002802476
0.3529998,0.002806155
0.3539998,0.002805542
0.3549998,0.002802169
0.3559998,0.002806155
0.3569998,0.00280125
0.3579998,0.00280125
0.3589998,0.002805235
0.3599998,0.00279941
0.3609998,0.002799717
0.3619998,0.002800024
0.3629998,0.002795732
0.3639998,0.002795119
0.3649998,0.002793586
0.3659998,0.002791747
0.3669998,0.002788068
0.3679998,0.002785309
0.3689998,0.002784696
0.3699998,0.002780405
0.3709998,0.002779485
0.3719998,0.002779178
0.3729998,0.002772434
0.3739998,0.002769982
0.3749998,0.002768449
0.3759998,0.002760479
0.3769998,0.002760173
0.3779998,0.002758333
0.3789998,0.002751283
0.3799998,0.002750669
0.3809998,0.002744538
0.3819998,0.00273902
0.3829998,0.002736262
0.3839998,0.002728598
0.3849998,0.002726452
0.3859998,0.002721854
0.3869998,0.002715723
0.3879998,0.002714497
0.3889998,0.00270622
0.3899998,0.002702235
0.3909998,0.002700089
0.3919998,0.002689666
0.3929998,0.002688134
0.3939998,0.002682616
0.3949998,0.002674339
0.3959998,0.002673113
0.3969998,0.002665143
0.3979998,0.002659624
0.3989998,0.002656559
0.3999998,0.002646136
0.4009998,0.002642764
0.4019998,0.002636327
0.4029998,0.002628663
0.4039998,0.002626824
0.4049998,0.002617628
0.4059998,0.00261027
0.4069998,0.002606898
0.4079998,0.002597089
0.4089998,0.002595556
0.4099998,0.002596782
0.4109998,0.002586053
0.4119998,0.002580228
0.4129998,0.002570726
0.4139998,0.002563675
0.4149998,0.002556931
0.4159998,0.002549267
0.4169998,0.002545282
0.4179998,0.002536086
0.4189998,0.002529955
0.4199998,0.002526889
0.4209998,0.00251524
0.4219998,0.002510642
0.4229998,0.00250635
0.4239998,0.002494395
0.4249998,0.002491636
0.4259998,0.002485811
0.4269998,0.002475695
0.4279998,0.002473243
0.4289998,0.002466499
0.4299998,0.002458529
0.4309998,0.002454237
0.4319998,0.002445654
0.4329998,0.002440749
0.4339998,0.002434311
0.4349998,0.002426648
0.4359998,0.002424195
0.4369998,0.002415305
0.4379998,0.002411014
0.4389998,0.002406416
0.4399998,0.002397526
0.4409998,0.002395993
0.4419998,0.002390475
0.4429998,0.002382505
0.4439998,0.002380666
0.4449998,0.002373002
0.4459998,0.002369017
0.4469998,0.002366258
0.4479998,0.002361353
0.4489998,0.002358901
0.4499998,0.002353689
0.4509998,0.002349398
0.4519998,0.002348785
0.4529998,0.00234388
0.4539998,0.002342347
0.4549998,0.002341734
0.4559998,0.002338975
0.4569998,0.002339282
0.4579998,0.002338362
0.4589998,0.002338362
0.4599998,0.002340815
0.4609998,0.002343573
0.4619998,0.002344799
0.4629998,0.002350931
0.4639998,0.002353689
0.4649998,0.00236166
0.4659998,0.002367791
0.4669998,0.002376067
0.4679998,0.002390475
0.4689998,0.002399978
0.4699998,0.002413773
0.4709998,0.002432779
0.4719998,0.002448413
0.4729998,0.002473856
0.4739998,0.002498687
0.4749998,0.002522904
0.4759998,0.002557237
0.4769998,0.002589731
0.4779998,0.002627437
0.4789998,0.002673113
0.4799998,0.002718788
0.4809998,0.002774274
0.4819998,0.002831292
0.4829998,0.002893827
0.4839998,0.002968932
0.4849998,0.00307173
0.4859998,0.003154498
0.4869998,0.003246463
0.4879998,0.003341493
0.4889998,0.00345185
0.4899998,0.003568338
0.4909998,0.003687892
0.4919998,0.003825839
0.4929998,0.003966851
0.4939998,0.00411706
0.4949998,0.00427953
0.4959998,0.004445066
0.4969998,0.00462593
0.4979998,0.00481599
0.4989998,0.005012181
0.4999998,0.005220633
0.5009998,0.005435218
0.5019998,0.005662063
0.5029998,0.005898105
0.5039998,0.006134147
0.5049998,0.006388582
0.5059998,0.006646083
0.5069998,0.006909714
0.5079998,0.007188674
0.5089998,0.007461501
0.5099998,0.007752722
0.5109998,0.008047008
0.5119998,0.008347426
0.5129998,0.008657039
0.5139998,0.008966654
0.5149998,0.009282398
0.5159998,0.009610405
0.5169998,0.00993228
0.5179998,0.01026335
0.5189998,0.01060669
0.5199998,0.01094389
0.5209998,0.01129029
0.5219998,0.01163975
0.5229998,0.01198922
0.5239998,0.01235094
0.5249998,0.01271574
0.5259998,0.01307746
0.5269998,0.01344532
0.5279998,0.01381931
0.5289998,0.0141933
0.5299998,0.01456422
0.5309998,0.01495047
0.5319998,0.01533059
0.5329998,0.01571072
0.5339998,0.0161031
0.5349998,0.01648935
0.5359998,0.0168756
0.5369998,0.01727718
0.5379998,0.01766649
0.5389998,0.01806501
0.5399998,0.01846965
0.5409998,0.01887123
0.5419998,0.01926974
0.5429998,0.01968358
0.5439998,0.02008822
0.5449998,0.02049287
0.5459998,0.02091284
0.5469998,0.02131442
0.5479998,0.02173132
0.5489998,0.02214823
0.5499998,0.022559
0.5509998,0.02297897
0.5519998,0.02340201
0.5529998,0.02381585
0.5539998,0.02424195
0.5549998,0.02466499
0.5559998,0.0250819
0.5569998,0.02551106
0.5579998,0.02594023
0.5589998,0.02636633
0.5599998,0.02678937
0.5609998,0.0272216
0.5619998,0.02765077
0.5629998,0.02807687
0.5639998,0.0285183
0.5649998,0.02895053
0.5659998,0.02937357
0.5669998,0.02982113
0.5679998,0.03024723
0.5689998,0.03142237
0.5699998,0.03188219
0.5709998,0.0322807
0.5719998,0.03274052
0.5729998,0.03320035
0.5739998,0.03362951
0.5749998,0.03408933
0.5759998,0.0345185
0.5769998,0.03497833
0.5779998,0.03543815
0.5789998,0.03586731
0.5799998,0.03632713
0.5809998,0.0367563
0.5819998,0.03721613
0.5829998,0.03767595
0.5839998,0.03813577
0.5849998,0.03859559
0.5859998,0.03902476
0.5869998,0.03948459
0.5879998,0.03994441
0.5889998,0.04040423
0.5899998,0.04086405
0.5909998,0.04132387
0.5919998,0.04175304
0.5929998,0.04221286
0.5939998,0.04270334
0.5949998,0.04313251
0.5959998,0.04359233
0.5969998,0.04405215
0.5979998,0.04451197
0.5989998,0.0449718
0.5999998,0.04546228
0.6009998,0.04589145
0.6019998,0.04638192
0.6029998,0.04684174
0.6039998,0.04727091
0.6049998,0.04776139
0.6059998,0.04822121
0.6069998,0.04865038
0.6079998,0.04914085
0.6089998,0.04960068
0.6099998,0.0500605
0.6109998,0.05052032
0.6119998,0.05098015
0.6129998,0.05143997
0.6139998,0.05189979
0.6149998,0.05239027
0.6159998,0.05285009
0.6169998,0.05330991
0.6179998,0.05376973
0.6189998,0.05426021
0.6199998,0.05472003
0.6209998,0.05517985
0.6219998,0.05563968
0.6229998,0.05613015
0.6239998,0.05658998
0.6249998,0.0570498
0.6259998,0.05754028
0.6269998,0.0580001
0.6279998,0.05845992
0.6289998,0.05891975
0.6299998,0.05941022
0.6309998,0.05987004
0.6319998,0.06032987
0.6329998,0.06082034
0.6339998,0.06128017
0.6349998,0.06173999
0.6359998,0.06223046
0.6369998,0.06272095
0.6379998,0.06318077
0.6389998,0.06367125
0.6399998,0.06413107
0.6409998,0.06462154
0.6419998,0.06508137
0.6429998,0.06554119
0.6439998,0.06603166
0.6449998,0.06649148
0.6459998,0.06698196
0.6469998,0.06744178
0.6479998,0.06793226
0.6489998,0.06839209
0.6499998,0.06888256
0.6509998,0.06934239
0.6519998,0.06983286
0.6529998,0.07032334
0.6539998,0.07078316
0.6549998,0.07127364
0.6559998,0.07173347
0.6569998,0.07222394
0.6579998,0.07271441
0.6589998,0.07317424
0.6599998,0.07366472
0.6609998,0.0741552
0.6619998,0.07461502
0.6629998,0.07510549
0.6639998,0.07556532
0.6649998,0.07605579
0.6659998,0.07654627
0.6669998,0.07703675
0.6679998,0.07749657
0.6689998,0.07798705
0.6699998,0.07847752
0.6709998,0.07893734
0.6719998,0.07942782
0.6729998,0.0799183
0.6739998,0.08037812
0.6749998,0.08086859
0.6759998,0.08135908
0.6769998,0.0818189
0.6779998,0.08230938
0.6789998,0.08279985
0.6799998,0.08325968
0.6809998,0.08375015
0.6819998,0.08424063
0.6829998,0.08470046
0.6839998,0.08522158
0.6849998,0.08568141
0.6859998,0.08614123
0.6869998,0.08666236
0.6879998,0.08712219
0.6889998,0.08761266
0.6899998,0.08810314
0.6909998,0.08859362
0.6919998,0.0890841
0.6929998,0.08954392
0.6939998,0.09003439
0.6949998,0.09052487
0.6959998,0.09101535
0.6969998,0.09150583
0.6979998,0.09196565
0.6989998,0.09248678
0.6999998,0.09264006
0.6990003,0.09211892
0.6980003,0.0916591
0.6970003,0.09116862
0.6960003,0.09067815
0.6950003,0.09021832
0.6940003,0.08972784
0.6930003,0.08923737
0.6920003,0.0888082
0.6910003,0.08831772
0.6900003,0.08785789
0.6890003,0.08736742
0.6880003,0.0869076
0.6870003,0.08641712
0.6860003,0.08592664
0.6850003,0.08549748
0.6840003,0.08497635
0.6830003,0.08451653
0.6820003,0.0840567
0.6810003,0.08359688
0.6800003,0.0831064
0.6790003,0.08264658
0.6780003,0.08215611
0.6770003,0.08169628
0.6760003,0.08123646
0.6750003,0.08074598
0.6740003,0.08031681
0.6730003,0.07982634
0.6720003,0.07936651
0.6710003,0.07887604
0.6700003,0.07844687
0.6690003,0.07792573
0.6680003,0.07746591
0.6670003,0.07700609
0.6660003,0.07651561
0.6650003,0.07605579
0.6640003,0.07559597
0.6630003,0.07510549
0.6620003,0.07464567
0.6610003,0.07418585
0.6600003,0.07369537
0.6590003,0.07323555
0.6580003,0.07277572
0.6570003,0.07228525
0.6560003,0.07182543
0.6550003,0.0713656
0.6540003,0.07087513
0.6530003,0.0704153
0.6520003,0.06995548
0.6510003,0.069465
0.6500003,0.06900518
0.6490003,0.06854536
0.6480003,0.06808554
0.6470003,0.06762572
0.6460003,0.0671659
0.6450003,0.06667542
0.6440003,0.0662156
0.6430003,0.06575577
0.6420003,0.06529595
0.6410003,0.06483613
0.6400003,0.0643763
0.6390003,0.06388583
0.6380003,0.06345665
0.6370003,0.06299683
0.6360003,0.06250636
0.6350003,0.06204654
0.6340003,0.06158672
0.6330003,0.06112689
0.6320003,0.06063641
0.6310003,0.06020725
0.6300003,0.05974742
0.6290003,0.05925695
0.6280003,0.05882778
0.6270003,0.05836796
0.6260003,0.05787748
0.6250003,0.05741766
0.6240003,0.05698849
0.6230003,0.05649801
0.6220003,0.05606885
0.6210003,0.05560903
0.6200003,0.05511854
0.6190003,0.05468938
0.6180003,0.05422956
0.6170003,0.05376973
0.6160003,0.05330991
0.6150003,0.05285009
0.6140003,0.05239027
0.6130003,0.05189979
0.6120003,0.05147062
0.6110003,0.0510108
0.6100003,0.05055097
0.6090003,0.05012181
0.6080003,0.04966199
0.6070003,0.04920216
0.6060003,0.048773
0.6050003,0.04828252
0.6040003,0.04785335
0.6030003,0.04739353
0.6020003,0.04693371
0.6010003,0.04650454
0.6000003,0.04604472
0.5990003,0.04558489
0.5980003,0.04515573
0.5970003,0.04469591
0.5960003,0.04423608
0.5950003,0.04380691
0.5940003,0.04334709
0.5930003,0.04291793
0.5920003,0.04248876
0.5910003,0.04202893
0.5900003,0.04156911
0.5890003,0.04113995
0.5880003,0.04068012
0.5870003,0.04025095
0.5860003,0.03982178
0.5850003,0.03936196
0.5840003,0.0389328
0.5830003,0.03850363
0.5820003,0.03804381
0.5810003,0.03761464
0.5800003,0.03715482
0.5790003,0.03672565
0.5780003,0.03629648
0.5770003,0.03586731
0.5760003,0.03543815
0.5750003,0.03497833
0.5740003,0.03454916
0.5730003,0.03411999
0.5720003,0.03369082
0.5710003,0.03326165
0.5700003,0.03283248
0.5690003,0.03240332
0.5680003,0.03200481
0.5670003,0.03154498
0.5660003,0.03111582
0.5650003,0.0307173
0.5640003,0.03025748
0.5630003,0.02982831
0.5620003,0.0294298
0.5610003,0.02900063
0.5600003,0.02857147
0.5590003,0.02817295
0.5580003,0.02774378
0.5570003,0.02731462
0.5560003,0.02691611
0.5550003,0.02648694
0.5540003,0.02608843
0.5530003,0.02565926
0.5520003,0.02526074
0.5510003,0.02486223
0.5500003,0.02443307
0.5490003,0.02403455
0.5480003,0.02360538
0.5470003,0.02320687
0.5460003,0.02280836
0.5450003,0.02240985
0.5440003,0.02201133
0.5430003,0.02161282
0.5420003,0.02121431
0.5410003,0.0208158
0.5400003,0.02041728
0.5390003,0.02001877
0.5380003,0.01962026
0.5370003,0.0192524
0.5360003,0.01885389
0.5350003,0.01848603
0.5340003,0.01811817
0.5330003,0.01771966
0.5320003,0.0173518
0.5310003,0.01695329
0.5300003,0.01658543
0.5290003,0.01621757
0.5280003,0.01584971
0.5270003,0.0154512
0.5260003,0.015114
0.5250003,0.01474614
0.5240003,0.01437828
0.5230003,0.01401042
0.5220003,0.01364256
0.5210003,0.01330536
0.5200003,0.01247357
0.5190003,0.0121241
0.5180003,0.01178383
0.5170003,0.01144663
0.5160003,0.01110636
0.5150003,0.01078142
0.5140003,0.01044728
0.5130003,0.01012234
0.5120003,0.009794333
0.5110003,0.009475523
0.5100003,0.009159779
0.5090003,0.008850165
0.5080003,0.008540551
0.5070003,0.008237069
0.5060003,0.007936651
0.5050003,0.0076393
0.5040003,0.007345013
0.5030003,0.007056858
0.5020003,0.006771768
0.5010003,0.006492809
0.5000003,0.006216915
0.4990003,0.005947153
0.4980003,0.005680456
0.4970003,0.00541989
0.4960003,0.005165454
0.4950003,0.004911019
0.4940003,0.004668847
0.4930003,0.004426674
0.4920003,0.004187566
0.4910003,0.003963786
0.4900003,0.003733875
0.4890003,0.003516225
0.4880003,0.003304707
0.4870003,0.003096254
0.4860003,0.002893932
0.4850003,0.002700807
0.4840003,0.002507681
0.4830003,0.002326818
0.4820003,0.002145954
0.4810003,0.001974287
0.4800003,0.001808751
0.4790003,0.001646281
0.4780003,0.001496072
0.4770003,0.001345864
0.4760003,0.00119872
0.4750003,0.001035838
0.4740003,0.0009031029
0.4730003,0.0007761919
0.4720003,0.0006609298
0.4710003,0.0005441349
0.4700003,0.0004362299
0.4690003,0.0003320035
0.4680003,0.0002317622
0.4670003,0.0001394912
0.4660003,5.028559E-05
0.4650003,-3.905308E-05
0.4640003,-0.0001162113
0.4630003,-0.0001931549
0.4620003,-0.0002621895
0.4610003,-0.0003316735
0.4600003,-0.0003957421
0.4590003,-0.0004496947
0.4580003,-0.0005064061
0.4570003,-0.0005591324
0.4560003,-0.000604808
0.4550003,-0.0006547754
0.4540003,-0.0006976922
0.4530003,-0.0007369304
0.4520003,-0.0007780078
0.4510003,-0.0008108085
0.4500003,-0.0008454485
0.4490003,-0.0008776361
0.4480003,-0.0009067581
0.4470003,-0.0009361868
0.4460003,-0.0009604041
0.4450003,-0.0009846214
0.4440003,-0.001008532
0.4430003,-0.001027538
0.4420003,-0.001049916
0.4410003,-0.001068922
0.4400003,-0.001083943
0.4390003,-0.001103869
0.4380003,-0.001117663
0.4370003,-0.00113391
0.4360003,-0.001150158
0.4350003,-0.001159047
0.4340003,-0.001173762
0.4330003,-0.001185717
0.4320003,-0.00119522
0.4310003,-0.001209934
0.4300003,-0.001218211
0.4290003,-0.001227714
0.4280003,-0.001240589
0.4270003,-0.001246107
0.4260003,-0.001256223
0.4250003,-0.00126542
0.4240003,-0.001270631
0.4230003,-0.00128136
0.4220003,-0.001289637
0.4210003,-0.001295461
0.4200003,-0.001303738
0.4190003,-0.001309563
0.4180003,-0.001318146
0.4170003,-0.00132397
0.4160003,-0.001329488
0.4150003,-0.001338685
0.4140003,-0.001342363
0.4130003,-0.001349414
0.4120003,-0.001357997
0.4110003,-0.00136045
0.4100003,-0.001374551
0.4090003,-0.00138436
0.4080003,-0.001382521
0.4070003,-0.001390491
0.4060003,-0.001394477
0.4050003,-0.001397849
0.4040003,-0.001407352
0.4030003,-0.00141103
0.4020003,-0.001416855
0.4010003,-0.001424212
0.4000003,-0.001428503
0.3990003,-0.00143678
0.3980003,-0.001441378
0.3970003,-0.001448429
0.3960003,-0.001456399
0.3950003,-0.001459465
0.3940003,-0.001467129
0.3930003,-0.001472953
0.3920003,-0.001477551
0.3910003,-0.001487974
0.3900003,-0.001492879
0.3890003,-0.001499316
0.3880003,-0.001507593
0.3870003,-0.001511271
0.3860003,-0.001520468
0.3850003,-0.001528132
0.3840003,-0.001531504
0.3830003,-0.00154162
0.3820003,-0.001547751
0.3810003,-0.001553882
0.3800003,-0.001564611
0.3790003,-0.001568902
0.3780003,-0.001578405
0.3770003,-0.001587602
0.3760003,-0.001592813
0.3750003,-0.001602929
0.3740003,-0.001609673
0.3730003,-0.001617337
0.3720003,-0.00162776
0.3710003,-0.001636036
0.3700003,-0.00164462
0.3690003,-0.001652897
0.3680003,-0.00166056
0.3670003,-0.001672822
0.3660003,-0.00167834
0.3650003,-0.001688763
0.3640003,-0.001700718
0.3630003,-0.001706236
0.3620003,-0.001717885
0.3610003,-0.001728001
0.3600003,-0.001735052
0.3590003,-0.001748846
0.3580003,-0.001758349
0.3570003,-0.001766626
0.3560003,-0.001778888
0.3550003,-0.001787471
0.3540003,-0.001798814
0.3530003,-0.001809543
0.3520003,-0.001819352
0.3510003,-0.001833454
0.3500003,-0.00184265
0.3490003,-0.001853379
0.3480003,-0.001866561
0.3470003,-0.001875144
0.3460003,-0.001889859
0.3450003,-0.001902734
0.3440003,-0.00191101
0.3430003,-0.001926031
0.3420003,-0.001936454
0.3410003,-0.001948103
0.3400003,-0.001962817
0.3390003,-0.001974159
0.3380003,-0.001987034
0.3370003,-0.001999909
0.3360003,-0.002010638
0.3350003,-0.002025659
0.3340003,-0.002037002
0.3330003,-0.00205049
0.3320003,-0.002064284
0.3310003,-0.002075013
0.3300003,-0.002091261
0.3290003,-0.002104136
0.3280003,-0.002115784
0.3270003,-0.002132032
0.3260003,-0.002143987
0.3250003,-0.002157168
0.3240003,-0.002174642
0.3230003,-0.002184451
0.3220003,-0.002200085
0.3210003,-0.002215719
0.3200003,-0.002227981
0.3190003,-0.002244841
0.3180003,-0.00225741
0.3170003,-0.002269978
0.3160003,-0.002286532
0.3150003,-0.002298794
0.3140003,-0.002312895
0.3130003,-0.002328529
0.3120003,-0.002340178
0.3110003,-0.002356425
0.3100003,-0.002368993
0.3090003,-0.002382481
0.3080003,-0.002396583
0.3070003,-0.002417122
0.3060003,-0.00243061
0.3050003,-0.002441645
0.3040003,-0.002453601
0.3030003,-0.002471074
0.3020003,-0.00248027
0.3010003,-0.002495291
0.3000003,-0.002510925
0.2990003,-0.002519202
0.2980003,-0.002536062
0.2970003,-0.002548324
0.2960003,-0.002558747
0.2950003,-0.0025753
0.2940003,-0.002587869
0.2930003,-0.002598905
0.2920003,-0.002614232
0.2910003,-0.002624041
0.2900003,-0.002636916
0.2890003,-0.002649485
0.2880003,-0.002661441
0.2870003,-0.002674315
0.2860003,-0.002684431
0.2850003,-0.00269608
0.2840003,-0.002709568
0.2830003,-0.002718152
0.2820003,-0.002729801
0.2810003,-0.002739304
0.2800003,-0.002747887
0.2790003,-0.002761375
0.2780003,-0.002769958
0.2770003,-0.002779461
0.2760003,-0.002790497
0.2750003,-0.002798161
0.2740003,-0.002809197
0.2730003,-0.00281778
0.2720003,-0.002824831
0.2710003,-0.002836786
0.2700003,-0.002841691
0.2690003,-0.0028515
0.2680003,-0.002861923
0.2670003,-0.002865295
0.2660003,-0.002874185
0.2650003,-0.002880316
0.2640003,-0.002883994
0.2630003,-0.002895337
0.2620003,-0.002900241
0.2610003,-0.002902387
0.2600003,-0.002911584
0.2590003,-0.002914649
0.2580003,-0.00291986
0.2570003,-0.002924765
0.2560003,-0.002930283
0.2550003,-0.002935188
0.2540003,-0.002937027
0.2530003,-0.002939786
0.2520003,-0.002943158
0.2510003,-0.002943158
0.2500003,-0.00294653
0.2490003,-0.002948063
0.2480003,-0.002947144
0.2470003,-0.002950822
0.2460003,-0.002949289
0.2450003,-0.002949902
0.2440003,-0.002952355
0.2430003,-0.002949289
0.2420003,-0.002951129
0.2410003,-0.002948983
0.2400003,-0.002943465
0.2390003,-0.00294653
0.2380003,-0.002941319
0.2370003,-0.002938254
0.2360003,-0.002938254
0.2350003,-0.002931509
0.2340003,-0.002927524
0.2330003,-0.002924459
0.2320003,-0.002917715
0.2310003,-0.002913423
0.2300003,-0.002906679
0.2290003,-0.002899935
0.2280003,-0.002893497
0.2270003,-0.002885527
0.2260003,-0.002881542
0.2250003,-0.002872039
0.2240003,-0.002863456
0.2230003,-0.002857938
0.2220003,-0.002845676
0.2210003,-0.002837399
0.2200003,-0.002829122
0.2190003,-0.002815328
0.2180003,-0.002807664
0.2170003,-0.002798161
0.2160003,-0.002782834
0.2150003,-0.002773637
0.2140003,-0.002759229
0.2130003,-0.002745128
0.2120003,-0.002734399
0.2110003,-0.002719378
0.2100003,-0.00270497
0.2090003,-0.002690562
0.2080003,-0.002674929
0.2070003,-0.002660827
0.2060003,-0.002643047
0.2050003,-0.002629866
0.2040003,-0.002615765
0.2030003,-0.002595532
0.2020003,-0.002578672
0.2010003,-0.002559666
0.2000003,-0.002539741
0.1990003,-0.002524107
0.1980003,-0.002503875
0.1970003,-0.002483949
0.1960003,-0.002465556
0.1950003,-0.002443178
0.1940003,-0.002423865
0.1930003,-0.002404246
0.1920003,-0.002382175
0.1910003,-0.002362249
0.1900003,-0.002340178
0.1890003,-0.002317187
0.1880003,-0.002296954
0.1870003,-0.00227427
0.1860003,-0.002251279
0.1850003,-0.002230434
0.1840003,-0.00220591
0.1830003,-0.002183838
0.1820003,-0.002160234
0.1810003,-0.00213663
0.1800003,-0.002113638
0.1790003,-0.002088502
0.1780003,-0.002066124
0.1770003,-0.002042519
0.1760003,-0.002017689
0.1750003,-0.001996231
0.1740003,-0.001970481
0.1730003,-0.00194657
0.1720003,-0.001925418
0.1710003,-0.001898748
0.1700003,-0.001876064
0.1690003,-0.001853379
0.1680003,-0.001826097
0.1670003,-0.001806171
0.1660003,-0.001782567
0.1650003,-0.001756817
0.1640003,-0.001735665
0.1630003,-0.001710528
0.1620003,-0.001687537
0.1610003,-0.001666078
0.1600003,-0.001641861
0.1590003,-0.001619789
0.1580003,-0.001597105
0.1570003,-0.00157442
0.1560003,-0.001552962
0.1550003,-0.001530277
0.1540003,-0.001509432
0.1530003,-0.00148828
0.1520003,-0.001466209
0.1510003,-0.001445977
0.1500003,-0.001423905
0.1490003,-0.001403979
0.1480003,-0.001384667
0.1470003,-0.001363209
0.1460003,-0.001344203
0.1450003,-0.00132489
0.1440003,-0.001304658
0.1430003,-0.001287185
0.1420003,-0.001267566
0.1410003,-0.001249173
0.1400003,-0.001232619
0.1390003,-0.00121392
0.1380003,-0.001196446
0.1370003,-0.001179893
0.1360003,-0.001161806
0.1350003,-0.001146172
0.1340003,-0.001129925
0.1330003,-0.001113372
0.1320003,-0.001098351
0.1310003,-0.001083023
0.1300003,-0.001068309
0.1290003,-0.001052675
0.1280003,-0.001037654
0.1270003,-0.001024166
0.1260003,-0.001009452
0.1250003,-0.0009959637
0.1240003,-0.0009833951
0.1230003,-0.0009689874
0.1220003,-0.0009567254
0.1210003,-0.0009444635
0.1200003,-0.0009309754
0.1190003,-0.0009199397
0.1180003,-0.0009082909
0.1170003,-0.0008954158
0.1160003,-0.0008852997
0.1150003,-0.0008736509
0.1140003,-0.0008623086
0.1130003,-0.0008521925
0.1120003,-0.0008405437
0.1110003,-0.0008307341
0.1100003,-0.0008212312
0.1090003,-0.0008108085
0.1080003,-0.000801612
0.1070003,-0.0007918025
0.1060003,-0.0007822995
0.1050003,-0.0007734096
0.1040003,-0.0007642132
0.1030003,-0.000756856
0.1020003,-0.0007479661
0.1010003,-0.0007390762
0.1000003,-0.0007317191
0.09900028,-0.0007231357
0.09800029,-0.0007148589
0.09700029,-0.0007081148
0.09600028,-0.0007001446
0.09500029,-0.000693094
0.09400029,-0.0006860433
0.09300029,-0.0006780731
0.09200028,-0.0006722487
0.09100029,-0.0006648915
0.09000029,-0.0006581475
0.08900028,-0.000652323
0.08800028,-0.0006452725
0.08700029,-0.0006391415
0.08600029,-0.0006333171
0.08500028,-0.0006271861
0.08400029,-0.0006216682
0.08300029,-0.0006158438
0.08200029,-0.0006100194
0.08100028,-0.000604808
0.08000029,-0.0005992902
0.07900029,-0.0005943854
0.07800028,-0.0005888676
0.07700028,-0.0005836562
0.07600029,-0.0005793645
0.07500029,-0.0005738467
0.07400028,-0.0005692485
0.07300029,-0.0005649568
0.07200029,-0.0005597455
0.07100029,-0.0005557603
0.07000028,-0.0005514687
0.06900029,-0.0005465639
0.06800029,-0.0005428853
0.06700028,-0.0005385936
0.06600028,-0.000534302
0.06500029,-0.0005309299
0.06400029,-0.0005269448
0.06300028,-0.0005226531
0.06200029,-0.0005192811
0.06100029,-0.0005156025
0.06000029,-0.0005119239
0.05900029,-0.0005085519
0.05800029,-0.0005048733
0.05700029,-0.0005015013
0.05600028,-0.0004978227
0.05500029,-0.0004950638
0.05400028,-0.0004913852
0.05300029,-0.0004880132
0.05200029,-0.0004855608
0.05100029,-0.0004818822
0.05000029,-0.0004788167
0.04900029,-0.0004760578
0.04800029,-0.0004726858
0.04700029,-0.0004699268
0.04600029,-0.0004668614
0.04500028,-0.0004637959
0.04400029,-0.00046165
0.04300028,-0.0004585845
0.04200029,-0.0004555191
0.04100028,-0.0004533732
0.04000029,-0.0004503077
0.03900029,-0.0004478553
0.03800029,-0.000445403
0.03700029,-0.000442644
0.03600029,-0.0004401917
0.03500029,-0.0004377393
0.03400028,-0.0004352869
0.03300029,-0.0004328345
0.03200028,-0.0004303821
0.03100029,-0.0004282363
0.03000029,-0.0004257839
0.02900029,-0.000423638
0.02800029,-0.0004217988
0.02700029,-0.0004193464
0.02600029,-0.0004172005
0.02500029,-0.0004156678
0.02400029,-0.0004129088
0.02300029,-0.0004113761
0.02200029,-0.0004095368
0.02100029,-0.0004070844
0.02000029,-0.0004055517
0.01900029,-0.000404019
0.01800029,-0.0004015666
0.01700029,-0.0004003404
0.01600029,-0.0003985011
0.01500029,-0.0003966618
0.01400029,-0.0003951291
0.01300029,-0.0003935963
0.01200029,-0.000391757
0.01100029,-0.0003902243
0.01000029,-0.0003886915
0.009000286,-0.0003871588
0.008000286,-0.0003853195
0.007000286,-0.0003840933
0.006000286,-0.0003825606
0.005000286,-0.0003810278
0.004000286,-0.0003794951
0.003000286,-0.0003782689
0.002000286,-0.0003767362
0.001000286,-0.00037551
2.861023E-07,-0.0003623284
0.0009997139,-0.0003500664
0.001999714,-0.0003417897
0.002999714,-0.0003353521
0.003999714,-0.0003289146
0.004999714,-0.0003233968
0.005999714,-0.0003181854
0.006999714,-0.0003129741
0.007999714,-0.0003083759
0.008999714,-0.0003037777
0.009999714,-0.0002991795
0.01099971,-0.0002951943
0.01199971,-0.0002905961
0.01299971,-0.000286611
0.01399971,-0.0002829324
0.01499971,-0.0002789472
0.01599971,-0.0002749621
0.01699971,-0.0002712836
0.01799971,-0.0002676049
0.01899971,-0.0002639264
0.01999971,-0.0002602478
0.02099971,-0.0002565692
0.02199971,-0.0002535038
0.02299971,-0.0002498252
0.02399971,-0.0002461466
0.02499971,-0.0002430811
0.02599971,-0.0002397091
0.02699971,-0.0002366436
0.02799971,-0.000232965
0.02899971,-0.0002302061
0.02999971,-0.0002268341
0.03099971,-0.000223462
0.03199971,-0.0002203965
0.03299971,-0.000217331
0.03399972,-0.0002142656
0.03499971,-0.0002115066
0.03599972,-0.0002078281
0.03699971,-0.0002050691
0.03799972,-0.0002020036
0.03899971,-0.0001989382
0.03999971,-0.0001961792
0.04099971,-0.0001931137
0.04199971,-0.0001900483
0.04299971,-0.0001872893
0.04399971,-0.0001842238
0.04499971,-0.0001811584
0.04599971,-0.0001783994
0.04699972,-0.0001753339
0.04799971,-0.0001722685
0.04899972,-0.0001695095
0.04999971,-0.000166444
0.05099971,-0.0001633786
0.05199971,-0.0001606196
0.05299971,-0.0001578607
0.05399971,-0.0001551017
0.05499971,-0.0001550203
0.05599971,-0.0001525986
0.05699971,-0.000149717
0.05799972,-0.0001468661
0.05899971,-0.0001443524
0.05999972,-0.0001411337
0.06099971,-0.0001386813
0.06199971,-0.000135861
0.06299971,-0.0001327036
0.06399971,-0.0001300366
0.06499971,-0.0001272777
0.06599972,-0.0001241509
0.06699971,-0.0001216372
0.06799971,-0.0001184797
0.06899972,-0.0001155369
0.06999972,-0.0001130538
0.07099971,-0.0001099577
0.07199971,-0.0001071988
0.07299972,-0.0001045318
0.07399971,-0.0001014663
0.07499971,-9.879933E-05
0.07599971,-9.567254E-05
0.07699972,-9.282165E-05
0.07799971,-9.003206E-05
0.07899971,-8.696657E-05
0.07999972,-8.420764E-05
0.08099972,-8.117281E-05
0.08199971,-7.807667E-05
0.08299971,-7.528708E-05
0.08399972,-7.182309E-05
0.08499971,-6.912547E-05
0.08599971,-6.624391E-05
0.08699971,-6.284122E-05
0.08799972,-6.002098E-05
0.08899971,-5.671026E-05
0.08999971,-5.306234E-05
0.09099972,-5.039536E-05
0.09199972,-4.665548E-05
0.09299971,-4.340606E-05
0.09399971,-4.034058E-05
0.09499972,-3.663135E-05
0.09599971,-3.325932E-05
0.09699971,-2.991794E-05
0.09799971,-2.620871E-05
0.09899972,-2.308192E-05
0.09999971,-1.909679E-05
0.1009997,-1.560214E-05
0.1019997,-1.170898E-05
0.1029997,-7.846468E-06
0.1039997,-4.382473E-06
0.1049997,3.403853E-07
0.1059997,4.313251E-06
0.1069997,7.734329E-06
0.1079997,1.213023E-05
0.1089997,1.611842E-05
0.1099997,1.980419E-05
0.1109997,2.391193E-05
0.1119997,2.78664E-05
0.1129997,3.209677E-05
0.1139997,3.694023E-05
0.1149997,4.11706E-05
0.1159997,4.607537E-05
0.1169997,5.03977E-05
0.1179997,5.51492E-05
0.1189997,6.032986E-05
0.1199997,6.480547E-05
0.1209997,6.986351E-05
0.1219997,7.510548E-05
0.1229997,7.979568E-05
0.1239997,8.56201E-05
0.1249997,9.049421E-05
0.1259997,9.561357E-05
0.1269997,0.0001017445
0.1279997,0.0001068332
0.1289997,0.0001124737
0.1299997,0.0001186047
0.1309997,0.0001240306
0.1319997,0.0001307746
0.1329997,0.0001366297
0.1339997,0.0001426687
0.1349997,0.00014975
0.1359997,0.000155789
0.1369997,0.0001622572
0.1379997,0.0001694304
0.1389997,0.0001757453
0.1399997,0.0001834703
0.1409997,0.0001905516
0.1419997,0.0001973876
0.1429997,0.0002053579
0.1439997,0.0002126537
0.1449997,0.00022044
0.1459997,0.0002283796
0.1469997,0.0002361046
0.1479997,0.0002449332
0.1489997,0.0002527809
0.1499997,0.0002610883
0.1509997,0.000270438
0.1519997,0.0002784083
0.1529997,0.0002878806
0.1539997,0.0003010421
0.1549997,0.0003090123
0.1559997,0.000319435
0.1569997,0.0003286314
0.1579997,0.0003375213
0.1589997,0.0003485571
0.1599997,0.0003583666
0.1609997,0.0003681761
0.1619997,0.0003792119
0.1629997,0.0003896345
0.1639997,0.0004012834
0.1649997,0.000411706
0.1659997,0.0004230483
0.1669997,0.0004350037
0.1679997,0.0004460394
0.1689997,0.0004579948
0.1699997,0.0004702567
0.1709997,0.000481599
0.1719997,0.0004957002
0.1729997,0.0005076557
0.1739997,0.0005202241
0.1749997,0.0005340188
0.1759997,0.0005459742
0.1769997,0.0005600754
0.1779997,0.00057387
0.1789997,0.0005861319
0.1799997,0.0006017659
0.1809997,0.0006155606
0.1819997,0.0006290487
0.1829997,0.0006446827
0.1839997,0.0006587839
0.1849997,0.0006741114
0.1859997,0.0006897453
0.1869997,0.0007044596
0.1879997,0.0007210132
0.1889997,0.0007360341
0.1899997,0.0007516681
0.1909997,0.0007685282
0.1919997,0.0007844687
0.1929997,0.0008010223
0.1939997,0.0008175759
0.1949997,0.000833823
0.1959997,0.0008525224
0.1969997,0.000868463
0.1979997,0.0008862427
0.1989997,0.0009049422
0.1999997,0.0009202696
0.2009997,0.0009389691
0.2019997,0.0009576685
0.2029997,0.0009739156
0.2039997,0.0009944543
0.2049997,0.001014686
0.2059997,0.001031547
0.2069997,0.001051166
0.2079997,0.001068639
0.2089997,0.001087951
0.2099997,0.001107571
0.2109997,0.00112627
0.2119997,0.001146809
0.2129997,0.001165508
0.2139997,0.001184821
0.2149997,0.001205359
0.2159997,0.001223139
0.2169997,0.001244598
0.2179997,0.001265136
0.2189997,0.001283223
0.2199997,0.001305601
0.2209997,0.001323687
0.2219997,0.001343613
0.2229997,0.001365991
0.2239997,0.001384384
0.2249997,0.001405535
0.2259997,0.001426381
0.2269997,0.00144508
0.2279997,0.001467765
0.2289997,0.001486464
0.2299997,0.00150547
0.2309997,0.001527848
0.2319997,0.001546548
0.2329997,0.001567086
0.2339997,0.001588238
0.2349997,0.001607551
0.2359997,0.001629622
0.2369997,0.001649548
0.2379997,0.001669167
0.2389997,0.001689093
0.2399997,0.001708099
0.2409997,0.001728944
0.2419997,0.001748256
0.2429997,0.001768489
0.2439997,0.00178964
0.2449997,0.001806807
0.2459997,0.001826426
0.2469997,0.001846965
0.2479997,0.001861986
0.2489997,0.001884057
0.2499997,0.00190337
0.2509997,0.00191931
0.2519997,0.001941075
0.2529997,0.001957016
0.2539997,0.001974489
0.2549997,0.001993802
0.2559997,0.002011888
0.2569997,0.002029668
0.2579997,0.002047448
0.2589997,0.002063695
0.2599997,0.002081781
0.2609997,0.002095882
0.2619997,0.002113662
0.2629997,0.002130216
0.2639997,0.002144317
0.2649997,0.002162403
0.2659997,0.002176505
0.2669997,0.002190606
0.2679997,0.002208692
0.2689997,0.002222487
0.2699997,0.002237201
0.2709997,0.002253448
0.2719997,0.002263564
0.2729997,0.002280118
0.2739997,0.002292993
0.2749997,0.002304642
0.2759997,0.002322115
0.2769997,0.002331925
0.2779997,0.00234388
0.2789997,0.002358901
0.2799997,0.002367484
0.2809997,0.002380359
0.2819997,0.002392927
0.2829997,0.002403657
0.2839997,0.002416532
0.2849997,0.002426035
0.2859997,0.00243799
0.2869997,0.002448719
0.2879997,0.002457609
0.2889997,0.002471711
0.2899997,0.002478761
0.2909997,0.002488571
0.2919997,0.002501446
0.2929997,0.002505124
0.2939997,0.002517693
0.2949997,0.002528422
0.2959997,0.00253302
0.2969997,0.002544362
0.2979997,0.002552026
0.2989997,0.002557544
0.2999997,0.002569806
0.3009997,0.002574711
0.3019997,0.002582988
0.3029997,0.002591877
0.3039997,0.00259525
0.3049997,0.002604139
0.3059997,0.00261119
0.3069997,0.002621306
0.3079997,0.002630503
0.3089997,0.002632342
0.3099997,0.002638779
0.3109997,0.002645524
0.3119997,0.002648282
0.3129997,0.002656866
0.3139997,0.002660851
0.3149997,0.002665756
0.3159997,0.002672806
0.3169997,0.002674952
0.3179997,0.00268047
0.3189997,0.002685375
0.3199997,0.002690279
0.3209997,0.002696104
0.3219997,0.002698863
0.3229997,0.002701928
0.3239997,0.002708672
0.3249997,0.002709285
0.3259997,0.002714803
0.3269997,0.002718482
0.3279997,0.002719095
0.3289997,0.002725533
0.3299997,0.002727065
0.3309997,0.002728291
0.3319997,0.002735035
0.3329997,0.002733503
0.3339997,0.002735955
0.3349997,0.002740553
0.3359997,0.002740247
0.3369997,0.002743619
0.3379997,0.002747298
0.3389997,0.002747298
0.3399997,0.002751589
0.3409997,0.002751895
0.3419997,0.002751895
0.3429997,0.002754655
0.3439997,0.002753122
0.3449997,0.002756187
0.3459997,0.002758027
0.3469997,0.002757414
0.3479997,0.002759253
0.3489997,0.002757107
0.3499997,0.002758333
0.3509997,0.00275864
0.3519997,0.002758027
0.3529997,0.002760479
0.3539997,0.002758027
0.3549997,0.002756187
0.3559997,0.002759559
0.3569997,0.002753428
0.3579997,0.002755268
0.3589997,0.002757414
0.3599997,0.002750976
0.3609997,0.002752509
0.3619997,0.002751283
0.3629997,0.002746684
0.3639997,0.002749137
0.3649997,0.002746071
0.3659997,0.002741166
0.3669997,0.002743312
0.3679997,0.002738714
0.3689997,0.002735035
0.3699997,0.002734422
0.3709997,0.002732277
0.3719997,0.002729824
0.3729997,0.002725533
0.3739997,0.002723387
0.3749997,0.002719401
0.3759997,0.00271511
0.3769997,0.002714497
0.3779997,0.002708366
0.3789997,0.0027053
0.3799997,0.002704994
0.3809997,0.002696717
0.3819997,0.002693958
0.3829997,0.002690893
0.3839997,0.002682003
0.3849997,0.002682309
0.3859997,0.002678324
0.3869997,0.00267066
0.3879997,0.002670354
0.3889997,0.002662997
0.3899997,0.002657172
0.3909997,0.002655946
0.3919997,0.002647363
0.3929997,0.002643991
0.3939997,0.002640925
0.3949997,0.002632955
0.3959997,0.002629583
0.3969997,0.002625598
0.3979997,0.002620386
0.3989997,0.002612723
0.3999997,0.002607205
0.4009997,0.002603526
0.4019997,0.002594943
0.4029997,0.002592184
0.4039997,0.002588505
0.4049997,0.00257747
0.4059997,0.002575324
0.4069997,0.002570112
0.4079997,0.00255969
0.4089997,0.002562449
0.4099997,0.002561223
0.4109997,0.002550187
0.4119997,0.002548041
0.4129997,0.002537618
0.4139997,0.002529035
0.4149997,0.002526583
0.4159997,0.00251708
0.4169997,0.002512481
0.4179997,0.002507883
0.4189997,0.00249838
0.4199997,0.002495621
0.4209997,0.002488264
0.4219997,0.002481827
0.4229997,0.002478454
0.4239997,0.002469871
0.4249997,0.00246466
0.4259997,0.002459449
0.4269997,0.002450252
0.4279997,0.002447187
0.4289997,0.002440749
0.4299997,0.002434618
0.4309997,0.002430326
0.4319997,0.002420517
0.4329997,0.002418984
0.4339997,0.002411934
0.4349997,0.002403044
0.4359997,0.002402431
0.4369997,0.002392927
0.4379997,0.002389862
0.4389997,0.00238649
0.4399997,0.002376374
0.4409997,0.00237668
0.4419997,0.002372082
0.4429997,0.002363499
0.4439997,0.002363192
0.4449997,0.002355222
0.4459997,0.002351237
0.4469997,0.002348172
0.4479997,0.00234388
0.4489997,0.002342347
0.4499997,0.002337749
0.4509997,0.00233407
0.4519997,0.002333764
0.4529997,0.002328859
0.4539997,0.002327633
0.4549997,0.00232702
0.4559997,0.002323954
0.4569997,0.0023261
0.4579997,0.002324567
0.4589997,0.002323341
0.4599997,0.002329472
0.4609997,0.002329779
0.4619997,0.002333151
0.4629997,0.002339895
0.4639997,0.002340201
0.4649997,0.002350931
0.4659997,0.002359514
0.4669997,0.002366258
0.4679997,0.002380666
0.4689997,0.002389862
0.4699997,0.002404576
0.4709997,0.002423276
0.4719997,0.002440136
0.4729997,0.002465886
0.4739997,0.00249133
0.4749997,0.002517999
0.4759997,0.002552333
0.4769997,0.002586666
0.4779997,0.002626517
0.4789997,0.00267158
0.4799997,0.002720934
0.4809997,0.002777339
0.4819997,0.00283589
0.4829997,0.002903024
0.4839997,0.002978128
0.4849997,0.003083992
0.4859997,0.003169826
0.4869997,0.00326179
0.4879997,0.003362951
0.4889997,0.003476374
0.4899997,0.003595928
0.4909997,0.003721613
0.4919997,0.003862625
0.4929997,0.004006702
0.4939997,0.004159976
0.4949997,0.004328578
0.4959997,0.004500245
0.4969997,0.004687239
0.4979997,0.00488343
0.4989997,0.005082687
0.4999997,0.00529727
0.5009997,0.005517985
0.5019997,0.005747896
0.5029997,0.005983938
0.5039997,0.006229177
0.5049997,0.006486678
0.5059997,0.006750309
0.5069997,0.007020072
0.5079997,0.007299031
0.5089997,0.007581055
0.5099997,0.007875342
0.5109997,0.008169628
0.5119997,0.008479241
0.5129997,0.008791921
0.5139997,0.0091046
0.5149997,0.009426476
0.5159997,0.009757548
0.5169997,0.01007942
0.5179997,0.01042276
0.5189997,0.01076609
0.5199997,0.01110329
0.5209997,0.01145276
0.5219997,0.01180835
0.5229997,0.01215782
0.5239997,0.01252261
0.5249997,0.01288741
0.5259997,0.0132522
0.5269997,0.01362619
0.5279997,0.01400017
0.5289997,0.0143711
0.5299997,0.01475428
0.5309997,0.01513747
0.5319997,0.01551759
0.5329997,0.0159069
0.5339997,0.01629929
0.5349997,0.01668554
0.5359997,0.01708099
0.5369997,0.0174795
0.5379997,0.01786575
0.5389997,0.01827346
0.5399997,0.01867504
0.5409997,0.01907355
0.5419997,0.01948739
0.5429997,0.01989203
0.5439997,0.02029361
0.5449997,0.02071358
0.5459997,0.02112129
0.5469997,0.021529
0.5479997,0.02195817
0.5489997,0.02236894
0.5499997,0.02277972
0.5509997,0.02320888
0.5519997,0.02362579
0.5529997,0.02404576
0.5539997,0.02446573
0.5549997,0.02489184
0.5559997,0.02531181
0.5569997,0.02573178
0.5579997,0.02617014
0.5589997,0.02659624
0.5599997,0.02701009
0.5609997,0.02745765
0.5619997,0.02787455
0.5629997,0.02830985
0.5639997,0.02875434
0.5649997,0.02917125
0.5659997,0.02961268
0.5669997,0.03005411
0.5679997,0.03123844
0.5689997,0.0316676
0.5699997,0.03209677
0.5709997,0.03252594
0.5719997,0.03298576
0.5729997,0.03344558
0.5739997,0.03387475
0.5749997,0.03433457
0.5759997,0.03476374
0.5769997,0.03522356
0.5779997,0.03565273
0.5789997,0.03611255
0.5799997,0.03657238
0.5809997,0.0370322
0.5819997,0.03746137
0.5829997,0.03792119
0.5839997,0.03841167
0.5849997,0.03884083
0.5859997,0.03930065
0.5869997,0.03976048
0.5879997,0.04018965
0.5889997,0.04064947
0.5899997,0.04113995
0.5909997,0.04156911
0.5919997,0.04202893
0.5929997,0.04248876
0.5939997,0.04294858
0.5949997,0.04337775
0.5959997,0.04386823
0.5969997,0.04432805
0.5979997,0.04475721
0.5989997,0.04521704
0.5999997,0.04570751
0.6009997,0.04616734
0.6019997,0.04662716
0.6029997,0.04708698
0.6039997,0.0475468
0.6049997,0.04800662
0.6059997,0.04846645
0.6069997,0.04892627
0.6079997,0.0493861
0.6089997,0.04984592
0.6099997,0.05030574
0.6109997,0.05079622
0.6119997,0.05125604
0.6129997,0.0516852
0.6139997,0.05217568
0.6149997,0.0526355
0.6159997,0.05309533
0.6169997,0.05361646
0.6179997,0.05404563
0.6189997,0.0545361
0.6199997,0.05502658
0.6209997,0.05545575
0.6219997,0.05594623
0.6229997,0.0564367
0.6239997,0.05686587
0.6249997,0.05735635
0.6259997,0.05781617
0.6269997,0.05827599
0.6279997,0.05876647
0.6289997,0.05922629
0.6299997,0.05968611
0.6309997,0.06017659
0.6319997,0.06063641
0.6329997,0.06109623
0.6339997,0.06158672
0.6349997,0.06207719
0.6359997,0.06253701
0.6369997,0.06302749
0.6379997,0.06351797
0.6389997,0.06394713
0.6399997,0.06446826
0.6409997,0.06492809
0.6419997,0.06538791
0.6429997,0.06587839
0.6439997,0.06633821
0.6449997,0.06679803
0.6459997,0.06728851
0.6469997,0.06777899
0.6479997,0.06823882
0.6489997,0.06872929
0.6499997,0.06921976
0.6509997,0.06967959
0.6519997,0.07017007
0.6529997,0.07062989
0.6539997,0.07108971
0.6549997,0.07158019
0.6559997,0.07207067
0.6569997,0.07253049
0.6579997,0.07302096
0.6589997,0.07351144
0.6599997,0.07397126
0.6609997,0.07446174
0.6619997,0.07492156
0.6629997,0.07541204
0.6639997,0.07590251
0.6649997,0.07636234
0.6659997,0.07685282
0.6669997,0.07734329
0.6679997,0.07783377
0.6689997,0.07829359
0.6699997,0.07878407
0.6709997,0.07927455
0.6719997,0.07973437
0.6729997,0.0802555
0.6739997,0.08071532
0.6749997,0.08117515
0.6759997,0.08166563
0.6769997,0.08212545
0.6779997,0.08261593
0.6789997,0.0831064
0.6799997,0.08356623
0.6809997,0.0840567
0.6819997,0.08454718
0.6829997,0.085007
0.6839997,0.08549748
0.6849997,0.08598796
0.6859997,0.08647843
0.6869997,0.08693825
0.6879997,0.08742873
0.6889997,0.08791921
0.6899997,0.08840968
0.6909997,0.08890016
0.6919997,0.08935999
0.6929997,0.08988111
0.6939997,0.0903716
0.6949997,0.09080076
0.6959997,0.09129124
0.6969997,0.09178172
0.6979997,0.09224154
0.6989997,0.09276267
0.6999997,0.09291594
0.6990004,0.09239481
0.6980004,0.09193499
0.6970004,0.09147517
0.6960004,0.09098469
0.6950004,0.09049422
0.6940004,0.09003439
0.6930004,0.08954392
0.6920004,0.0890841
0.6910004,0.08862427
0.6900004,0.0881338
0.6890004,0.08767397
0.6880004,0.08721415
0.6870004,0.08672367
0.6860004,0.08626385
0.6850004,0.08580403
0.6840004,0.08528289
0.6830004,0.08482307
0.6820004,0.08436324
0.6810004,0.08384212
0.6800004,0.08341295
0.6790004,0.08292247
0.6780004,0.08243199
0.6770004,0.08200283
0.6760004,0.08151235
0.6750004,0.08105253
0.6740004,0.08059271
0.6730004,0.08013289
0.6720004,0.07961175
0.6710004,0.07918259
0.6700004,0.07869211
0.6690004,0.07820163
0.6680004,0.07777246
0.6670004,0.07731264
0.6660004,0.07679151
0.6650004,0.07636234
0.6640004,0.07590251
0.6630004,0.07538139
0.6620004,0.07492156
0.6610004,0.07446174
0.6600004,0.07397126
0.6590004,0.07351144
0.6580004,0.07308228
0.6570004,0.0725918
0.6560004,0.07210132
0.6550004,0.0716415
0.6540004,0.07118168
0.6530004,0.07072186
0.6520004,0.07023137
0.6510004,0.06977155
0.6500004,0.06928107
0.6490004,0.06885191
0.6480004,0.06836143
0.6470004,0.0679016
0.6460004,0.06744178
0.6450004,0.0669513
0.6440004,0.06649148
0.6430004,0.06603166
0.6420004,0.06557184
0.6410004,0.06511202
0.6400004,0.0646522
0.6390004,0.06419238
0.6380004,0.0637019
0.6370004,0.06327273
0.6360004,0.06278225
0.6350004,0.06232243
0.6340004,0.06186261
0.6330004,0.06140279
0.6320004,0.06094296
0.6310004,0.06045249
0.6300004,0.06002332
0.6290004,0.05953284
0.6280004,0.05907302
0.6270004,0.05861319
0.6260004,0.05815337
0.6250004,0.05769355
0.6240004,0.05723373
0.6230004,0.05677391
0.6220004,0.05631408
0.6210004,0.05588492
0.6200004,0.05539444
0.6190004,0.05493462
0.6180004,0.05450545
0.6170004,0.05401497
0.6160004,0.0535858
0.6150004,0.05312598
0.6140004,0.05266616
0.6130004,0.05220634
0.6120004,0.05174651
0.6110004,0.05128669
0.6100004,0.05082687
0.6090004,0.0503977
0.6080004,0.04993788
0.6070004,0.04950871
0.6060004,0.04901823
0.6050004,0.04855841
0.6040004,0.04812925
0.6030004,0.04770008
0.6020004,0.0472096
0.6010004,0.04678043
0.6000004,0.04635127
0.5990004,0.04586079
0.5980004,0.04543162
0.5970004,0.04500245
0.5960004,0.04451197
0.5950004,0.04411346
0.5940004,0.04365364
0.5930004,0.04316316
0.5920004,0.04273399
0.5910004,0.04230483
0.5900004,0.04184501
0.5890004,0.04141584
0.5880004,0.04095602
0.5870004,0.04052685
0.5860004,0.04009768
0.5850004,0.03963786
0.5840004,0.03920869
0.5830004,0.03874887
0.5820004,0.0383197
0.5810004,0.03789053
0.5800004,0.03746137
0.5790004,0.03700154
0.5780004,0.03657238
0.5770004,0.03614321
0.5760004,0.03568339
0.5750004,0.03525422
0.5740004,0.03482505
0.5730004,0.03436523
0.5720004,0.03396672
0.5710004,0.03353755
0.5700004,0.03310838
0.5690004,0.03267921
0.5680004,0.03225004
0.5670004,0.03182088
0.5660004,0.03139171
0.5650004,0.03096254
0.5640004,0.03053337
0.5630004,0.03010421
0.5620004,0.02967504
0.5610004,0.02924587
0.5600004,0.02884736
0.5590004,0.02841819
0.5580004,0.02798902
0.5570004,0.02759051
0.5560004,0.02716134
0.5550004,0.02673218
0.5540004,0.02633366
0.5530004,0.0259045
0.5520004,0.02550598
0.5510004,0.02507682
0.5500004,0.0246783
0.5490004,0.02427979
0.5480004,0.02388128
0.5470004,0.02348276
0.5460004,0.0230536
0.5450004,0.02268574
0.5440004,0.02228723
0.5430004,0.02185806
0.5420004,0.02145955
0.5410004,0.02106103
0.5400004,0.02066252
0.5390004,0.02026401
0.5380004,0.0198655
0.5370004,0.01949764
0.5360004,0.01909912
0.5350004,0.01870061
0.5340004,0.01836341
0.5330004,0.0179649
0.5320004,0.01756638
0.5310004,0.01719853
0.5300004,0.01680001
0.5290004,0.01643215
0.5280004,0.0160643
0.5270004,0.01569644
0.5260004,0.01532858
0.5250004,0.01496072
0.5240004,0.01459287
0.5230004,0.01422501
0.5220004,0.01385715
0.5210004,0.01351995
0.5200004,0.01315209
0.5190004,0.01232642
0.5180004,0.01198922
0.5170004,0.01165202
0.5160004,0.01130562
0.5150004,0.01097761
0.5140004,0.0106496
0.5130004,0.0103124
0.5120004,0.009984394
0.5110004,0.009665583
0.5100004,0.009343707
0.5090004,0.009031028
0.5080004,0.008718349
0.5070004,0.0084118
0.5060004,0.008111384
0.5050004,0.007810966
0.5040004,0.00751668
0.5030004,0.007225459
0.5020004,0.006937304
0.5010004,0.006652214
0.5000004,0.00637632
0.4990004,0.006100427
0.4980004,0.005827599
0.4970004,0.005563968
0.4960004,0.005306467
0.4950004,0.005045901
0.4940004,0.004803728
0.4930004,0.004555424
0.4920004,0.004316316
0.4910004,0.004086405
0.4900004,0.003853428
0.4890004,0.003629648
0.4880004,0.00341813
0.4870004,0.003203546
0.4860004,0.002998159
0.4850004,0.002798902
0.4840004,0.002602712
0.4830004,0.002415717
0.4820004,0.002231788
0.4810004,0.002057055
0.4800004,0.001885388
0.4790004,0.001719852
0.4780004,0.001563513
0.4770004,0.001410239
0.4760004,0.00126003
0.4750004,0.001092243
0.4740004,0.0009536833
0.4730004,0.0008230938
0.4720004,0.0007032334
0.4710004,0.0005818403
0.4700004,0.0004705633
0.4690004,0.000364191
0.4680004,0.0002584319
0.4670004,0.0001634019
0.4660004,7.082433E-05
0.4650004,-2.335781E-05
0.4640004,-0.0001029071
0.4630004,-0.0001828549
0.4620004,-0.000254955
0.4610004,-0.0003265034
0.4600004,-0.0003935963
0.4590004,-0.0004512274
0.4580004,-0.0005110043
0.4570004,-0.0005646503
0.4560004,-0.000613698
0.4550004,-0.0006655046
0.4540004,-0.0007090345
0.4530004,-0.0007516447
0.4520004,-0.0007933353
0.4510004,-0.0008273621
0.4500004,-0.0008650676
0.4490004,-0.0008981748
0.4480004,-0.00092791
0.4470004,-0.0009591779
0.4460004,-0.0009840083
0.4450004,-0.001007919
0.4440004,-0.001034589
0.4430004,-0.001054208
0.4420004,-0.001076586
0.4410004,-0.001097738
0.4400004,-0.001113372
0.4390004,-0.001132991
0.4380004,-0.001148625
0.4370004,-0.001162726
0.4360004,-0.00117928
0.4350004,-0.001190315
0.4340004,-0.001204723
0.4330004,-0.001217905
0.4320004,-0.001228021
0.4310004,-0.001242429
0.4300004,-0.001250092
0.4290004,-0.001261435
0.4280004,-0.00127339
0.4270004,-0.001278908
0.4260004,-0.00129025
0.4250004,-0.001298527
0.4240004,-0.001303432
0.4230004,-0.001316307
0.4220004,-0.001323357
0.4210004,-0.001328569
0.4200004,-0.001337459
0.4190004,-0.001342363
0.4180004,-0.00135064
0.4170004,-0.001357384
0.4160004,-0.001362902
0.4150004,-0.001371792
0.4140004,-0.001376697
0.4130004,-0.001382828
0.4120004,-0.001389265
0.4110004,-0.00139325
0.4100004,-0.001406738
0.4090004,-0.001415322
0.4080004,-0.001415935
0.4070004,-0.001422679
0.4060004,-0.001425438
0.4050004,-0.001431262
0.4040004,-0.001438006
0.4030004,-0.001441378
0.4020004,-0.001449042
0.4010004,-0.001455173
0.4000004,-0.001457932
0.3990004,-0.001466515
0.3980004,-0.0014705
0.3970004,-0.001477551
0.3960004,-0.001486441
0.3950004,-0.001488587
0.3940004,-0.001495331
0.3930004,-0.001502382
0.3920004,-0.001505753
0.3910004,-0.001514337
0.3900004,-0.001520774
0.3890004,-0.001525679
0.3880004,-0.00153273
0.3870004,-0.001538554
0.3860004,-0.001546524
0.3850004,-0.001552349
0.3840004,-0.001556641
0.3830004,-0.001567676
0.3820004,-0.001571355
0.3810004,-0.001578712
0.3800004,-0.001588215
0.3790004,-0.001591281
0.3780004,-0.00160201
0.3770004,-0.00160998
0.3760004,-0.001613352
0.3750004,-0.001624694
0.3740004,-0.001631438
0.3730004,-0.001637876
0.3720004,-0.001648298
0.3710004,-0.001655043
0.3700004,-0.001663932
0.3690004,-0.001672209
0.3680004,-0.00167834
0.3670004,-0.00168815
0.3660004,-0.001696733
0.3650004,-0.00170593
0.3640004,-0.001715126
0.3630004,-0.001721564
0.3620004,-0.001733212
0.3610004,-0.001740876
0.3600004,-0.001748846
0.3590004,-0.001762028
0.3580004,-0.001770611
0.3570004,-0.001780421
0.3560004,-0.00179207
0.3550004,-0.001797894
0.3540004,-0.001810156
0.3530004,-0.001820579
0.3520004,-0.001828855
0.3510004,-0.001842037
0.3500004,-0.00185062
0.3490004,-0.00186043
0.3480004,-0.001873918
0.3470004,-0.001881582
0.3460004,-0.001895683
0.3450004,-0.001907945
0.3440004,-0.001915609
0.3430004,-0.001929403
0.3420004,-0.001939213
0.3410004,-0.001949635
0.3400004,-0.00196343
0.3390004,-0.001974466
0.3380004,-0.001987034
0.3370004,-0.001998377
0.3360004,-0.002008799
0.3350004,-0.002025046
0.3340004,-0.002033936
0.3330004,-0.002045278
0.3320004,-0.002059993
0.3310004,-0.002068883
0.3300004,-0.00208421
0.3290004,-0.002097698
0.3280004,-0.002107201
0.3270004,-0.002123448
0.3260004,-0.00213571
0.3250004,-0.002146746
0.3240004,-0.002162073
0.3230004,-0.002173109
0.3220004,-0.002186291
0.3210004,-0.002200392
0.3200004,-0.002214799
0.3190004,-0.002227368
0.3180004,-0.002238404
0.3170004,-0.002252812
0.3160004,-0.002267832
0.3150004,-0.002277948
0.3140004,-0.002293276
0.3130004,-0.002306764
0.3120004,-0.002317493
0.3110004,-0.002334353
0.3100004,-0.002343856
0.3090004,-0.002356731
0.3080004,-0.002372365
0.3070004,-0.002388306
0.3060004,-0.002400568
0.3050004,-0.00241283
0.3040004,-0.002422639
0.3030004,-0.00243858
0.3020004,-0.002450229
0.3010004,-0.002460958
0.3000004,-0.002476285
0.2990004,-0.002485482
0.2980004,-0.002498663
0.2970004,-0.002510619
0.2960004,-0.002520735
0.2950004,-0.002535756
0.2940004,-0.002548018
0.2930004,-0.002559053
0.2920004,-0.002570702
0.2910004,-0.002580512
0.2900004,-0.002593387
0.2890004,-0.002603196
0.2880004,-0.002614232
0.2870004,-0.002628027
0.2860004,-0.002636916
0.2850004,-0.002646726
0.2840004,-0.002658375
0.2830004,-0.002667265
0.2820004,-0.0026783
0.2810004,-0.002687804
0.2800004,-0.002694548
0.2790004,-0.002707116
0.2780004,-0.002715393
0.2770004,-0.002723976
0.2760004,-0.002732866
0.2750004,-0.002740836
0.2740004,-0.002752792
0.2730004,-0.002758923
0.2720004,-0.002764441
0.2710004,-0.002777316
0.2700004,-0.002780381
0.2690004,-0.002788658
0.2680004,-0.0028
0.2670004,-0.002801533
0.2660004,-0.002810116
0.2650004,-0.002818086
0.2640004,-0.002819313
0.2630004,-0.002828816
0.2620004,-0.00283464
0.2610004,-0.002837093
0.2600004,-0.002843837
0.2590004,-0.002846596
0.2580004,-0.00285058
0.2570004,-0.002856099
0.2560004,-0.00286039
0.2550004,-0.002864989
0.2540004,-0.002864682
0.2530004,-0.002868054
0.2520004,-0.002871119
0.2510004,-0.002870506
0.2500004,-0.002876024
0.2490004,-0.002875718
0.2480004,-0.002874491
0.2470004,-0.002879703
0.2460004,-0.002876637
0.2450004,-0.002876637
0.2440004,-0.002878477
0.2430004,-0.002875411
0.2420004,-0.002876331
0.2410004,-0.002873878
0.2400004,-0.002868974
0.2390004,-0.002871119
0.2380004,-0.002867441
0.2370004,-0.002863149
0.2360004,-0.002862536
0.2350004,-0.002857325
0.2340004,-0.002854566
0.2330004,-0.00285058
0.2320004,-0.00284353
0.2310004,-0.002839851
0.2300004,-0.002832188
0.2290004,-0.002824831
0.2280004,-0.002820539
0.2270004,-0.002811649
0.2260004,-0.002805825
0.2250004,-0.002798161
0.2240004,-0.002789271
0.2230004,-0.002783447
0.2220004,-0.002773024
0.2210004,-0.002764134
0.2200004,-0.002755551
0.2190004,-0.002743595
0.2180004,-0.002734705
0.2170004,-0.002724589
0.2160004,-0.002711101
0.2150004,-0.002702211
0.2140004,-0.00268811
0.2130004,-0.002675541
0.2120004,-0.002664199
0.2110004,-0.002648872
0.2100004,-0.002638143
0.2090004,-0.002623428
0.2080004,-0.002606262
0.2070004,-0.002595532
0.2060004,-0.002578059
0.2050004,-0.002565491
0.2040004,-0.002552309
0.2030004,-0.002532077
0.2020004,-0.002516137
0.2010004,-0.00249897
0.2000004,-0.002478431
0.1990004,-0.002463104
0.1980004,-0.002445937
0.1970004,-0.002426318
0.1960004,-0.002408538
0.1950004,-0.002388306
0.1940004,-0.002369606
0.1930004,-0.0023506
0.1920004,-0.002330981
0.1910004,-0.002312282
0.1900004,-0.002290517
0.1890004,-0.002269978
0.1880004,-0.002249133
0.1870004,-0.002227368
0.1860004,-0.002209282
0.1850004,-0.002186291
0.1840004,-0.002163299
0.1830004,-0.002144293
0.1820004,-0.002120383
0.1810004,-0.002098924
0.1800004,-0.002078692
0.1790004,-0.002052329
0.1780004,-0.00203271
0.1770004,-0.002012171
0.1760004,-0.001986421
0.1750004,-0.001967415
0.1740004,-0.001944117
0.1730004,-0.001920513
0.1720004,-0.001900588
0.1710004,-0.001875451
0.1700004,-0.001853073
0.1690004,-0.001831921
0.1680004,-0.001808317
0.1670004,-0.001787778
0.1660004,-0.001765706
0.1650004,-0.001743328
0.1640004,-0.00172187
0.1630004,-0.001698879
0.1620004,-0.001677727
0.1610004,-0.001655349
0.1600004,-0.001633891
0.1590004,-0.001613659
0.1580004,-0.001590667
0.1570004,-0.001569822
0.1560004,-0.001550203
0.1550004,-0.001527825
0.1540004,-0.001509126
0.1530004,-0.001488587
0.1520004,-0.001466209
0.1510004,-0.001448429
0.1500004,-0.001428197
0.1490004,-0.001407045
0.1480004,-0.001389878
0.1470004,-0.001370872
0.1460004,-0.001350947
0.1450004,-0.00133286
0.1440004,-0.001314161
0.1430004,-0.001296994
0.1420004,-0.001278601
0.1410004,-0.001261435
0.1400004,-0.001244881
0.1390004,-0.001226795
0.1380004,-0.001210854
0.1370004,-0.0011943
0.1360004,-0.001177134
0.1350004,-0.001162726
0.1340004,-0.001146479
0.1330004,-0.001130845
0.1320004,-0.001116744
0.1310004,-0.001100803
0.1300004,-0.001086702
0.1290004,-0.001072907
0.1280004,-0.001057273
0.1270004,-0.001045011
0.1260004,-0.001031523
0.1250004,-0.001017422
0.1240004,-0.001005467
0.1230004,-0.0009919786
0.1220004,-0.0009791035
0.1210004,-0.0009680677
0.1200004,-0.0009554993
0.1190004,-0.0009435439
0.1180004,-0.0009322016
0.1170004,-0.0009205528
0.1160004,-0.0009098236
0.1150004,-0.0008997075
0.1140004,-0.0008883653
0.1130004,-0.0008782492
0.1120004,-0.0008675199
0.1110004,-0.0008583235
0.1100004,-0.0008482074
0.1090004,-0.0008387044
0.1080004,-0.0008298145
0.1070004,-0.000820005
0.1060004,-0.0008108085
0.1050004,-0.0008025317
0.1040004,-0.0007930287
0.1030004,-0.0007856716
0.1020004,-0.0007780078
0.1010004,-0.0007685049
0.1000004,-0.0007614543
0.09900038,-0.000753484
0.09800038,-0.0007455137
0.09700038,-0.0007390762
0.09600038,-0.0007307994
0.09500038,-0.0007237488
0.09400038,-0.0007166982
0.09300038,-0.0007096475
0.09200038,-0.0007035166
0.09100038,-0.0006967725
0.09000038,-0.0006900285
0.08900038,-0.0006838975
0.08800038,-0.0006771535
0.08700038,-0.0006716356
0.08600038,-0.0006655046
0.08500038,-0.0006596802
0.08400038,-0.0006544688
0.08300038,-0.0006483379
0.08200038,-0.00064282
0.08100038,-0.0006379153
0.08000038,-0.0006317843
0.07900038,-0.0006274926
0.07800038,-0.0006219748
0.07700038,-0.0006167634
0.07600038,-0.0006127784
0.07500038,-0.000607567
0.07400038,-0.0006026622
0.07300038,-0.0005986771
0.07200038,-0.0005937723
0.07100038,-0.0005894807
0.07000038,-0.0005854955
0.06900038,-0.0005805907
0.06800038,-0.0005772187
0.06700038,-0.000572927
0.06600038,-0.0005686354
0.06500039,-0.0005646503
0.06400038,-0.0005606651
0.06300038,-0.0005572931
0.06200038,-0.0005539211
0.06100038,-0.0005499359
0.06000038,-0.0005465639
0.05900038,-0.0005425788
0.05800038,-0.0005392068
0.05700038,-0.0005361412
0.05600038,-0.0005324627
0.05500038,-0.0005293972
0.05400038,-0.0005263317
0.05300038,-0.0005226531
0.05200038,-0.0005198942
0.05100038,-0.0005168287
0.05000038,-0.0005137632
0.04900038,-0.0005110043
0.04800038,-0.0005073257
0.04700038,-0.0005048733
0.04600038,-0.0005021144
0.04500038,-0.0004990489
0.04400038,-0.0004969031
0.04300038,-0.0004938376
0.04200038,-0.0004907721
0.04100038,-0.0004883197
0.04000038,-0.0004852542
0.03900038,-0.0004828018
0.03800038,-0.0004803495
0.03700038,-0.0004775905
0.03600038,-0.0004754447
0.03500038,-0.0004723792
0.03400038,-0.0004699268
0.03300038,-0.0004674745
0.03200038,-0.0004650221
0.03100038,-0.0004628762
0.03000038,-0.0004604238
0.02900038,-0.0004579714
0.02800038,-0.0004558256
0.02700038,-0.0004533732
0.02600038,-0.0004512274
0.02500038,-0.0004493881
0.02400038,-0.0004469357
0.02300038,-0.0004450964
0.02200038,-0.0004429506
0.02100038,-0.0004408048
0.02000038,-0.000439272
0.01900038,-0.0004371261
0.01800038,-0.0004352869
0.01700038,-0.0004334476
0.01600038,-0.0004313017
0.01500038,-0.0004294625
0.01400038,-0.0004276232
0.01300038,-0.0004257839
0.01200038,-0.0004239446
0.01100038,-0.0004224119
0.01000038,-0.0004205726
0.009000381,-0.0004187333
0.008000381,-0.000416894
0.007000382,-0.0004153613
0.006000381,-0.0004138285
0.005000381,-0.0004119892
0.004000382,-0.0004104565
0.003000381,-0.0004086172
0.002000381,-0.0004067779
0.001000381,-0.0004055517
3.814697E-07,-0.0003920636
0.0009996186,-0.0003798016
0.001999618,-0.0003712183
0.002999618,-0.0003641677
0.003999618,-0.0003574236
0.004999619,-0.0003519058
0.005999619,-0.0003460813
0.006999618,-0.00034087
0.007999619,-0.0003356587
0.008999619,-0.0003304474
0.009999619,-0.0003258491
0.01099962,-0.0003212509
0.01199962,-0.0003163462
0.01299962,-0.0003120545
0.01399962,-0.0003074562
0.01499962,-0.0003031646
0.01599962,-0.0002991795
0.01699962,-0.0002948878
0.01799962,-0.0002909026
0.01899962,-0.0002872241
0.01999962,-0.0002832389
0.02099962,-0.0002792538
0.02199962,-0.0002755752
0.02299962,-0.0002715901
0.02399962,-0.0002679115
0.02499962,-0.0002642329
0.02599962,-0.0002602478
0.02699962,-0.0002568758
0.02799962,-0.0002531972
0.02899962,-0.0002498252
0.02999962,-0.0002461466
0.03099962,-0.0002427746
0.03199962,-0.0002394025
0.03299962,-0.0002360305
0.03399962,-0.0002323519
0.03499962,-0.0002292864
0.03599962,-0.0002256079
0.03699962,-0.0002222358
0.03799962,-0.0002191703
0.03899962,-0.0002157983
0.03999962,-0.0002124263
0.04099962,-0.0002093608
0.04199962,-0.0002059888
0.04299962,-0.0002029233
0.04399962,-0.0001995512
0.04499962,-0.0001961792
0.04599962,-0.0001934203
0.04699962,-0.0001897417
0.04799962,-0.0001869828
0.04899962,-0.0001839173
0.04999962,-0.0001805453
0.05099962,-0.0001777863
0.05199962,-0.0001744143
0.05299962,-0.0001713488
0.05399962,-0.0001685899
0.05499962,-0.0001652178
0.05599962,-0.0001621524
0.05699962,-0.0001593934
0.05799962,-0.0001560214
0.05899962,-0.0001529559
0.05999962,-0.0001528438
0.06099962,-0.0001502995
0.06199962,-0.0001474179
0.06299962,-0.0001442605
0.06399962,-0.0001414095
0.06499962,-0.0001384973
0.06599962,-0.0001355238
0.06699962,-0.000132581
0.06799962,-0.0001290557
0.06899962,-0.0001264193
0.06999962,-0.0001234458
0.07099961,-0.0001202577
0.07199962,-0.0001174988
0.07299962,-0.000114372
0.07399962,-0.0001113372
0.07499962,-0.0001088541
0.07599962,-0.0001054821
0.07699962,-0.0001023247
0.07799962,-9.965767E-05
0.07899962,-9.610171E-05
0.07999962,-9.315884E-05
0.08099962,-9.012402E-05
0.08199961,-8.678265E-05
0.08299962,-8.380912E-05
0.08399962,-8.065168E-05
0.08499962,-7.749423E-05
0.08599962,-7.436744E-05
0.08699962,-7.117933E-05
0.08799962,-6.802189E-05
0.08899962,-6.458855E-05
0.08999962,-6.115521E-05
0.09099962,-5.827365E-05
0.09199962,-5.44418E-05
0.09299962,-5.116174E-05
0.09399962,-4.775905E-05
0.09499962,-4.383523E-05
0.09599962,-4.061648E-05
0.09699962,-3.712183E-05
0.09799962,-3.338194E-05
0.09899962,-3.004056E-05
0.09999962,-2.605543E-05
0.1009996,-2.243817E-05
0.1019996,-1.839173E-05
0.1029996,-1.434529E-05
0.1039996,-1.09426E-05
0.1049996,-7.049443E-06
0.1059996,-2.819077E-06
0.1069996,1.104741E-06
0.1079996,5.641656E-06
0.1089996,9.657437E-06
0.1099996,1.370388E-05
0.1109996,1.839406E-05
0.1119996,2.250181E-05
0.1129996,2.688545E-05
0.1139996,3.172891E-05
0.1149996,3.60819E-05
0.1159996,4.110929E-05
0.1169996,4.555424E-05
0.1179996,4.993788E-05
0.1189996,5.545575E-05
0.1199996,6.014594E-05
0.1209996,6.502005E-05
0.1219996,7.06912E-05
0.1229996,7.568793E-05
0.1239996,8.169628E-05
0.1249996,8.675433E-05
0.1259996,9.224153E-05
0.1269996,9.809661E-05
0.1279996,0.0001034612
0.1289996,0.0001094389
0.1299996,0.0001155392
0.1309996,0.000121149
0.1319996,0.0001280157
0.1329996,0.0001338708
0.1339996,0.0001399711
0.1349996,0.0001472669
0.1359996,0.0001532753
0.1369996,0.0001602339
0.1379996,0.0001675604
0.1389996,0.0001739673
0.1399996,0.0001819989
0.1409996,0.0001893254
0.1419996,0.0001960081
0.1429996,0.0002044075
0.1439996,0.0002117647
0.1449996,0.0002191525
0.1459996,0.0002275213
0.1469996,0.0002353689
0.1479996,0.0002442895
0.1489996,0.0002523823
0.1499996,0.0002608737
0.1509996,0.0002699169
0.1519996,0.0002785309
0.1529996,0.0002881259
0.1539996,0.0003013486
0.1549996,0.0003096254
0.1559996,0.0003197415
0.1569996,0.0003286314
0.1579996,0.000338441
0.1589996,0.0003491702
0.1599996,0.0003586731
0.1609996,0.0003690958
0.1619996,0.0003804381
0.1629996,0.0003905542
0.1639996,0.0004025096
0.1649996,0.0004129322
0.1659996,0.000424581
0.1669996,0.000436843
0.1679996,0.0004478787
0.1689996,0.0004598341
0.1699996,0.000472096
0.1709996,0.0004837449
0.1719996,0.0004969264
0.1729996,0.0005094949
0.1739996,0.0005217568
0.1749996,0.0005355515
0.1759996,0.0005484265
0.1769996,0.0005619146
0.1779996,0.0005760159
0.1789996,0.0005885844
0.1799996,0.0006039118
0.1809996,0.0006177064
0.1819996,0.0006318077
0.1829996,0.0006471351
0.1839996,0.0006609298
0.1849996,0.0006762572
0.1859996,0.0006918911
0.1869996,0.0007059924
0.1879996,0.0007228525
0.1889996,0.000738793
0.1899996,0.0007535074
0.1909996,0.0007700609
0.1919996,0.000786308
0.1929996,0.0008031682
0.1939996,0.0008194152
0.1949996,0.0008353557
0.1959996,0.0008540552
0.1969996,0.0008699957
0.1979996,0.0008874689
0.1989996,0.0009064749
0.1999996,0.0009218023
0.2009996,0.0009401952
0.2019996,0.0009588947
0.2029996,0.0009745287
0.2039996,0.0009950673
0.2049996,0.001014993
0.2059996,0.001031547
0.2069996,0.001051166
0.2079996,0.001069252
0.2089996,0.001087951
0.2099996,0.001107264
0.2109996,0.001125657
0.2119996,0.001146196
0.2129996,0.001164282
0.2139996,0.001183595
0.2149996,0.001203214
0.2159996,0.001221606
0.2169996,0.001243371
0.2179996,0.001262377
0.2189996,0.001281077
0.2199996,0.001303761
0.2209996,0.001320928
0.2219996,0.001341467
0.2229996,0.001362925
0.2239996,0.001381012
0.2249996,0.001402777
0.2259996,0.001423009
0.2269996,0.001440789
0.2279996,0.001463473
0.2289996,0.001482479
0.2299996,0.001501179
0.2309996,0.001522943
0.2319996,0.001541643
0.2329996,0.001562488
0.2339996,0.001583947
0.2349996,0.001602646
0.2359996,0.001623491
0.2369996,0.00164311
0.2379996,0.001662729
0.2389996,0.001682962
0.2399996,0.001701048
0.2409996,0.001721893
0.2419996,0.001740899
0.2429996,0.001760518
0.2439996,0.00178167
0.2449996,0.00179945
0.2459996,0.001818763
0.2469996,0.001838382
0.2479996,0.001854935
0.2489996,0.001875781
0.2499996,0.00189448
0.2509996,0.001911034
0.2519996,0.001931572
0.2529996,0.001947513
0.2539996,0.001965906
0.2549996,0.001984912
0.2559996,0.002001772
0.2569996,0.002020165
0.2579996,0.002037332
0.2589996,0.002052966
0.2599996,0.002071665
0.2609996,0.00208546
0.2619996,0.00210232
0.2629996,0.002121019
0.2639996,0.002134507
0.2649996,0.002151061
0.2659996,0.002167002
0.2669996,0.00217957
0.2679996,0.002197963
0.2689996,0.002211145
0.2699996,0.002225859
0.2709996,0.002241186
0.2719996,0.002252528
0.2729996,0.002268469
0.2739996,0.002280731
0.2749996,0.002295139
0.2759996,0.002309546
0.2769996,0.002319356
0.2779996,0.002332537
0.2789996,0.002345413
0.2799996,0.002353996
0.2809996,0.002369017
0.2819996,0.00237852
0.2829996,0.002388942
0.2839996,0.00240427
0.2849996,0.002411627
0.2859996,0.002421743
0.2869996,0.002434925
0.2879996,0.002442895
0.2889996,0.002453931
0.2899996,0.002465579
0.2909996,0.002472324
0.2919996,0.002484585
0.2929996,0.002490717
0.2939996,0.002498993
0.2949996,0.002511562
0.2959996,0.002517386
0.2969996,0.002525356
0.2979996,0.002533633
0.2989996,0.002540071
0.2999996,0.002549574
0.3009996,0.002556011
0.3019996,0.002565514
0.3029996,0.002571339
0.3039996,0.002576856
0.3049996,0.002586666
0.3059996,0.002589425
0.3069996,0.002600461
0.3079996,0.00261027
0.3089996,0.002610577
0.3099996,0.002616401
0.3109996,0.002623452
0.3119996,0.002623759
0.3129996,0.002632955
0.3139996,0.002638779
0.3149996,0.002640312
0.3159996,0.002648895
0.3169996,0.002652267
0.3179996,0.002654413
0.3189996,0.002660851
0.3199996,0.002666062
0.3209996,0.002669434
0.3219996,0.002673113
0.3229996,0.002677098
0.3239996,0.002681083
0.3249996,0.002681696
0.3259996,0.002688134
0.3269996,0.002690893
0.3279996,0.002690586
0.3289996,0.002697024
0.3299996,0.002697943
0.3309996,0.002698556
0.3319996,0.002706833
0.3329996,0.002702235
0.3339996,0.0027053
0.3349996,0.002712351
0.3359996,0.002708672
0.3369996,0.00271327
0.3379996,0.002715416
0.3389996,0.00271511
0.3399996,0.002721547
0.3409996,0.002720014
0.3419996,0.002720321
0.3429996,0.002724613
0.3439996,0.002721854
0.3449996,0.002724613
0.3459996,0.002726759
0.3469996,0.002724919
0.3479996,0.002726759
0.3489996,0.002725226
0.3499996,0.002725533
0.3509996,0.002725533
0.3519996,0.002726146
0.3529996,0.002728291
0.3539996,0.002725839
0.3549996,0.002725226
0.3559996,0.002727985
0.3569996,0.002721854
0.3579996,0.002723693
0.3589996,0.002725226
0.3599996,0.002719401
0.3609996,0.002721854
0.3619996,0.002719708
0.3629996,0.00271511
0.3639996,0.002717256
0.3649996,0.00271419
0.3659996,0.002709899
0.3669996,0.002710205
0.3679996,0.002706833
0.3689996,0.002704074
0.3699996,0.002703461
0.3709996,0.002701928
0.3719996,0.002699476
0.3729996,0.002695797
0.3739996,0.002692425
0.3749996,0.002690279
0.3759996,0.002685988
0.3769996,0.002684455
0.3779996,0.002681389
0.3789996,0.002677098
0.3799996,0.002675872
0.3809996,0.002669128
0.3819996,0.002666675
0.3829996,0.002663916
0.3839996,0.002656866
0.3849996,0.002656559
0.3859996,0.002650428
0.3869996,0.00264491
0.3879996,0.002645524
0.3889996,0.002636327
0.3899996,0.002633875
0.3909996,0.002632342
0.3919996,0.002623452
0.3929996,0.002622532
0.3939996,0.002617628
0.3949996,0.00261027
0.3959996,0.002609964
0.3969996,0.002603833
0.3979996,0.002598008
0.3989996,0.002595556
0.3999996,0.002588199
0.4009996,0.002584214
0.4019996,0.002580535
0.4029996,0.002572565
0.4039996,0.002570726
0.4049996,0.002563675
0.4059996,0.00255785
0.4069996,0.002554172
0.4079996,0.002545895
0.4089996,0.002546508
0.4099996,0.002546815
0.4109996,0.002536699
0.4119996,0.002532714
0.4129996,0.002523824
0.4139996,0.002518612
0.4149996,0.002514014
0.4159996,0.002505737
0.4169996,0.002502979
0.4179996,0.002495621
0.4189996,0.002488877
0.4199996,0.002487958
0.4209996,0.002478761
0.4219996,0.002475082
0.4229996,0.002471404
0.4239996,0.002463127
0.4249996,0.002458529
0.4259996,0.002454237
0.4269996,0.002446267
0.4279996,0.002442895
0.4289996,0.00243707
0.4299996,0.00243094
0.4309996,0.002426954
0.4319996,0.002419597
0.4329996,0.002416838
0.4339996,0.002410401
0.4349996,0.002402737
0.4359996,0.002402431
0.4369996,0.002394154
0.4379996,0.002390475
0.4389996,0.002388023
0.4399996,0.002379133
0.4409996,0.002377907
0.4419996,0.002373921
0.4429996,0.002366871
0.4439996,0.002365951
0.4449996,0.002360433
0.4459996,0.002356755
0.4469996,0.002353076
0.4479996,0.002349398
0.4489996,0.002347558
0.4499996,0.002343267
0.4509996,0.002340201
0.4519996,0.002340815
0.4529996,0.00233499
0.4539996,0.00233499
0.4549996,0.00233591
0.4559996,0.002329779
0.4569996,0.002333457
0.4579996,0.00233407
0.4589996,0.002330392
0.4599996,0.002336216
0.4609996,0.002339588
0.4619996,0.002341121
0.4629996,0.002348478
0.4639996,0.002350624
0.4649996,0.002358288
0.4659996,0.002366258
0.4669996,0.002376374
0.4679996,0.002387716
0.4689996,0.002399978
0.4699996,0.002415612
0.4709996,0.002432166
0.4719996,0.002451478
0.4729996,0.002475695
0.4739996,0.002500833
0.4749996,0.002529955
0.4759996,0.002563981
0.4769996,0.002596169
0.4779996,0.002639086
0.4789996,0.002685375
0.4799996,0.002731663
0.4809996,0.002791747
0.4819996,0.002851217
0.4829996,0.002914673
0.4839996,0.002992536
0.4849996,0.00309932
0.4859996,0.003182088
0.4869996,0.003280183
0.4879996,0.003381344
0.4889996,0.003494767
0.4899996,0.003614321
0.4909996,0.003740005
0.4919996,0.003884083
0.4929996,0.004031226
0.4939996,0.004187566
0.4949996,0.004356168
0.4959996,0.004527835
0.4969996,0.004714829
0.4979996,0.004914085
0.4989996,0.005116407
0.4999996,0.005330991
0.5009996,0.005554772
0.5019996,0.005784682
0.5029996,0.006026856
0.5039996,0.006272094
0.5049996,0.00653266
0.5059996,0.006796291
0.5069996,0.007066054
0.5079996,0.007351144
0.5089996,0.007636234
0.5099996,0.007927454
0.5109996,0.008227872
0.5119996,0.008540551
0.5129996,0.008850165
0.5139996,0.009172041
0.5149996,0.009493916
0.5159996,0.009818858
0.5169996,0.01014993
0.5179996,0.0104902
0.5189996,0.01083047
0.5199996,0.0111738
0.5209996,0.0115294
0.5219996,0.01187886
0.5229996,0.01223752
0.5239996,0.01260538
0.5249996,0.01296404
0.5259996,0.0133319
0.5269996,0.01370589
0.5279996,0.01407681
0.5289996,0.01445387
0.5299996,0.01483705
0.5309996,0.01521717
0.5319996,0.01560649
0.5329996,0.01599274
0.5339996,0.01638206
0.5349996,0.01677444
0.5359996,0.01716682
0.5369996,0.01756533
0.5379996,0.01795771
0.5389996,0.01835929
0.5399996,0.01877007
0.5409996,0.01916245
0.5419996,0.01957322
0.5429996,0.019984
0.5439996,0.02038864
0.5449996,0.02080248
0.5459996,0.02121939
0.5469996,0.0216271
0.5479996,0.02205013
0.5489996,0.02246091
0.5499996,0.02287781
0.5509996,0.02330085
0.5519996,0.02372082
0.5529996,0.02414079
0.5539996,0.02456383
0.5549996,0.02498686
0.5559996,0.02541297
0.5569996,0.025836
0.5579996,0.02626824
0.5589996,0.02669434
0.5599996,0.02712044
0.5609996,0.02755574
0.5619996,0.02798184
0.5629996,0.02841407
0.5639996,0.0288555
0.5649996,0.02928467
0.5659996,0.02971691
0.5669996,0.03015527
0.5679996,0.0313304
0.5689996,0.03175957
0.5699996,0.03218874
0.5709996,0.03264856
0.5719996,0.03307773
0.5729996,0.03353755
0.5739996,0.03396672
0.5749996,0.03442654
0.5759996,0.03488636
0.5769996,0.03531553
0.5779996,0.03577535
0.5789996,0.03623517
0.5799996,0.03666434
0.5809996,0.03712416
0.5819996,0.03758398
0.5829996,0.03804381
0.5839996,0.03850363
0.5849996,0.03896345
0.5859996,0.03939262
0.5869996,0.0398831
0.5879996,0.04031226
0.5889996,0.04077209
0.5899996,0.04123191
0.5909996,0.04169173
0.5919996,0.0421209
0.5929996,0.04258072
0.5939996,0.04304054
0.5949996,0.04350037
0.5959996,0.04396019
0.5969996,0.04442001
0.5979996,0.04487984
0.5989996,0.04533966
0.5999996,0.04579948
0.6009996,0.0462593
0.6019996,0.04674978
0.6029996,0.0472096
0.6039996,0.04766942
0.6049996,0.04812925
0.6059996,0.04858907
0.6069996,0.04904889
0.6079996,0.04950871
0.6089996,0.04999919
0.6099996,0.05042836
0.6109996,0.05088818
0.6119996,0.05137866
0.6129996,0.05183848
0.6139996,0.0522983
0.6149996,0.05278878
0.6159996,0.0532486
0.6169996,0.05370842
0.6179996,0.0541989
0.6189996,0.05465872
0.6199996,0.0551492
0.6209996,0.05557837
0.6219996,0.05603819
0.6229996,0.05652867
0.6239996,0.05701914
0.6249996,0.05747896
0.6259996,0.05796945
0.6269996,0.05842927
0.6279996,0.05888909
0.6289996,0.05934891
0.6299996,0.05983939
0.6309996,0.06029921
0.6319996,0.06078969
0.6329996,0.06128017
0.6339996,0.06173999
0.6349996,0.06219981
0.6359996,0.06269029
0.6369996,0.06315011
0.6379996,0.06364059
0.6389996,0.06410041
0.6399996,0.06456023
0.6409996,0.06505071
0.6419996,0.06551053
0.6429996,0.06600101
0.6439996,0.06649148
0.6449996,0.0669513
0.6459996,0.06741113
0.6469996,0.0679016
0.6479996,0.06836143
0.6489996,0.06885191
0.6499996,0.06934239
0.6509996,0.06980221
0.6519996,0.07029268
0.6529996,0.07075251
0.6539996,0.07124298
0.6549996,0.07170281
0.6559996,0.07219329
0.6569996,0.07265311
0.6579996,0.07311293
0.6589996,0.07363406
0.6599996,0.07409389
0.6609996,0.07455371
0.6619996,0.07504418
0.6629996,0.075504
0.6639996,0.07599448
0.6649996,0.07648496
0.6659996,0.07694478
0.6669996,0.07743526
0.6679996,0.07795639
0.6689996,0.07841621
0.6699996,0.07887604
0.6709996,0.07939716
0.6719996,0.07985699
0.6729996,0.08031681
0.6739996,0.08083794
0.6749996,0.08126711
0.6759996,0.08175759
0.6769996,0.08224807
0.6779996,0.08270789
0.6789996,0.08322902
0.6799996,0.08368885
0.6809996,0.08414867
0.6819996,0.0846698
0.6829996,0.08512962
0.6839996,0.0856201
0.6849996,0.08611058
0.6859996,0.0865704
0.6869996,0.08706088
0.6879996,0.08755135
0.6889996,0.08804183
0.6899996,0.08850165
0.6909996,0.08902278
0.6919996,0.08945195
0.6929996,0.08994243
0.6939996,0.09046356
0.6949996,0.09092338
0.6959996,0.09141386
0.6969996,0.09190433
0.6979996,0.09236415
0.6989996,0.09288529
0.6999996,0.09300791
0.6990005,0.09251743
0.6980005,0.09205761
0.6970005,0.09159779
0.6960005,0.09107666
0.6950005,0.09064749
0.6940005,0.09015701
0.6930005,0.08966654
0.6920004,0.08920672
0.6910005,0.08871623
0.6900005,0.08825641
0.6890005,0.08779659
0.6880005,0.08730611
0.6870005,0.08681564
0.6860005,0.08638646
0.6850005,0.08586534
0.6840005,0.08540551
0.6830005,0.08494569
0.6820005,0.08448587
0.6810005,0.08399539
0.6800005,0.08353557
0.6790005,0.08304509
0.6780005,0.08258527
0.6770005,0.08212545
0.6760005,0.08163497
0.6750005,0.08117515
0.6740005,0.08071532
0.6730005,0.0802555
0.6720005,0.07976502
0.6710005,0.0793052
0.6700005,0.07881473
0.6690005,0.0783549
0.6680005,0.07786443
0.6670005,0.0774046
0.6660005,0.07691412
0.6650005,0.0764543
0.6640005,0.07596382
0.6630005,0.075504
0.6620005,0.07504418
0.6610005,0.07455371
0.6600005,0.07409389
0.6590005,0.07363406
0.6580005,0.07314359
0.6570005,0.07268376
0.6560005,0.07222394
0.6550004,0.07173347
0.6540005,0.07130429
0.6530005,0.07084447
0.6520005,0.07035399
0.6510005,0.06989417
0.6500005,0.06943435
0.6490005,0.06894387
0.6480005,0.06848405
0.6470005,0.06799357
0.6460005,0.06753375
0.6450005,0.06710459
0.6440005,0.06661411
0.6430005,0.06615429
0.6420005,0.06572511
0.6410004,0.06523464
0.6400005,0.06477482
0.6390005,0.06431499
0.6380005,0.06385517
0.6370005,0.06336469
0.6360005,0.06293552
0.6350005,0.06244505
0.6340005,0.06198522
0.6330005,0.0615254
0.6320005,0.06106558
0.6310005,0.06060576
0.6300005,0.06014594
0.6290005,0.05968611
0.6280005,0.05922629
0.6270005,0.05876647
0.6260005,0.05830665
0.6250005,0.05784683
0.6240005,0.057387
0.6230005,0.05692718
0.6220005,0.05646735
0.6210005,0.05600753
0.6200005,0.05554771
0.6190005,0.05508789
0.6180004,0.05462807
0.6170005,0.05416824
0.6160005,0.05370842
0.6150005,0.05321795
0.6140005,0.05278878
0.6130005,0.05232896
0.6120005,0.05186913
0.6110005,0.05143997
0.6100005,0.05094949
0.6090005,0.05052032
0.6080005,0.0500605
0.6070005,0.04960068
0.6060005,0.04917151
0.6050005,0.04871169
0.6040004,0.04825186
0.6030005,0.0478227
0.6020005,0.04736288
0.6010005,0.04690305
0.6000005,0.04647389
0.5990005,0.04601406
0.5980005,0.04555424
0.5970005,0.04509442
0.5960005,0.04466525
0.5950005,0.04420543
0.5940005,0.04377626
0.5930005,0.04331644
0.5920005,0.04288727
0.5910005,0.04242745
0.5900005,0.04199828
0.5890005,0.04153846
0.5880005,0.04107863
0.5870005,0.04068012
0.5860005,0.0402203
0.5850005,0.03976048
0.5840005,0.03933131
0.5830005,0.03890214
0.5820005,0.03844232
0.5810004,0.03801315
0.5800005,0.03755333
0.5790005,0.03712416
0.5780005,0.036695
0.5770005,0.03626583
0.5760005,0.03583666
0.5750005,0.03537684
0.5740005,0.03494767
0.5730005,0.0345185
0.5720005,0.03411999
0.5710005,0.03366017
0.5700005,0.033231
0.5690005,0.03280183
0.5680005,0.03237266
0.5670004,0.0319435
0.5660005,0.03151433
0.5650005,0.03108516
0.5640005,0.03065599
0.5630005,0.03022683
0.5620005,0.02979766
0.5610005,0.02939915
0.5600005,0.02896998
0.5590005,0.02854081
0.5580005,0.0281423
0.5570005,0.02771313
0.5560005,0.02728396
0.5550005,0.02688545
0.5540005,0.02645628
0.5530005,0.02602712
0.5520005,0.0256286
0.5510005,0.02523009
0.5500005,0.02480092
0.5490005,0.02440241
0.5480005,0.0240039
0.5470005,0.02357473
0.5460005,0.02317622
0.5450005,0.0227777
0.5440005,0.02237919
0.5430005,0.02198068
0.5420005,0.02158217
0.5410005,0.02118365
0.5400005,0.02078514
0.5390005,0.02038663
0.5380005,0.01998811
0.5370005,0.01962026
0.5360005,0.01922174
0.5350005,0.01882323
0.5340005,0.01845537
0.5330005,0.01808752
0.5320005,0.017689
0.5310005,0.01732115
0.5300004,0.01692263
0.5290005,0.01655477
0.5280005,0.01618692
0.5270005,0.01581906
0.5260005,0.0154512
0.5250005,0.01508334
0.5240005,0.01471548
0.5230005,0.01434763
0.5220005,0.01397977
0.5210005,0.01364256
0.5200005,0.01327471
0.5190005,0.01244291
0.5180005,0.01209958
0.5170005,0.01175931
0.5160004,0.01141904
0.5150005,0.0110849
0.5140005,0.01075076
0.5130005,0.01042582
0.5120005,0.01009168
0.5110005,0.009763679
0.5100005,0.009450999
0.5090005,0.009132189
0.5080005,0.008816444
0.5070005,0.008512962
0.5060005,0.008203348
0.5050005,0.007905996
0.5040005,0.00761171
0.5030005,0.007314358
0.5020005,0.007029268
0.5010005,0.006741113
0.5000005,0.006459088
0.4990005,0.00618626
0.4980005,0.005919564
0.4970005,0.005646735
0.4960005,0.005389235
0.4950005,0.005128669
0.4940005,0.004880365
0.4930005,0.004635126
0.4920005,0.004389888
0.4910005,0.004156911
0.4900005,0.003927
0.4890005,0.003697089
0.4880005,0.003482505
0.4870005,0.003264856
0.4860005,0.003059468
0.4850005,0.002857147
0.4840005,0.002664021
0.4830005,0.00246783
0.4820005,0.002280836
0.4810005,0.002099972
0.4800005,0.001928305
0.4790005,0.001759704
0.4780005,0.001600299
0.4770005,0.001443959
0.4760005,0.00129375
0.4750005,0.001152738
0.4740005,0.0009818858
0.4730005,0.0008506831
0.4720005,0.0007277572
0.4710005,0.0006036052
0.4700005,0.0004898758
0.4690005,0.0003807446
0.4680005,0.0002734528
0.4670005,0.0001765835
0.4660005,8.094042E-05
0.4650005,-1.391612E-05
0.4640005,-9.505945E-05
0.4630005,-0.0001787471
0.4620005,-0.0002526559
0.4610005,-0.0003255531
0.4600005,-0.0003948225
0.4590005,-0.0004530667
0.4580005,-0.0005137632
0.4570005,-0.0005692485
0.4560005,-0.0006195224
0.4550005,-0.0006731683
0.4540005,-0.0007185375
0.4530005,-0.0007614543
0.4520005,-0.0008040644
0.4510005,-0.000839624
0.4500005,-0.0008779426
0.4490005,-0.0009107432
0.4480005,-0.0009423177
0.4470005,-0.0009745053
0.4460005,-0.0009996422
0.4450005,-0.001025699
0.4440005,-0.001052675
0.4430005,-0.001071375
0.4420005,-0.001095285
0.4410005,-0.001116744
0.4400005,-0.001132378
0.4390005,-0.001153223
0.4380005,-0.001168857
0.4370005,-0.001184184
0.4360005,-0.001201045
0.4350005,-0.001212693
0.4340005,-0.001226795
0.4330005,-0.00123967
0.4320005,-0.001249479
0.4310005,-0.0012645
0.4300005,-0.001273083
0.4290005,-0.001284732
0.4280005,-0.001296381
0.4270005,-0.001302205
0.4260005,-0.001313241
0.4250005,-0.001321825
0.4240005,-0.001327342
0.4230005,-0.001339298
0.4220005,-0.001346348
0.4210005,-0.001352173
0.4200005,-0.001361982
0.4190005,-0.001365967
0.4180005,-0.001374244
0.4170005,-0.001381908
0.4160005,-0.001385893
0.4150005,-0.001395396
0.4140005,-0.001400301
0.4130005,-0.001404899
0.4120005,-0.001413176
0.4110005,-0.001417774
0.4100005,-0.001430343
0.4090005,-0.001439539
0.4080005,-0.001439846
0.4070005,-0.00144567
0.4060005,-0.001449655
0.4050005,-0.00145456
0.4040005,-0.001461304
0.4030005,-0.001464676
0.4020005,-0.001472033
0.4010005,-0.001476938
0.4000005,-0.001480923
0.3990005,-0.001488893
0.3980005,-0.001492572
0.3970005,-0.001499929
0.3960005,-0.001507899
0.3950005,-0.001510045
0.3940005,-0.001517096
0.3930005,-0.00152384
0.3920005,-0.001527212
0.3910005,-0.001536715
0.3900005,-0.001542233
0.3890005,-0.001546524
0.3880005,-0.001555108
0.3870005,-0.001559093
0.3860005,-0.001565224
0.3850005,-0.001572581
0.3840005,-0.00157626
0.3830005,-0.001585763
0.3820005,-0.001590054
0.3810005,-0.001597105
0.3800005,-0.001606914
0.3790005,-0.001610286
0.3780005,-0.001620403
0.3770005,-0.00162776
0.3760005,-0.001631745
0.3750005,-0.001641554
0.3740005,-0.001647685
0.3730005,-0.001655043
0.3720005,-0.001665465
0.3710005,-0.001671596
0.3700005,-0.001679566
0.3690005,-0.001689069
0.3680005,-0.001694281
0.3670005,-0.001704703
0.3660005,-0.001710528
0.3650005,-0.001720031
0.3640005,-0.001730147
0.3630005,-0.001735665
0.3620005,-0.001746394
0.3610005,-0.001754671
0.3600005,-0.001762641
0.3590005,-0.001776436
0.3580005,-0.001783486
0.3570005,-0.001791763
0.3560005,-0.001803412
0.3550005,-0.001809849
0.3540005,-0.001820885
0.3530005,-0.001830082
0.3520005,-0.001839278
0.3510005,-0.001853073
0.3500005,-0.001860736
0.3490005,-0.00186932
0.3480005,-0.001882501
0.3470005,-0.001890778
0.3460005,-0.001902427
0.3450005,-0.001914689
0.3440005,-0.001922353
0.3430005,-0.001935228
0.3420005,-0.001945344
0.3410005,-0.001955766
0.3400005,-0.001968335
0.3390005,-0.001979064
0.3380005,-0.001991633
0.3370005,-0.002002975
0.3360005,-0.002012784
0.3350005,-0.002027192
0.3340005,-0.002035469
0.3330005,-0.002046811
0.3320005,-0.002061525
0.3310005,-0.002069496
0.3300005,-0.002083903
0.3290005,-0.002097698
0.3280005,-0.002105668
0.3270005,-0.002121915
0.3260005,-0.002133871
0.3250005,-0.002143374
0.3240005,-0.002158395
0.3230005,-0.00216943
0.3220005,-0.002181079
0.3210005,-0.002194261
0.3200005,-0.002206829
0.3190005,-0.002220624
0.3180005,-0.002232579
0.3170005,-0.002244228
0.3160005,-0.002257103
0.3150005,-0.002268139
0.3140005,-0.002282853
0.3130005,-0.002294502
0.3120005,-0.002305844
0.3110005,-0.002321172
0.3100005,-0.002330675
0.3090005,-0.002344163
0.3080005,-0.002357651
0.3070005,-0.002372365
0.3060005,-0.002385241
0.3050005,-0.002395357
0.3040005,-0.002404246
0.3030005,-0.002419267
0.3020005,-0.002429077
0.3010005,-0.002441339
0.3000005,-0.002456053
0.2990005,-0.002464023
0.2980005,-0.002475979
0.2970005,-0.002488547
0.2960005,-0.00249805
0.2950005,-0.002511232
0.2940005,-0.002522574
0.2930005,-0.00253361
0.2920005,-0.002543726
0.2910005,-0.002552616
0.2900005,-0.002565491
0.2890005,-0.0025753
0.2880005,-0.002586643
0.2870005,-0.002598598
0.2860005,-0.002605035
0.2850005,-0.002615151
0.2840005,-0.00262772
0.2830005,-0.002632931
0.2820005,-0.002643661
0.2810005,-0.002652857
0.2800005,-0.002658988
0.2790005,-0.00267125
0.2780005,-0.002678607
0.2770005,-0.002685351
0.2760005,-0.002696694
0.2750005,-0.002704664
0.2740005,-0.002712021
0.2730005,-0.002719378
0.2720005,-0.002724896
0.2710005,-0.002734399
0.2700005,-0.00273961
0.2690005,-0.002746967
0.2680005,-0.002756164
0.2670005,-0.002758616
0.2660005,-0.002765974
0.2650005,-0.002771798
0.2640005,-0.002774557
0.2630005,-0.002782834
0.2620005,-0.002787738
0.2610005,-0.002790804
0.2600005,-0.002796015
0.2590005,-0.002798774
0.2580005,-0.002803066
0.2570005,-0.002807051
0.2560005,-0.002810116
0.2550005,-0.002815328
0.2540005,-0.002815634
0.2530005,-0.00281778
0.2520005,-0.002822378
0.2510005,-0.002819619
0.2500005,-0.002823911
0.2490005,-0.002825444
0.2480005,-0.002822072
0.2470005,-0.00282575
0.2460005,-0.002823605
0.2450005,-0.002823605
0.2440005,-0.002824218
0.2430005,-0.002822991
0.2420005,-0.002822991
0.2410005,-0.002820539
0.2400005,-0.002815941
0.2390005,-0.002815328
0.2380005,-0.002812262
0.2370005,-0.00280981
0.2360005,-0.002807357
0.2350005,-0.002801226
0.2340005,-0.002798468
0.2330005,-0.002794789
0.2320005,-0.002789271
0.2310005,-0.002784673
0.2300005,-0.002776089
0.2290005,-0.002771491
0.2280005,-0.002765667
0.2270005,-0.002756777
0.2260005,-0.002752485
0.2250005,-0.002743595
0.2240005,-0.002735931
0.2230005,-0.002731027
0.2220005,-0.002718152
0.2210005,-0.002709568
0.2200005,-0.002703131
0.2190005,-0.002688723
0.2180005,-0.002681979
0.2170005,-0.002672476
0.2160005,-0.002657455
0.2150005,-0.002649485
0.2140005,-0.002636916
0.2130005,-0.002623735
0.2120005,-0.002613006
0.2110005,-0.002598905
0.2100005,-0.002585723
0.2090005,-0.002573155
0.2080005,-0.002557521
0.2070005,-0.002544645
0.2060005,-0.002529012
0.2050005,-0.002517976
0.2040005,-0.002503875
0.2030005,-0.002484869
0.2020005,-0.002469235
0.2010005,-0.002451455
0.2000005,-0.002434288
0.1990005,-0.002420493
0.1980005,-0.002400261
0.1970005,-0.002383095
0.1960005,-0.002368074
0.1950005,-0.002346002
0.1940005,-0.002329448
0.1930005,-0.002311669
0.1920005,-0.00229021
0.1910005,-0.002274883
0.1900005,-0.002253731
0.1890005,-0.002231966
0.1880005,-0.002215719
0.1870005,-0.002192728
0.1860005,-0.002174335
0.1850005,-0.002154716
0.1840005,-0.002132032
0.1830005,-0.002113026
0.1820005,-0.00209218
0.1810005,-0.002072254
0.1800005,-0.002051409
0.1790005,-0.002028725
0.1780005,-0.002009719
0.1770005,-0.001987647
0.1760005,-0.001965576
0.1750005,-0.00194657
0.1740005,-0.001922659
0.1730005,-0.001902427
0.1720005,-0.001883421
0.1710005,-0.001858897
0.1700005,-0.001838972
0.1690005,-0.001818739
0.1680005,-0.001794828
0.1670005,-0.001776436
0.1660005,-0.001756203
0.1650005,-0.001732599
0.1640005,-0.0017139
0.1630005,-0.001692441
0.1620005,-0.001670676
0.1610005,-0.001651057
0.1600005,-0.001629906
0.1590005,-0.001610286
0.1580005,-0.001590054
0.1570005,-0.001569209
0.1560005,-0.001549283
0.1550005,-0.001529971
0.1540005,-0.001510965
0.1530005,-0.001490733
0.1520005,-0.001470807
0.1510005,-0.001453334
0.1500005,-0.001433102
0.1490005,-0.001415015
0.1480005,-0.001397849
0.1470005,-0.001377616
0.1460005,-0.001361369
0.1450005,-0.00134359
0.1440005,-0.001324277
0.1430005,-0.001308643
0.1420005,-0.001291476
0.1410005,-0.00127431
0.1400005,-0.001259289
0.1390005,-0.001241815
0.1380005,-0.001225875
0.1370005,-0.001210241
0.1360005,-0.001193994
0.1350005,-0.001179586
0.1340005,-0.001164565
0.1330005,-0.001149544
0.1320005,-0.001135443
0.1310005,-0.001121035
0.1300005,-0.001106934
0.1290005,-0.00109314
0.1280005,-0.001078732
0.1270005,-0.001066776
0.1260005,-0.001052982
0.1250005,-0.001040107
0.1240005,-0.001028458
0.1230005,-0.001015583
0.1220005,-0.001003934
0.1210005,-0.0009919786
0.1200005,-0.0009791035
0.1190005,-0.000969294
0.1180005,-0.0009576452
0.1170005,-0.0009459963
0.1160005,-0.0009364933
0.1150005,-0.000925151
0.1140005,-0.0009147284
0.1130005,-0.0009052254
0.1120005,-0.0008944962
0.1110005,-0.0008852997
0.1100005,-0.0008764099
0.1090005,-0.0008662938
0.1080005,-0.0008577104
0.1070005,-0.000848514
0.1060005,-0.0008402371
0.1050005,-0.0008316538
0.1040005,-0.0008227639
0.1030005,-0.0008147936
0.1020005,-0.00080713
0.1010005,-0.0007985466
0.1000005,-0.0007911894
0.09900048,-0.0007832192
0.09800047,-0.000775862
0.09700048,-0.0007691179
0.09600048,-0.0007611477
0.09500048,-0.0007544036
0.09400047,-0.0007479661
0.09300048,-0.0007409155
0.09200048,-0.000735091
0.09100047,-0.000728347
0.09000048,-0.0007212964
0.08900048,-0.0007160851
0.08800048,-0.0007090345
0.08700047,-0.0007032101
0.08600048,-0.0006976922
0.08500048,-0.0006915613
0.08400048,-0.0006866565
0.08300047,-0.0006811386
0.08200048,-0.0006753142
0.08100048,-0.0006707159
0.08000048,-0.0006651981
0.07900048,-0.0006599867
0.07800048,-0.0006547754
0.07700048,-0.0006498707
0.07600047,-0.000645579
0.07500048,-0.0006403677
0.07400048,-0.000636076
0.07300048,-0.0006317843
0.07200047,-0.000626573
0.07100048,-0.0006228944
0.07000048,-0.0006189093
0.06900048,-0.0006140045
0.06800048,-0.000610326
0.06700048,-0.0006060342
0.06600048,-0.0006023557
0.06500047,-0.0005986771
0.06400048,-0.0005943854
0.06300048,-0.0005907068
0.06200048,-0.0005873349
0.06100048,-0.0005833497
0.06000048,-0.0005802842
0.05900048,-0.0005766057
0.05800048,-0.000572927
0.05700048,-0.0005698616
0.05600048,-0.000566183
0.05500048,-0.0005631176
0.05400048,-0.0005597455
0.05300048,-0.0005569865
0.05200048,-0.0005536145
0.05100048,-0.000550549
0.05000048,-0.0005474835
0.04900048,-0.0005444181
0.04800048,-0.0005413526
0.04700048,-0.0005389001
0.04600048,-0.0005358347
0.04500048,-0.0005330758
0.04400048,-0.0005303168
0.04300048,-0.0005272513
0.04200048,-0.0005244924
0.04100048,-0.0005217335
0.04000048,-0.000518668
0.03900048,-0.0005165222
0.03800048,-0.0005137632
0.03700048,-0.0005110043
0.03600048,-0.0005085519
0.03500048,-0.000505793
0.03400048,-0.000503034
0.03300048,-0.0005008882
0.03200048,-0.0004984358
0.03100048,-0.0004956769
0.03000048,-0.0004938376
0.02900048,-0.0004907721
0.02800048,-0.0004886262
0.02700048,-0.0004864805
0.02600048,-0.0004837215
0.02500048,-0.0004815757
0.02400048,-0.0004791233
0.02300048,-0.0004769774
0.02200048,-0.0004748316
0.02100048,-0.0004726858
0.02000048,-0.0004708465
0.01900048,-0.0004683941
0.01800048,-0.0004665548
0.01700048,-0.0004644089
0.01600048,-0.0004625697
0.01500048,-0.0004607304
0.01400048,-0.000458278
0.01300048,-0.0004567453
0.01200048,-0.000454906
0.01100048,-0.000452147
0.01000048,-0.0004503077
0.009000476,-0.0004484684
0.008000477,-0.0004463226
0.007000477,-0.0004444833
0.006000477,-0.000442644
0.005000477,-0.0004404982
0.004000477,-0.0004386589
0.003000477,-0.0004368196
0.002000477,-0.0004346738
0.001000477,-0.0004328345
