EXPID. 1311
[电化学]: i-t : @ 0(V) X 600(sec)
起始电位 (V),0
静置时间 (秒),0
运行时间 (秒),600
记录间隔,0.1
电解液 信息:
HNO3,0.4
0.1,-0.0004211251
0.2,-0.0003924004
0.3,-0.00036999
0.4,-0.0003517525
0.5,-0.0003363957
0.6,-0.0003232745
0.7,-0.0003123156
0.8000001,-0.0003027344
0.9000001,-0.0002940441
1,-0.0002864086
1.1,-0.000279823
1.2,-0.0002735869
1.3,-0.0002679789
1.4,-0.0002629246
1.5,-0.000258248
1.6,-0.0002539725
1.7,-0.000250117
1.8,-0.0002462738
1.9,-0.0002427301
2,-0.0002395348
2.1,-0.0002365006
2.2,-0.0002336725
2.3,-0.0002309726
2.4,-0.0002284761
2.5,-0.0002261519
2.6,-0.0002239369
2.7,-0.0002216061
2.799999,-0.0002194081
2.899999,-0.0002174813
2.999999,-0.0002155508
3.099999,-0.0002136899
3.199999,-0.0002120739
3.299999,-0.0002104184
3.399999,-0.0002087958
3.499999,-0.0002073022
3.599999,-0.0002058632
3.699999,-0.0002043649
3.799999,-0.0002030032
3.899998,-0.0002016904
3.999998,-0.0002003852
4.099998,-0.0001991449
4.199998,-0.0001979103
4.299998,-0.0001967077
4.399998,-0.0001955531
4.499998,-0.0001944456
4.599998,-0.0001933853
4.699998,-0.0001923654
4.799998,-0.0001913634
4.899998,-0.0001903237
4.999998,-0.0001893151
5.099998,-0.0001884431
5.199997,-0.0001875814
5.299997,-0.0001866199
5.399997,-0.0001857761
5.499997,-0.0001849615
5.599997,-0.0001840602
5.699997,-0.0001832946
5.799997,-0.0001825318
5.899997,-0.0001817492
5.999997,-0.0001809798
6.099997,-0.0001802547
6.199996,-0.0001795814
6.299996,-0.0001789551
6.399996,-0.0001782724
6.499996,-0.0001774954
6.599996,-0.000176856
6.699996,-0.0001763023
6.799996,-0.0001755423
6.899996,-0.0001749838
6.999996,-0.0001743726
7.099996,-0.0001737295
7.199996,-0.0001731136
7.299995,-0.000172541
7.399995,-0.0001719571
7.499995,-0.0001713977
7.599995,-0.000170876
7.699995,-0.0001703129
7.799995,-0.0001697318
7.899995,-0.0001692779
7.999995,-0.0001687194
8.099995,-0.0001681544
8.199995,-0.0001676496
8.299995,-0.0001670987
8.399996,-0.0001666589
8.499996,-0.0001661363
8.599997,-0.0001656579
8.699997,-0.0001651512
8.799997,-0.0001647802
8.899998,-0.0001642924
8.999998,-0.0001638243
9.099998,-0.0001633723
9.199999,-0.0001630088
9.299999,-0.0001625728
9.4,-0.000162085
9.5,-0.000161696
9.6,-0.0001612628
9.700001,-0.0001608004
9.800001,-0.0001604378
9.900002,-0.0001600159
10,-0.0001596525
10.1,-0.0001593153
10.2,-0.0001588934
10.3,-0.0001584555
10.4,-0.0001581127
10.5,-0.0001578368
10.6,-0.0001574064
10.7,-0.0001570636
10.8,-0.0001566879
10.90001,-0.0001562999
11.00001,-0.0001560136
11.10001,-0.0001556981
11.20001,-0.0001553167
11.30001,-0.0001549777
11.40001,-0.0001546707
11.50001,-0.0001542959
11.60001,-0.000153987
11.70001,-0.0001536838
11.80001,-0.0001533165
11.90001,-0.0001530632
12.00001,-0.000152823
12.10001,-0.0001524576
12.20001,-0.0001522146
12.30001,-0.0001518521
12.40001,-0.0001515592
12.50001,-0.0001512597
12.60001,-0.0001509876
12.70001,-0.0001506156
12.80001,-0.0001503811
12.90001,-0.00015006
13.00001,-0.0001497935
13.10001,-0.0001494883
13.20001,-0.000149219
13.30001,-0.0001489054
13.40001,-0.0001486916
13.50002,-0.0001485278
13.60002,-0.0001481812
13.70002,-0.0001479298
13.80002,-0.0001476576
13.90002,-0.0001473629
14.00002,-0.0001471623
14.10002,-0.0001469278
14.20002,-0.0001466302
14.30002,-0.000146407
14.40002,-0.0001461895
14.50002,-0.0001458872
14.60002,-0.0001456696
14.70002,-0.0001454417
14.80002,-0.0001451291
14.90002,-0.0001448955
15.00002,-0.0001446215
15.10002,-0.0001443879
15.20002,-0.0001441949
15.30002,-0.0001439133
15.40002,-0.0001436732
15.50002,-0.0001434368
15.60002,-0.0001432616
15.70002,-0.0001430507
15.80002,-0.0001428416
15.90002,-0.0001426015
16.00002,-0.0001424093
16.10003,-0.0001422559
16.20003,-0.0001420063
16.30003,-0.0001417953
16.40003,-0.0001415759
16.50003,-0.000141283
16.60003,-0.0001410975
16.70003,-0.0001408913
16.80003,-0.0001406681
16.90003,-0.0001404647
17.00003,-0.000140265
17.10003,-0.000140071
17.20003,-0.0001398808
17.30003,-0.0001397386
17.40003,-0.0001394928
17.50003,-0.0001392998
17.60003,-0.0001390954
17.70003,-0.0001388892
17.80003,-0.0001387743
17.90003,-0.000138584
18.00003,-0.0001383392
18.10003,-0.0001381744
18.20003,-0.0001380199
18.30003,-0.0001377854
18.40003,-0.0001375849
18.50003,-0.0001374219
18.60003,-0.0001373146
18.70004,-0.0001371498
18.80004,-0.000136968
18.90004,-0.0001367251
19.00004,-0.0001365358
19.10004,-0.0001363879
19.20004,-0.0001362081
19.30004,-0.0001360734
19.40004,-0.0001358455
19.50004,-0.0001356364
19.60004,-0.0001354537
19.70004,-0.0001353285
19.80004,-0.0001351533
19.90004,-0.0001349687
20.00004,-0.0001347728
20.10004,-0.0001346344
20.20004,-0.0001344555
20.30004,-0.0001343067
20.40004,-0.0001341654
20.50004,-0.000134011
20.60004,-0.0001338292
20.70004,-0.0001336513
20.80004,-0.0001335006
20.90004,-0.0001333273
21.00004,-0.0001332067
21.10004,-0.0001330099
21.20004,-0.0001328348
21.30005,-0.0001326973
21.40005,-0.0001325607
21.50005,-0.0001323827
21.60005,-0.0001322179
21.70005,-0.0001320597
21.80005,-0.0001319043
21.90005,-0.0001318196
22.00005,-0.0001316256
22.10005,-0.0001314655
22.20005,-0.0001313252
22.30005,-0.0001312263
22.40005,-0.0001310587
22.50005,-0.0001309108
22.60005,-0.00013081
22.70005,-0.0001306471
22.80005,-0.0001305576
22.90005,-0.0001304446
23.00005,-0.0001302836
23.10005,-0.0001301235
23.20005,-0.0001300077
23.30005,-0.0001298438
23.40005,-0.000129761
23.50005,-0.0001296875
23.60005,-0.000129502
23.70005,-0.0001293391
23.80005,-0.0001292468
23.90005,-0.0001290773
24.00006,-0.0001289614
24.10006,-0.0001288042
24.20006,-0.0001286751
24.30006,-0.0001285819
24.40006,-0.0001284962
24.50006,-0.0001284284
24.60006,-0.0001283201
24.70006,-0.000128209
24.80006,-0.0001280752
24.90006,-0.0001279368
25.00006,-0.0001278106
25.10006,-0.0001276986
25.20006,-0.0001275601
25.30006,-0.0001274763
25.40006,-0.0001273925
25.50006,-0.00012724
25.60006,-0.0001271382
25.70006,-0.0001270346
25.80006,-0.0001269094
25.90006,-0.0001268453
26.00006,-0.0001267851
26.10006,-0.0001266128
26.20006,-0.0001265553
26.30006,-0.0001264884
26.40006,-0.0001263104
26.50006,-0.0001261861
26.60007,-0.0001260392
26.70007,-0.0001259545
26.80007,-0.0001258452
26.90007,-0.0001257143
27.00007,-0.0001255976
27.10007,-0.0001254855
27.20007,-0.0001254205
27.30007,-0.0001253188
27.40007,-0.0001251766
27.50007,-0.0001251634
27.60007,-0.0001250128
27.70007,-0.0001248301
27.80007,-0.0001247867
27.90007,-0.0001246436
28.00007,-0.0001245023
28.10007,-0.0001244138
28.20007,-0.0001242999
28.30007,-0.0001241803
28.40007,-0.0001240823
28.50007,-0.0001240032
28.60007,-0.0001238733
28.70007,-0.0001237781
28.80007,-0.0001236632
28.90007,-0.0001235597
29.00007,-0.0001235154
29.10007,-0.0001233675
29.20008,-0.0001232508
29.30008,-0.0001231067
29.40008,-0.000123069
29.50008,-0.0001229541
29.60008,-0.0001228571
29.70008,-0.0001228016
29.80008,-0.0001226688
29.90008,-0.0001225934
30.00008,-0.0001224983
30.10008,-0.0001223759
30.20008,-0.000122342
30.30008,-0.0001222205
30.40008,-0.0001220755
30.50008,-0.0001219662
30.60008,-0.0001218796
30.70008,-0.0001218504
30.80008,-0.000121777
30.90008,-0.0001216319
31.00008,-0.0001215199
31.10008,-0.000121404
31.20008,-0.0001213221
31.30008,-0.0001212355
31.40008,-0.0001211592
31.50008,-0.0001210961
31.60008,-0.0001209755
31.70008,-0.0001209143
31.80009,-0.0001207957
31.90009,-0.000120678
32.00008,-0.0001206045
32.10008,-0.0001204953
32.20008,-0.0001204369
32.30008,-0.0001204227
32.40008,-0.000120305
32.50008,-0.0001202523
32.60007,-0.0001201939
32.70007,-0.0001201186
32.80007,-0.00012003
32.90007,-0.0001198916
33.00007,-0.0001197984
33.10007,-0.0001197466
33.20007,-0.0001196185
33.30006,-0.0001195498
33.40006,-0.0001195177
33.50006,-0.0001193605
33.60006,-0.0001192757
33.70006,-0.0001191674
33.80006,-0.0001190422
33.90005,-0.0001190309
34.00005,-0.0001189791
34.10005,-0.0001188303
34.20005,-0.0001186956
34.30005,-0.0001186476
34.40005,-0.0001185534
34.50005,-0.000118415
34.60004,-0.0001183481
34.70004,-0.0001182671
34.80004,-0.0001182012
34.90004,-0.0001181541
35.00004,-0.0001180486
35.10004,-0.0001179149
35.20004,-0.0001178697
35.30003,-0.0001177934
35.40003,-0.000117735
35.50003,-0.0001176842
35.60003,-0.0001175382
35.70003,-0.000117444
35.80003,-0.000117444
35.90002,-0.0001173668
36.00002,-0.0001172679
36.10002,-0.000117202
36.20002,-0.0001171239
36.30002,-0.0001170222
36.40002,-0.0001169694
36.50002,-0.0001168658
36.60001,-0.000116799
36.70001,-0.0001167255
36.80001,-0.0001166671
36.90001,-0.000116556
37.00001,-0.0001165212
37.10001,-0.0001164675
37.2,-0.0001163422
37.3,-0.000116266
37.4,-0.0001161765
37.5,-0.0001160964
37.6,-0.0001160719
37.7,-0.0001159994
37.8,-0.000115877
37.89999,-0.0001158196
37.99999,-0.0001157499
38.09999,-0.0001157047
38.19999,-0.0001156576
38.29999,-0.0001155436
38.39999,-0.0001154805
38.49998,-0.0001153798
38.59998,-0.0001153167
38.69998,-0.0001152913
38.79998,-0.0001151971
38.89998,-0.0001150963
38.99998,-0.000115086
39.09998,-0.000114988
39.19997,-0.0001148901
39.29997,-0.0001148468
39.39997,-0.000114762
39.49997,-0.000114665
39.59997,-0.0001146179
39.69997,-0.0001145774
39.79996,-0.000114487
39.89996,-0.0001144032
39.99996,-0.0001143439
40.09996,-0.0001142441
40.19996,-0.0001141998
40.29996,-0.0001141245
40.39996,-0.0001140538
40.49995,-0.000114035
40.59995,-0.000113906
40.69995,-0.0001138749
40.79995,-0.000113841
40.89995,-0.0001137901
40.99995,-0.0001137054
41.09995,-0.0001136649
41.19994,-0.0001135641
41.29994,-0.0001134756
41.39994,-0.0001134144
41.49994,-0.0001133447
41.59994,-0.0001132581
41.69994,-0.0001132628
41.79993,-0.0001131855
41.89993,-0.0001131017
41.99993,-0.0001131375
42.09993,-0.0001130452
42.19993,-0.0001130019
42.29993,-0.0001129162
42.39993,-0.0001128635
42.49992,-0.0001128371
42.59992,-0.000112758
42.69992,-0.00011271
42.79992,-0.0001126243
42.89992,-0.0001125809
42.99992,-0.0001124934
43.09991,-0.0001123879
43.19991,-0.0001123088
43.29991,-0.0001122297
43.39991,-0.0001122127
43.49991,-0.0001121054
43.59991,-0.000112014
43.69991,-0.0001119613
43.7999,-0.0001119038
43.8999,-0.000111804
43.9999,-0.0001118172
44.0999,-0.0001117532
44.1999,-0.0001116364
44.2999,-0.0001115723
44.39989,-0.0001115206
44.49989,-0.0001113915
44.59989,-0.0001113661
44.69989,-0.0001113369
44.79989,-0.0001112927
44.89989,-0.0001112955
44.99989,-0.0001112183
45.09988,-0.0001111166
45.19988,-0.0001110535
45.29988,-0.0001109904
45.39988,-0.0001109339
45.49988,-0.0001109263
45.59988,-0.0001107822
45.69987,-0.0001107841
45.79987,-0.000110819
45.89987,-0.0001106796
45.99987,-0.0001106156
46.09987,-0.0001105769
46.19987,-0.0001105195
46.29987,-0.00011043
46.39986,-0.0001104084
46.49986,-0.0001103189
46.59986,-0.0001102389
46.69986,-0.0001101795
46.79986,-0.0001101447
46.89986,-0.0001100129
46.99986,-0.0001100232
47.09985,-0.0001100091
47.19985,-0.0001098989
47.29985,-0.0001098556
47.39985,-0.0001097605
47.49985,-0.0001096465
47.59985,-0.0001096964
47.69984,-0.0001096418
47.79984,-0.0001095269
47.89984,-0.0001095137
47.99984,-0.0001094987
48.09984,-0.0001093988
48.19984,-0.0001093838
48.29984,-0.0001093423
48.39983,-0.0001092858
48.49983,-0.0001092585
48.59983,-0.0001092067
48.69983,-0.0001090937
48.79983,-0.0001090551
48.89983,-0.0001089986
48.99982,-0.0001089609
49.09982,-0.0001089459
49.19982,-0.0001088281
49.29982,-0.0001088168
49.39982,-0.0001086954
49.49982,-0.0001086765
49.59982,-0.0001086295
49.69981,-0.0001085569
49.79981,-0.000108523
49.89981,-0.0001084515
49.99981,-0.0001083978
50.09981,-0.0001083987
50.19981,-0.0001083413
50.2998,-0.000108265
50.3998,-0.0001082245
50.4998,-0.000108151
50.5998,-0.000108104
50.6998,-0.0001080597
50.7998,-0.0001080493
50.8998,-0.0001079815
50.99979,-0.0001079486
51.09979,-0.0001079034
51.19979,-0.0001078478
51.29979,-0.0001077649
51.39979,-0.000107748
51.49979,-0.0001077065
51.59978,-0.0001076171
51.69978,-0.0001076218
51.79978,-0.0001075427
51.89978,-0.0001074692
51.99978,-0.0001074316
52.09978,-0.0001073817
52.19978,-0.0001073007
52.29977,-0.0001072941
52.39977,-0.0001072366
52.49977,-0.0001071603
52.59977,-0.0001071246
52.69977,-0.0001071236
52.79977,-0.0001069965
52.89977,-0.0001070125
52.99976,-0.0001069682
53.09976,-0.0001069287
53.19976,-0.0001069221
53.29976,-0.0001068599
53.39976,-0.0001067705
53.49976,-0.0001067243
53.59975,-0.000106681
53.69975,-0.000106648
53.79975,-0.0001066339
53.89975,-0.0001065275
53.99975,-0.0001064719
54.09975,-0.0001064098
54.19975,-0.0001063928
54.29974,-0.0001063137
54.39974,-0.0001063043
54.49974,-0.0001062789
54.59974,-0.0001061866
54.69974,-0.0001061602
54.79974,-0.0001061188
54.89973,-0.0001060708
54.99973,-0.0001060519
55.09973,-0.0001060529
55.19973,-0.000106002
55.29973,-0.0001059625
55.39973,-0.0001058965
55.49973,-0.0001057732
55.59972,-0.0001057562
55.69972,-0.0001057675
55.79972,-0.0001057025
55.89972,-0.0001056668
55.99972,-0.0001056037
56.09972,-0.0001055792
56.19971,-0.0001055151
56.29971,-0.0001055217
56.39971,-0.0001054511
56.49971,-0.0001053607
56.59971,-0.0001053466
56.69971,-0.0001053287
56.79971,-0.0001052477
56.8997,-0.0001051799
56.9997,-0.0001051432
57.0997,-0.0001050791
57.1997,-0.0001050923
57.2997,-0.0001051064
57.3997,-0.0001050198
57.49969,-0.0001049492
57.59969,-0.0001049275
57.69969,-0.0001049068
57.79969,-0.0001048352
57.89969,-0.0001048088
57.99969,-0.000104726
58.09969,-0.00010466
58.19968,-0.0001046638
58.29968,-0.000104644
58.39968,-0.0001045536
58.49968,-0.0001045536
58.59968,-0.0001045216
58.69968,-0.0001044651
58.79967,-0.0001044595
58.89967,-0.0001044114
58.99967,-0.0001043521
59.09967,-0.0001043342
59.19967,-0.0001042645
59.29967,-0.000104241
59.39967,-0.0001042099
59.49966,-0.0001041675
59.59966,-0.0001040997
59.69966,-0.0001040592
59.79966,-0.0001040131
59.89966,-0.0001039594
59.99966,-0.0001039632
60.09966,-0.0001039321
60.19965,-0.0001038417
60.29965,-0.0001038115
60.39965,-0.0001037795
60.49965,-0.0001036948
60.59965,-0.0001036797
60.69965,-0.0001036637
60.79964,-0.0001036025
60.89964,-0.000103562
60.99964,-0.000103529
61.09964,-0.000103448
61.19964,-0.0001034226
61.29964,-0.0001033981
61.39964,-0.0001033435
61.49963,-0.0001032974
61.59963,-0.0001032587
61.69963,-0.0001031674
61.79963,-0.0001031627
61.89963,-0.0001031636
61.99963,-0.0001031523
62.09962,-0.0001030902
62.19962,-0.0001030337
62.29962,-0.0001029762
62.39962,-0.000102964
62.49962,-0.000102948
62.59962,-0.0001028745
62.69962,-0.0001028218
62.79961,-0.0001028293
62.89961,-0.0001027672
62.99961,-0.0001027304
63.09961,-0.0001026946
63.19961,-0.0001026589
63.29961,-0.0001026118
63.3996,-0.0001025647
63.4996,-0.0001025044
63.5996,-0.0001024423
63.6996,-0.000102446
63.7996,-0.0001023999
63.8996,-0.0001023311
63.9996,-0.0001023359
64.09959,-0.0001023076
64.19959,-0.0001022812
64.29959,-0.0001022294
64.39959,-0.0001021419
64.49959,-0.0001021042
64.59959,-0.0001020835
64.69958,-0.0001020703
64.79958,-0.0001020157
64.89958,-0.0001019874
64.99958,-0.0001019403
65.09958,-0.0001018612
65.19958,-0.0001018725
65.29958,-0.000101849
65.39957,-0.0001017878
65.49957,-0.0001017915
65.59957,-0.0001018471
65.69957,-0.0001017765
65.79957,-0.0001017228
65.89957,-0.0001016719
65.99957,-0.0001016145
66.09956,-0.0001016192
66.19956,-0.0001015674
66.29956,-0.0001014883
66.39956,-0.0001014422
66.49956,-0.000101445
66.59956,-0.0001013847
66.69955,-0.000101331
66.79955,-0.0001013103
66.89955,-0.0001012774
66.99955,-0.0001012359
67.09955,-0.0001011803
67.19955,-0.0001011474
67.29955,-0.0001010636
67.39954,-0.0001010815
67.49954,-0.0001010824
67.59954,-0.0001010052
67.69954,-0.0001009854
67.79954,-0.0001009581
67.89954,-0.0001008724
67.99953,-0.0001008847
68.09953,-0.0001008677
68.19953,-0.0001008027
68.29953,-0.0001007472
68.39953,-0.0001007566
68.49953,-0.0001006737
68.59953,-0.0001006775
68.69952,-0.0001006709
68.79952,-0.0001006219
68.89952,-0.0001005532
68.99952,-0.0001004995
69.09952,-0.0001004788
69.19952,-0.0001004373
69.29951,-0.0001004251
69.39951,-0.0001003987
69.49951,-0.0001003554
69.59951,-0.000100314
69.69951,-0.000100313
69.79951,-0.0001002895
69.89951,-0.0001002339
69.9995,-0.0001001878
70.0995,-0.0001001218
70.1995,-0.0001000776
70.2995,-0.0001000879
70.3995,-0.0001000362
70.4995,-9.998153E-05
70.59949,-9.998341E-05
70.69949,-9.998529E-05
70.79949,-9.987228E-05
70.89949,-9.986192E-05
70.99949,-9.980542E-05
71.09949,-9.979224E-05
71.19949,-9.982896E-05
71.29948,-9.976493E-05
71.39948,-9.968958E-05
71.49948,-9.965098E-05
71.59948,-9.965004E-05
71.69948,-9.961142E-05
71.79948,-9.959259E-05
71.89948,-9.95455E-05
71.99947,-9.951631E-05
72.09947,-9.949653E-05
72.19947,-9.946828E-05
72.29947,-9.94212E-05
72.39947,-9.939483E-05
72.49947,-9.936187E-05
72.59946,-9.928465E-05
72.69946,-9.926486E-05
72.79946,-9.92432E-05
72.89946,-9.92046E-05
72.99946,-9.920836E-05
73.09946,-9.916128E-05
73.19946,-9.909724E-05
73.29945,-9.909442E-05
73.39945,-9.903508E-05
73.49945,-9.897482E-05
73.59945,-9.903697E-05
73.69945,-9.897765E-05
73.79945,-9.89023E-05
73.89944,-9.888347E-05
73.99944,-9.884391E-05
74.09944,-9.879306E-05
74.19944,-9.876669E-05
74.29944,-9.877141E-05
74.39944,-9.876103E-05
74.49944,-9.867629E-05
74.59943,-9.868665E-05
74.69943,-9.864898E-05
74.79943,-9.857175E-05
74.89943,-9.859247E-05
74.99943,-9.85661E-05
75.09943,-9.853032E-05
75.19942,-9.850301E-05
75.29942,-9.846816E-05
75.39942,-9.845215E-05
75.49942,-9.839565E-05
75.59942,-9.837964E-05
75.69942,-9.832408E-05
75.79942,-9.828452E-05
75.89941,-9.828264E-05
75.99941,-9.825816E-05
76.09941,-9.820447E-05
76.19941,-9.821107E-05
76.29941,-9.815551E-05
76.39941,-9.813479E-05
76.4994,-9.815362E-05
76.5994,-9.810465E-05
76.6994,-9.80425E-05
76.7994,-9.804063E-05
76.8994,-9.798977E-05
76.9994,-9.79455E-05
77.0994,-9.795209E-05
77.19939,-9.790407E-05
77.29939,-9.783531E-05
77.39939,-9.78419E-05
77.49939,-9.779671E-05
77.59939,-9.772608E-05
77.69939,-9.773079E-05
77.79939,-9.771854E-05
77.89938,-9.766675E-05
77.99938,-9.768087E-05
78.09938,-9.764509E-05
78.19938,-9.757823E-05
78.29938,-9.758011E-05
78.39938,-9.755374E-05
78.49937,-9.749724E-05
78.59937,-9.750288E-05
78.69937,-9.75189E-05
78.79937,-9.744261E-05
78.89937,-9.742849E-05
78.99937,-9.740495E-05
79.09937,-9.738329E-05
79.19936,-9.737105E-05
79.29936,-9.730606E-05
79.39936,-9.72279E-05
79.49936,-9.718364E-05
79.59936,-9.7194E-05
79.69936,-9.713655E-05
79.79935,-9.713184E-05
79.89935,-9.713184E-05
79.99935,-9.707816E-05
80.09935,-9.70452E-05
80.19935,-9.699435E-05
80.29935,-9.69548E-05
80.39935,-9.693691E-05
80.49934,-9.69209E-05
80.59934,-9.684556E-05
80.69934,-9.683896E-05
80.79934,-9.683896E-05
80.89934,-9.677776E-05
80.99934,-9.674479E-05
81.09933,-9.669865E-05
81.19933,-9.667134E-05
81.29933,-9.66704E-05
81.39933,-9.665721E-05
81.49933,-9.658565E-05
81.59933,-9.658188E-05
81.69933,-9.659882E-05
81.79932,-9.652726E-05
81.89932,-9.653291E-05
81.99932,-9.64877E-05
82.09932,-9.642743E-05
82.19932,-9.644533E-05
82.29932,-9.643308E-05
82.39931,-9.638128E-05
82.49931,-9.633514E-05
82.59931,-9.64246E-05
82.69931,-9.639353E-05
82.79931,-9.632196E-05
82.89931,-9.628241E-05
82.99931,-9.622966E-05
83.0993,-9.621931E-05
83.1993,-9.61468E-05
83.2993,-9.613455E-05
83.3993,-9.608652E-05
83.4993,-9.607993E-05
83.5993,-9.605074E-05
83.6993,-9.602061E-05
83.79929,-9.595939E-05
83.89929,-9.599517E-05
83.99929,-9.599329E-05
84.09929,-9.602155E-05
84.19929,-9.597163E-05
84.29929,-9.591231E-05
84.39928,-9.583319E-05
84.49928,-9.590383E-05
84.59928,-9.583132E-05
84.69928,-9.578235E-05
84.79928,-9.576162E-05
84.89928,-9.574844E-05
84.99928,-9.567028E-05
85.09927,-9.562696E-05
85.19927,-9.556386E-05
85.29927,-9.557328E-05
85.39927,-9.556668E-05
85.49927,-9.5497E-05
85.59927,-9.544614E-05
85.69926,-9.54857E-05
85.79926,-9.540189E-05
85.89926,-9.539341E-05
85.99926,-9.54066E-05
86.09926,-9.537835E-05
86.19926,-9.530394E-05
86.29926,-9.528983E-05
86.39925,-9.527757E-05
86.49925,-9.529359E-05
86.59925,-9.528134E-05
86.69925,-9.522484E-05
86.79925,-9.513255E-05
86.89925,-9.509206E-05
86.99924,-9.510336E-05
87.09924,-9.503555E-05
87.19924,-9.500824E-05
87.29924,-9.501954E-05
87.39924,-9.493855E-05
87.49924,-9.49574E-05
87.59924,-9.492443E-05
87.69923,-9.486509E-05
87.79923,-9.486321E-05
87.89923,-9.483402E-05
87.99923,-9.478788E-05
88.09923,-9.475492E-05
88.19923,-9.474644E-05
88.29922,-9.468711E-05
88.39922,-9.466169E-05
88.49922,-9.465697E-05
88.59922,-9.462307E-05
88.69922,-9.457128E-05
88.79922,-9.459859E-05
88.89922,-9.452513E-05
88.99921,-9.451102E-05
89.09921,-9.451854E-05
89.19921,-9.44498E-05
89.29921,-9.439141E-05
89.39921,-9.435938E-05
89.49921,-9.434526E-05
89.59921,-9.432643E-05
89.6992,-9.431607E-05
89.7992,-9.431042E-05
89.8992,-9.424073E-05
89.9992,-9.425203E-05
90.0992,-9.421813E-05
90.1992,-9.416445E-05
90.29919,-9.414562E-05
90.39919,-9.412207E-05
90.49919,-9.404955E-05
90.59919,-9.403731E-05
90.69919,-9.40571E-05
90.79919,-9.401189E-05
90.89919,-9.403449E-05
90.99918,-9.397234E-05
91.09918,-9.392807E-05
91.19918,-9.387345E-05
91.29918,-9.390736E-05
91.39918,-9.387345E-05
91.49918,-9.382072E-05
91.59917,-9.383672E-05
91.69917,-9.377646E-05
91.79917,-9.37209E-05
91.89917,-9.374727E-05
91.99917,-9.370771E-05
92.09917,-9.363802E-05
92.19917,-9.366439E-05
92.29916,-9.362766E-05
92.39916,-9.360035E-05
92.49916,-9.359753E-05
92.59916,-9.355891E-05
92.69916,-9.350241E-05
92.79916,-9.351843E-05
92.89915,-9.347039E-05
92.99915,-9.341954E-05
93.09915,-9.339788E-05
93.19915,-9.339035E-05
93.29915,-9.33395E-05
93.39915,-9.334891E-05
93.49915,-9.333291E-05
93.59914,-9.329052E-05
93.69914,-9.326604E-05
93.79914,-9.328299E-05
93.89914,-9.322743E-05
93.99914,-9.320105E-05
94.09914,-9.318128E-05
94.19913,-9.314078E-05
94.29913,-9.313985E-05
94.39913,-9.312289E-05
94.49913,-9.306357E-05
94.59913,-9.302872E-05
94.69913,-9.305886E-05
94.79913,-9.304473E-05
94.89912,-9.298069E-05
94.99912,-9.294962E-05
95.09912,-9.291007E-05
95.19912,-9.287334E-05
95.29912,-9.287428E-05
95.39912,-9.287523E-05
95.49911,-9.279423E-05
95.59911,-9.274526E-05
95.69911,-9.277351E-05
95.79911,-9.276127E-05
95.89911,-9.272266E-05
95.99911,-9.27189E-05
96.09911,-9.268311E-05
96.1991,-9.264073E-05
96.2991,-9.264921E-05
96.3991,-9.259364E-05
96.4991,-9.257952E-05
96.5991,-9.257669E-05
96.6991,-9.252584E-05
96.7991,-9.249288E-05
96.89909,-9.245992E-05
96.99909,-9.246275E-05
97.09909,-9.238646E-05
97.19909,-9.241942E-05
97.29909,-9.238646E-05
97.39909,-9.231489E-05
97.49908,-9.230641E-05
97.59908,-9.229041E-05
97.69908,-9.224426E-05
97.79908,-9.227345E-05
97.89908,-9.223014E-05
97.99908,-9.217928E-05
98.09908,-9.214633E-05
98.19907,-9.217364E-05
98.29907,-9.207192E-05
98.39907,-9.206157E-05
98.49907,-9.207381E-05
98.59907,-9.199187E-05
98.69907,-9.197493E-05
98.79906,-9.198811E-05
98.89906,-9.190995E-05
98.99906,-9.190429E-05
99.09906,-9.192125E-05
99.19906,-9.18459E-05
99.29906,-9.182707E-05
99.39906,-9.181389E-05
99.49905,-9.179411E-05
99.59905,-9.175268E-05
99.69905,-9.176115E-05
99.79905,-9.170653E-05
99.89905,-9.171595E-05
99.99905,-9.167357E-05
100.099,-9.16538E-05
100.199,-9.162084E-05
100.299,-9.159918E-05
100.399,-9.15728E-05
100.499,-9.153513E-05
100.599,-9.153232E-05
100.699,-9.149653E-05
100.799,-9.145415E-05
100.899,-9.146074E-05
100.999,-9.141931E-05
101.099,-9.136751E-05
101.199,-9.136939E-05
101.299,-9.134396E-05
101.399,-9.125827E-05
101.499,-9.129876E-05
101.599,-9.130818E-05
101.699,-9.122248E-05
101.799,-9.1214E-05
101.899,-9.117069E-05
101.999,-9.113114E-05
102.099,-9.110289E-05
102.199,-9.11462E-05
102.299,-9.107464E-05
102.399,-9.105486E-05
102.499,-9.107369E-05
102.599,-9.102002E-05
102.699,-9.099082E-05
102.799,-9.09927E-05
102.899,-9.096822E-05
102.999,-9.090888E-05
103.099,-9.097763E-05
103.199,-9.088911E-05
103.299,-9.08618E-05
103.399,-9.087876E-05
103.499,-9.086462E-05
103.599,-9.082978E-05
103.699,-9.083072E-05
103.799,-9.076951E-05
103.899,-9.073561E-05
103.999,-9.073089E-05
104.099,-9.06744E-05
104.199,-9.064708E-05
104.299,-9.065179E-05
104.399,-9.062825E-05
104.499,-9.059623E-05
104.599,-9.058399E-05
104.699,-9.056892E-05
104.799,-9.051335E-05
104.899,-9.050864E-05
104.999,-9.052372E-05
105.099,-9.047663E-05
105.199,-9.046063E-05
105.299,-9.042766E-05
105.399,-9.03834E-05
105.499,-9.041165E-05
105.599,-9.037492E-05
105.699,-9.032407E-05
105.799,-9.033443E-05
105.899,-9.034007E-05
105.999,-9.035797E-05
106.099,-9.034667E-05
106.199,-9.024025E-05
106.299,-9.023743E-05
106.3989,-9.022518E-05
106.4989,-9.024214E-05
106.5989,-9.021107E-05
106.6989,-9.017056E-05
106.7989,-9.012819E-05
106.8989,-9.014891E-05
106.9989,-9.00764E-05
107.0989,-9.002178E-05
107.1989,-9.008205E-05
107.2989,-9.00293E-05
107.3989,-8.998881E-05
107.4989,-8.99568E-05
107.5989,-8.99389E-05
107.6989,-8.989275E-05
107.7989,-8.997563E-05
107.8989,-8.990123E-05
107.9989,-8.986262E-05
108.0989,-8.984567E-05
108.1989,-8.985132E-05
108.2989,-8.980989E-05
108.3989,-8.980047E-05
108.4989,-8.97402E-05
108.5989,-8.970065E-05
108.6989,-8.971665E-05
108.7989,-8.967804E-05
108.8989,-8.964037E-05
108.9989,-8.961212E-05
109.0989,-8.957821E-05
109.1989,-8.953961E-05
109.2989,-8.95641E-05
109.3989,-8.954902E-05
109.4989,-8.951606E-05
109.5989,-8.948593E-05
109.6989,-8.943602E-05
109.7989,-8.944167E-05
109.8989,-8.941435E-05
109.9989,-8.937668E-05
110.0989,-8.936162E-05
110.1989,-8.932772E-05
110.2989,-8.928534E-05
110.3989,-8.930417E-05
110.4989,-8.92731E-05
110.5989,-8.922319E-05
110.6989,-8.922601E-05
110.7989,-8.914126E-05
110.8989,-8.916103E-05
110.9989,-8.91921E-05
111.0989,-8.914597E-05
111.1989,-8.908381E-05
111.2989,-8.905933E-05
111.3989,-8.903485E-05
111.4989,-8.899434E-05
111.5989,-8.903108E-05
111.6989,-8.894443E-05
111.7989,-8.887757E-05
111.8989,-8.891524E-05
111.9989,-8.892184E-05
112.0989,-8.885779E-05
112.1989,-8.885779E-05
112.2989,-8.882766E-05
112.3989,-8.880036E-05
112.4989,-8.882577E-05
112.5989,-8.879281E-05
112.6989,-8.875891E-05
112.7989,-8.871465E-05
112.8988,-8.875891E-05
112.9988,-8.870617E-05
113.0988,-8.866663E-05
113.1988,-8.865155E-05
113.2988,-8.867228E-05
113.3988,-8.866569E-05
113.4988,-8.861389E-05
113.5988,-8.85329E-05
113.6988,-8.851877E-05
113.7988,-8.850559E-05
113.8988,-8.850935E-05
113.9988,-8.847546E-05
114.0988,-8.844437E-05
114.1988,-8.843307E-05
114.2988,-8.839541E-05
114.3988,-8.836621E-05
114.4988,-8.83436E-05
114.5988,-8.836715E-05
114.6988,-8.833608E-05
114.7988,-8.834925E-05
114.8988,-8.83436E-05
114.9988,-8.831065E-05
115.0988,-8.82485E-05
115.1988,-8.822024E-05
115.2988,-8.823719E-05
115.3988,-8.821742E-05
115.4988,-8.814396E-05
115.5988,-8.812324E-05
115.6988,-8.811948E-05
115.7988,-8.807334E-05
115.8988,-8.807428E-05
115.9988,-8.807804E-05
116.0988,-8.80432E-05
116.1988,-8.798952E-05
116.2988,-8.800647E-05
116.3988,-8.794243E-05
116.4988,-8.79302E-05
116.5988,-8.79509E-05
116.6988,-8.794055E-05
116.7988,-8.790853E-05
116.8988,-8.786709E-05
116.9988,-8.785391E-05
117.0988,-8.779459E-05
117.1988,-8.779364E-05
117.2988,-8.776915E-05
117.3988,-8.770983E-05
117.4988,-8.773242E-05
117.5988,-8.771265E-05
117.6988,-8.765426E-05
117.7988,-8.765897E-05
117.8988,-8.765615E-05
117.9988,-8.763449E-05
118.0988,-8.773902E-05
118.1988,-8.767498E-05
118.2988,-8.760341E-05
118.3988,-8.75987E-05
118.4988,-8.752524E-05
118.5988,-8.746968E-05
118.6988,-8.749228E-05
118.7988,-8.746874E-05
118.8988,-8.749417E-05
118.9988,-8.750828E-05
119.0988,-8.742919E-05
119.1988,-8.7416E-05
119.2988,-8.747251E-05
119.3988,-8.740565E-05
119.4987,-8.732842E-05
119.5987,-8.733595E-05
119.6987,-8.730865E-05
119.7987,-8.730675E-05
119.8987,-8.730582E-05
119.9987,-8.724084E-05
120.0987,-8.716927E-05
120.1987,-8.718998E-05
120.2987,-8.713725E-05
120.3987,-8.708451E-05
120.4987,-8.709487E-05
120.5987,-8.70751E-05
120.6987,-8.705531E-05
120.7987,-8.703366E-05
120.8987,-8.702142E-05
120.9987,-8.697056E-05
121.0987,-8.695832E-05
121.1987,-8.690936E-05
121.2987,-8.692913E-05
121.3987,-8.689429E-05
121.4987,-8.687921E-05
121.5987,-8.681706E-05
121.6987,-8.680199E-05
121.7987,-8.679352E-05
121.8987,-8.675114E-05
121.9987,-8.674455E-05
122.0987,-8.670405E-05
122.1987,-8.669087E-05
122.2987,-8.663814E-05
122.3987,-8.667204E-05
122.4987,-8.663154E-05
122.5987,-8.657221E-05
122.6987,-8.655337E-05
122.7987,-8.653549E-05
122.8987,-8.652701E-05
122.9987,-8.64997E-05
123.0987,-8.646862E-05
123.1987,-8.643378E-05
123.2987,-8.640835E-05
123.3987,-8.641306E-05
123.4987,-8.637727E-05
123.5987,-8.633677E-05
123.6987,-8.641023E-05
123.7987,-8.640646E-05
123.8987,-8.63575E-05
123.9987,-8.632171E-05
124.0987,-8.628592E-05
124.1987,-8.623884E-05
124.2987,-8.624354E-05
124.3987,-8.62313E-05
124.4987,-8.620682E-05
124.5987,-8.620588E-05
124.6987,-8.61409E-05
124.7987,-8.608063E-05
124.8987,-8.614278E-05
124.9987,-8.612206E-05
125.0987,-8.608346E-05
125.1987,-8.606179E-05
125.2987,-8.604766E-05
125.3987,-8.599116E-05
125.4987,-8.599494E-05
125.5987,-8.59987E-05
125.6987,-8.596103E-05
125.7987,-8.591394E-05
125.8987,-8.594125E-05
125.9986,-8.589887E-05
126.0986,-8.591112E-05
126.1986,-8.589323E-05
126.2986,-8.585084E-05
126.3986,-8.581506E-05
126.4986,-8.581035E-05
126.5986,-8.580188E-05
126.6986,-8.574726E-05
126.7986,-8.575291E-05
126.8986,-8.573219E-05
126.9986,-8.568039E-05
127.0986,-8.568039E-05
127.1986,-8.569546E-05
127.2986,-8.568227E-05
127.3986,-8.562483E-05
127.4986,-8.558339E-05
127.5986,-8.55542E-05
127.6986,-8.556267E-05
127.7986,-8.560318E-05
127.8986,-8.558904E-05
127.9986,-8.551465E-05
128.0986,-8.549487E-05
128.1986,-8.550711E-05
128.2986,-8.547791E-05
128.3986,-8.545249E-05
128.4986,-8.541859E-05
128.5986,-8.536209E-05
128.6987,-8.535926E-05
128.7987,-8.530747E-05
128.8987,-8.527921E-05
128.9987,-8.537433E-05
129.0987,-8.528016E-05
129.1987,-8.524342E-05
129.2987,-8.522647E-05
129.3987,-8.51954E-05
129.4987,-8.514737E-05
129.5987,-8.51794E-05
129.6987,-8.516338E-05
129.7987,-8.5121E-05
129.8987,-8.509935E-05
129.9987,-8.504943E-05
130.0987,-8.503342E-05
130.1987,-8.508616E-05
130.2988,-8.503625E-05
130.3988,-8.499105E-05
130.4988,-8.497504E-05
130.5988,-8.494114E-05
130.6988,-8.490535E-05
130.7988,-8.49223E-05
130.8988,-8.486485E-05
130.9988,-8.483943E-05
131.0988,-8.485073E-05
131.1988,-8.482059E-05
131.2988,-8.475561E-05
131.3988,-8.475467E-05
131.4988,-8.476221E-05
131.5988,-8.4717E-05
131.6988,-8.470665E-05
131.7988,-8.47057E-05
131.8988,-8.465297E-05
131.9989,-8.466615E-05
132.0989,-8.458233E-05
132.1989,-8.455408E-05
132.2989,-8.453808E-05
132.3989,-8.455314E-05
132.4989,-8.456538E-05
132.5989,-8.451923E-05
132.6989,-8.445332E-05
132.7989,-8.44731E-05
132.8989,-8.44731E-05
132.9989,-8.44147E-05
133.0989,-8.438739E-05
133.1989,-8.439115E-05
133.2989,-8.44213E-05
133.3989,-8.437233E-05
133.4989,-8.444201E-05
133.599,-8.437986E-05
133.699,-8.427533E-05
133.799,-8.428569E-05
133.899,-8.431677E-05
133.999,-8.428004E-05
134.099,-8.430358E-05
134.199,-8.430358E-05
134.299,-8.426874E-05
134.399,-8.419905E-05
134.499,-8.414914E-05
134.599,-8.415573E-05
134.699,-8.409264E-05
134.799,-8.408699E-05
134.899,-8.409264E-05
134.999,-8.406062E-05
135.099,-8.405119E-05
135.1991,-8.40107E-05
135.2991,-8.396267E-05
135.3991,-8.396832E-05
135.4991,-8.395702E-05
135.5991,-8.392124E-05
135.6991,-8.388828E-05
135.7991,-8.390805E-05
135.8991,-8.390146E-05
135.9991,-8.38233E-05
136.0991,-8.383931E-05
136.1991,-8.3812E-05
136.2991,-8.382989E-05
136.3991,-8.380353E-05
136.4991,-8.373101E-05
136.5991,-8.369899E-05
136.6991,-8.37263E-05
136.7991,-8.367827E-05
136.8992,-8.365285E-05
136.9992,-8.364531E-05
137.0992,-8.36067E-05
137.1992,-8.358034E-05
137.2992,-8.365755E-05
137.3992,-8.361141E-05
137.4992,-8.35615E-05
137.5992,-8.354831E-05
137.6992,-8.352948E-05
137.7992,-8.346356E-05
137.8992,-8.350217E-05
137.9992,-8.347392E-05
138.0992,-8.345037E-05
138.1992,-8.348333E-05
138.2992,-8.345791E-05
138.3992,-8.340046E-05
138.4993,-8.342588E-05
138.5993,-8.337597E-05
138.6993,-8.333831E-05
138.7993,-8.334207E-05
138.8993,-8.335432E-05
138.9993,-8.326862E-05
139.0993,-8.32818E-05
139.1993,-8.325826E-05
139.2993,-8.32253E-05
139.3993,-8.318575E-05
139.4993,-8.320269E-05
139.5993,-8.317915E-05
139.6993,-8.315184E-05
139.7993,-8.314996E-05
139.8993,-8.310664E-05
139.9993,-8.309157E-05
140.0993,-8.308027E-05
140.1994,-8.311135E-05
140.2994,-8.301059E-05
140.3994,-8.299081E-05
140.4994,-8.299929E-05
140.5994,-8.29748E-05
140.6994,-8.294843E-05
140.7994,-8.293524E-05
140.8994,-8.288439E-05
140.9994,-8.286932E-05
141.0994,-8.287121E-05
141.1994,-8.286367E-05
141.2994,-8.281659E-05
141.3994,-8.281376E-05
141.4994,-8.279305E-05
141.5994,-8.273277E-05
141.6994,-8.278174E-05
141.7995,-8.272806E-05
141.8995,-8.267721E-05
141.9995,-8.270264E-05
142.0995,-8.266309E-05
142.1995,-8.264425E-05
142.2995,-8.261035E-05
142.3995,-8.259905E-05
142.4995,-8.260187E-05
142.5995,-8.256703E-05
142.6995,-8.255855E-05
142.7995,-8.252371E-05
142.8995,-8.2519E-05
142.9995,-8.249452E-05
143.0995,-8.246533E-05
143.1995,-8.247097E-05
143.2995,-8.243424E-05
143.3996,-8.241353E-05
143.4996,-8.245496E-05
143.5996,-8.239563E-05
143.6996,-8.234855E-05
143.7996,-8.230806E-05
143.8996,-8.233253E-05
143.9996,-8.233912E-05
144.0996,-8.233348E-05
144.1996,-8.23203E-05
144.2996,-8.224025E-05
144.3996,-8.22459E-05
144.4996,-8.220446E-05
144.5996,-8.219034E-05
144.6996,-8.217904E-05
144.7996,-8.21489E-05
144.8996,-8.213948E-05
144.9996,-8.210558E-05
145.0997,-8.209428E-05
145.1997,-8.209711E-05
145.2997,-8.20858E-05
145.3997,-8.204061E-05
145.4997,-8.205191E-05
145.5997,-8.200576E-05
145.6997,-8.197091E-05
145.7997,-8.200387E-05
145.8997,-8.200765E-05
145.9997,-8.195209E-05
146.0997,-8.196526E-05
146.1997,-8.189934E-05
146.2997,-8.184848E-05
146.3997,-8.187014E-05
146.4997,-8.183059E-05
146.5997,-8.182965E-05
146.6998,-8.180046E-05
146.7998,-8.175903E-05
146.8998,-8.173547E-05
146.9998,-8.17628E-05
147.0998,-8.173642E-05
147.1998,-8.168651E-05
147.2998,-8.16639E-05
147.3998,-8.166296E-05
147.4998,-8.161965E-05
147.5998,-8.163471E-05
147.6998,-8.163754E-05
147.7998,-8.15509E-05
147.8998,-8.157257E-05
147.9998,-8.158293E-05
148.0998,-8.156032E-05
148.1998,-8.154054E-05
148.2999,-8.152736E-05
148.3999,-8.144826E-05
148.4999,-8.146426E-05
148.5999,-8.144637E-05
148.6999,-8.142471E-05
148.7999,-8.141717E-05
148.8999,-8.138327E-05
148.9999,-8.135125E-05
149.0999,-8.138327E-05
149.1999,-8.138515E-05
149.2999,-8.132206E-05
149.3999,-8.128628E-05
149.4999,-8.127403E-05
149.5999,-8.129098E-05
149.6999,-8.126179E-05
149.7999,-8.122036E-05
149.8999,-8.121187E-05
150,-8.118456E-05
150.1,-8.119775E-05
150.2,-8.120057E-05
150.3,-8.113748E-05
150.4,-8.111206E-05
150.5,-8.112524E-05
150.6,-8.109133E-05
150.7,-8.108286E-05
150.8,-8.108945E-05
150.9,-8.103294E-05
151,-8.101506E-05
151.1,-8.107156E-05
151.2,-8.100093E-05
151.3,-8.096892E-05
151.4,-8.095572E-05
151.5,-8.092559E-05
151.6001,-8.091617E-05
151.7001,-8.094913E-05
151.8001,-8.086626E-05
151.9001,-8.085308E-05
152.0001,-8.085119E-05
152.1001,-8.084366E-05
152.2001,-8.081541E-05
152.3001,-8.085496E-05
152.4001,-8.083424E-05
152.5001,-8.079186E-05
152.6001,-8.074761E-05
152.7001,-8.069863E-05
152.8001,-8.07137E-05
152.9001,-8.073442E-05
153.0001,-8.068262E-05
153.1001,-8.06685E-05
153.2001,-8.064966E-05
153.3002,-8.057245E-05
153.4002,-8.06007E-05
153.5002,-8.070711E-05
153.6002,-8.060446E-05
153.7002,-8.05649E-05
153.8002,-8.055267E-05
153.9002,-8.051877E-05
154.0002,-8.047827E-05
154.1002,-8.050275E-05
154.2002,-8.046321E-05
154.3002,-8.042365E-05
154.4002,-8.043307E-05
154.5002,-8.040387E-05
154.6002,-8.040293E-05
154.7002,-8.039257E-05
154.8002,-8.037467E-05
154.9003,-8.031535E-05
155.0003,-8.031158E-05
155.1003,-8.031252E-05
155.2003,-8.025225E-05
155.3003,-8.026732E-05
155.4003,-8.025413E-05
155.5003,-8.021835E-05
155.6003,-8.020517E-05
155.7003,-8.018822E-05
155.8003,-8.019481E-05
155.9003,-8.022306E-05
156.0003,-8.018351E-05
156.1003,-8.012606E-05
156.2003,-8.011005E-05
156.3003,-8.012888E-05
156.4003,-8.016185E-05
156.5004,-8.005636E-05
156.6004,-8.008462E-05
156.7004,-8.004696E-05
156.8004,-8.001494E-05
156.9004,-7.998857E-05
157.0004,-7.998198E-05
157.1004,-7.998669E-05
157.2004,-7.996408E-05
157.3004,-7.997538E-05
157.4004,-7.997444E-05
157.5004,-7.995938E-05
157.6004,-7.995749E-05
157.7004,-7.994148E-05
157.8004,-7.98878E-05
157.9004,-7.988968E-05
158.0004,-7.98831E-05
158.1004,-7.982282E-05
158.2005,-7.982847E-05
158.3005,-7.980399E-05
158.4005,-7.975785E-05
158.5005,-7.979364E-05
158.6005,-7.983695E-05
158.7005,-7.977197E-05
158.8005,-7.973619E-05
158.9005,-7.968627E-05
159.0005,-7.965708E-05
159.1005,-7.966178E-05
159.2005,-7.963731E-05
159.3005,-7.960152E-05
159.4005,-7.960152E-05
159.5005,-7.95695E-05
159.6005,-7.954313E-05
159.7005,-7.95921E-05
159.8006,-7.951676E-05
159.9006,-7.949321E-05
160.0006,-7.952053E-05
160.1006,-7.949227E-05
160.2006,-7.950169E-05
160.3006,-7.948192E-05
160.4006,-7.942729E-05
160.5006,-7.941034E-05
160.6006,-7.946873E-05
160.7006,-7.935478E-05
160.8006,-7.933596E-05
160.9006,-7.931052E-05
161.0006,-7.928604E-05
161.1006,-7.92493E-05
161.2006,-7.927191E-05
161.3006,-7.923236E-05
161.4007,-7.920034E-05
161.5007,-7.923519E-05
161.6007,-7.91994E-05
161.7007,-7.912218E-05
161.8007,-7.913536E-05
161.9007,-7.912501E-05
162.0007,-7.910898E-05
162.1007,-7.91476E-05
162.2007,-7.911276E-05
162.3007,-7.903459E-05
162.4007,-7.903554E-05
162.5007,-7.90233E-05
162.6007,-7.897527E-05
162.7007,-7.897055E-05
162.8007,-7.892253E-05
162.9007,-7.89084E-05
163.0007,-7.89131E-05
163.1008,-7.889428E-05
163.2008,-7.885096E-05
163.3008,-7.890087E-05
163.4008,-7.881328E-05
163.5008,-7.881706E-05
163.6008,-7.892535E-05
163.7008,-7.882177E-05
163.8008,-7.878127E-05
163.9008,-7.876902E-05
164.0008,-7.870969E-05
164.1008,-7.868521E-05
164.2008,-7.873606E-05
164.3008,-7.867673E-05
164.4008,-7.864848E-05
164.5008,-7.87549E-05
164.6008,-7.868427E-05
164.7009,-7.862964E-05
164.8009,-7.862023E-05
164.9009,-7.857032E-05
165.0009,-7.854206E-05
165.1009,-7.853548E-05
165.2009,-7.854396E-05
165.3009,-7.851287E-05
165.4009,-7.844036E-05
165.5009,-7.846391E-05
165.6009,-7.845637E-05
165.7009,-7.846014E-05
165.8009,-7.84592E-05
165.9009,-7.842529E-05
166.0009,-7.838951E-05
166.1009,-7.835373E-05
166.2009,-7.838009E-05
166.3009,-7.834619E-05
166.401,-7.829533E-05
166.501,-7.835089E-05
166.601,-7.828781E-05
166.701,-7.825861E-05
166.801,-7.823035E-05
166.901,-7.819363E-05
167.001,-7.81682E-05
167.101,-7.81795E-05
167.201,-7.81296E-05
167.301,-7.810699E-05
167.401,-7.812112E-05
167.501,-7.809004E-05
167.601,-7.801847E-05
167.701,-7.808533E-05
167.801,-7.804672E-05
167.901,-7.800246E-05
168.0011,-7.799963E-05
168.1011,-7.798927E-05
168.2011,-7.795066E-05
168.3011,-7.798174E-05
168.4011,-7.794407E-05
168.5011,-7.790546E-05
168.6011,-7.785366E-05
168.7011,-7.787909E-05
168.8011,-7.785272E-05
168.9011,-7.786026E-05
169.0011,-7.783859E-05
169.1011,-7.77981E-05
169.2011,-7.777927E-05
169.3011,-7.778492E-05
169.4011,-7.774631E-05
169.5011,-7.773501E-05
169.6012,-7.770581E-05
169.7012,-7.769922E-05
169.8012,-7.765966E-05
169.9012,-7.76446E-05
170.0012,-7.766344E-05
170.1012,-7.76333E-05
170.2012,-7.759185E-05
170.3012,-7.755795E-05
170.4012,-7.755513E-05
170.5012,-7.755043E-05
170.6012,-7.754572E-05
170.7012,-7.747697E-05
170.8012,-7.752499E-05
170.9012,-7.758904E-05
171.0012,-7.751559E-05
171.1012,-7.744871E-05
171.2012,-7.744777E-05
171.3013,-7.747037E-05
171.4013,-7.739786E-05
171.5013,-7.73988E-05
171.6013,-7.736114E-05
171.7013,-7.731688E-05
171.8013,-7.734513E-05
171.9013,-7.735172E-05
172.0013,-7.725001E-05
172.1013,-7.733948E-05
172.2013,-7.72745E-05
172.3013,-7.725944E-05
172.4013,-7.726508E-05
172.5013,-7.726884E-05
172.6013,-7.721046E-05
172.7013,-7.72632E-05
172.8013,-7.724154E-05
172.9014,-7.717939E-05
173.0014,-7.718786E-05
173.1014,-7.713889E-05
173.2014,-7.71097E-05
173.3014,-7.710404E-05
173.4014,-7.706731E-05
173.5014,-7.704284E-05
173.6014,-7.700705E-05
173.7014,-7.702023E-05
173.8014,-7.700139E-05
173.9014,-7.697408E-05
174.0014,-7.696467E-05
174.1014,-7.694112E-05
174.2014,-7.690251E-05
174.3014,-7.690063E-05
174.4014,-7.688556E-05
174.5014,-7.688651E-05
174.6015,-7.691099E-05
174.7015,-7.687615E-05
174.8015,-7.680363E-05
174.9015,-7.685355E-05
175.0015,-7.677067E-05
175.1015,-7.674618E-05
175.2015,-7.672735E-05
175.3015,-7.671699E-05
175.4015,-7.671888E-05
175.5015,-7.675844E-05
175.6015,-7.676597E-05
175.7015,-7.675184E-05
175.8015,-7.671228E-05
175.9015,-7.665861E-05
176.0015,-7.663883E-05
176.1015,-7.660963E-05
176.2016,-7.65908E-05
176.3016,-7.657761E-05
176.4016,-7.66087E-05
176.5016,-7.656067E-05
176.6016,-7.655501E-05
176.7016,-7.653335E-05
176.8016,-7.649662E-05
176.9016,-7.648627E-05
177.0016,-7.644578E-05
177.1016,-7.643636E-05
177.2016,-7.639963E-05
177.3016,-7.637797E-05
177.4016,-7.637421E-05
177.5016,-7.629321E-05
177.6016,-7.632617E-05
177.7016,-7.636102E-05
177.8017,-7.628191E-05
177.9017,-7.626025E-05
178.0017,-7.629039E-05
178.1017,-7.623012E-05
178.2017,-7.626025E-05
178.3017,-7.626967E-05
178.4017,-7.615854E-05
178.5017,-7.622353E-05
178.6017,-7.627626E-05
178.7017,-7.615854E-05
178.8017,-7.614442E-05
178.9017,-7.612182E-05
179.0017,-7.606814E-05
179.1017,-7.606155E-05
179.2017,-7.605684E-05
179.3017,-7.601352E-05
179.4017,-7.602671E-05
179.5018,-7.604554E-05
179.6018,-7.601446E-05
179.7018,-7.598056E-05
179.8018,-7.59636E-05
179.9018,-7.594854E-05
180.0018,-7.5941E-05
180.1018,-7.5941E-05
180.2018,-7.591934E-05
180.3018,-7.585908E-05
180.4018,-7.587038E-05
180.5018,-7.586567E-05
180.6018,-7.585626E-05
180.7018,-7.581764E-05
180.8018,-7.579597E-05
180.9018,-7.584118E-05
181.0018,-7.576866E-05
181.1019,-7.576113E-05
181.2019,-7.574419E-05
181.3019,-7.569615E-05
181.4019,-7.570463E-05
181.5019,-7.569051E-05
181.6019,-7.567355E-05
181.7019,-7.567638E-05
181.8019,-7.565378E-05
181.9019,-7.558786E-05
182.0019,-7.559256E-05
182.1019,-7.562836E-05
182.2019,-7.556243E-05
182.3019,-7.556243E-05
182.4019,-7.551251E-05
182.5019,-7.552476E-05
182.6019,-7.547109E-05
182.702,-7.549181E-05
182.802,-7.545413E-05
182.902,-7.542776E-05
183.002,-7.54513E-05
183.102,-7.539951E-05
183.202,-7.536373E-05
183.302,-7.539763E-05
183.402,-7.540799E-05
183.502,-7.533171E-05
183.602,-7.533358E-05
183.702,-7.530628E-05
183.802,-7.529592E-05
183.902,-7.529781E-05
184.002,-7.526107E-05
184.102,-7.523094E-05
184.202,-7.520929E-05
184.302,-7.524507E-05
184.4021,-7.518668E-05
184.5021,-7.516125E-05
184.6021,-7.514712E-05
184.7021,-7.511605E-05
184.8021,-7.511511E-05
184.9021,-7.512358E-05
185.0021,-7.506143E-05
185.1021,-7.505484E-05
185.2021,-7.505201E-05
185.3021,-7.502753E-05
185.4021,-7.49861E-05
185.5021,-7.499928E-05
185.6021,-7.497196E-05
185.7021,-7.495219E-05
185.8021,-7.490793E-05
185.9021,-7.489946E-05
186.0022,-7.486931E-05
186.1022,-7.487403E-05
186.2022,-7.489286E-05
186.3022,-7.487403E-05
186.4022,-7.481375E-05
186.5022,-7.484484E-05
186.6022,-7.483165E-05
186.7022,-7.478833E-05
186.8022,-7.478079E-05
186.9022,-7.474972E-05
187.0022,-7.472994E-05
187.1022,-7.472147E-05
187.2022,-7.470546E-05
187.3022,-7.465743E-05
187.4022,-7.468004E-05
187.5022,-7.465366E-05
187.6022,-7.463483E-05
187.7023,-7.463483E-05
187.8023,-7.461787E-05
187.9023,-7.45642E-05
188.0023,-7.458209E-05
188.1023,-7.456514E-05
188.2023,-7.453594E-05
188.3023,-7.455289E-05
188.4023,-7.453783E-05
188.5023,-7.447472E-05
188.6023,-7.444836E-05
188.7023,-7.447851E-05
188.8023,-7.446625E-05
188.9023,-7.444647E-05
189.0023,-7.442388E-05
189.1023,-7.440786E-05
189.2023,-7.439656E-05
189.3024,-7.439469E-05
189.4024,-7.435701E-05
189.5024,-7.43589E-05
189.6024,-7.434007E-05
189.7024,-7.429392E-05
189.8024,-7.427226E-05
189.9024,-7.430333E-05
190.0024,-7.433441E-05
190.1024,-7.434477E-05
190.2024,-7.432218E-05
190.3024,-7.428733E-05
190.4024,-7.428638E-05
190.5024,-7.422894E-05
190.6024,-7.42214E-05
190.7024,-7.422328E-05
190.8024,-7.422423E-05
190.9025,-7.418656E-05
191.0025,-7.411688E-05
191.1025,-7.41018E-05
191.2025,-7.409428E-05
191.3025,-7.40858E-05
191.4025,-7.405001E-05
191.5025,-7.401423E-05
191.6025,-7.397751E-05
191.7025,-7.395961E-05
191.8025,-7.397091E-05
191.9025,-7.392665E-05
192.0025,-7.392665E-05
192.1025,-7.396996E-05
192.2025,-7.393606E-05
192.3025,-7.388709E-05
192.4025,-7.391252E-05
192.5025,-7.382117E-05
192.6026,-7.382776E-05
192.7026,-7.390404E-05
192.8026,-7.386167E-05
192.9026,-7.38127E-05
193.0026,-7.374771E-05
193.1026,-7.376089E-05
193.2026,-7.374866E-05
193.3026,-7.375902E-05
193.4026,-7.372888E-05
193.5026,-7.369403E-05
193.6026,-7.367803E-05
193.7026,-7.366578E-05
193.8026,-7.365448E-05
193.9026,-7.366578E-05
194.0026,-7.362058E-05
194.1026,-7.363188E-05
194.2027,-7.360175E-05
194.3027,-7.355655E-05
194.4027,-7.357631E-05
194.5027,-7.362341E-05
194.6027,-7.35895E-05
194.7027,-7.354807E-05
194.8027,-7.3533E-05
194.9027,-7.350004E-05
195.0027,-7.350569E-05
195.1027,-7.346331E-05
195.2027,-7.341811E-05
195.3027,-7.343412E-05
195.4027,-7.346331E-05
195.5027,-7.338044E-05
195.6027,-7.339268E-05
195.7027,-7.348591E-05
195.8027,-7.340962E-05
195.9028,-7.338516E-05
196.0028,-7.335312E-05
196.1028,-7.331451E-05
196.2028,-7.327874E-05
196.3028,-7.332299E-05
196.4028,-7.324578E-05
196.5028,-7.319492E-05
196.6028,-7.323918E-05
196.7028,-7.320339E-05
196.8028,-7.319021E-05
196.9028,-7.318739E-05
197.0028,-7.316196E-05
197.1028,-7.314877E-05
197.2028,-7.312146E-05
197.3028,-7.312522E-05
197.4028,-7.30838E-05
197.5029,-7.307343E-05
197.6029,-7.304989E-05
197.7029,-7.304047E-05
197.8029,-7.303294E-05
197.9029,-7.302164E-05
198.0029,-7.30141E-05
198.1029,-7.29802E-05
198.2029,-7.294442E-05
198.3029,-7.297173E-05
198.4029,-7.293217E-05
198.5029,-7.290769E-05
198.6029,-7.290769E-05
198.7029,-7.287096E-05
198.8029,-7.285872E-05
198.9029,-7.287002E-05
199.0029,-7.282294E-05
199.103,-7.280504E-05
199.203,-7.281164E-05
199.303,-7.27928E-05
199.403,-7.27815E-05
199.503,-7.27928E-05
199.603,-7.272876E-05
199.703,-7.269392E-05
199.803,-7.274478E-05
199.903,-7.271464E-05
200.003,-7.267226E-05
200.103,-7.264683E-05
200.203,-7.263459E-05
200.303,-7.263082E-05
200.403,-7.262801E-05
200.503,-7.255642E-05
200.603,-7.255549E-05
200.703,-7.254419E-05
200.8031,-7.250745E-05
200.9031,-7.254041E-05
201.0031,-7.250651E-05
201.1031,-7.247167E-05
201.2031,-7.247826E-05
201.3031,-7.245943E-05
201.4031,-7.246602E-05
201.5031,-7.242647E-05
201.6031,-7.241046E-05
201.7031,-7.240481E-05
201.8031,-7.240763E-05
201.9031,-7.23596E-05
202.0031,-7.235019E-05
202.1031,-7.240387E-05
202.2031,-7.244248E-05
202.3031,-7.238785E-05
202.4032,-7.237279E-05
202.5032,-7.238503E-05
202.6032,-7.23031E-05
202.7032,-7.225036E-05
202.8032,-7.22805E-05
202.9032,-7.225036E-05
203.0032,-7.221834E-05
203.1032,-7.223152E-05
203.2032,-7.222682E-05
203.3032,-7.21882E-05
203.4032,-7.221458E-05
203.5032,-7.214677E-05
203.6032,-7.213735E-05
203.7032,-7.216749E-05
203.8032,-7.210439E-05
203.9032,-7.206767E-05
204.0033,-7.208368E-05
204.1033,-7.20865E-05
204.2033,-7.211004E-05
204.3033,-7.20347E-05
204.4033,-7.202529E-05
204.5033,-7.201681E-05
204.6033,-7.199421E-05
204.7033,-7.199703E-05
204.8033,-7.198291E-05
204.9033,-7.192735E-05
205.0033,-7.190663E-05
205.1033,-7.194994E-05
205.2033,-7.192735E-05
205.3033,-7.188779E-05
205.4033,-7.187932E-05
205.5033,-7.186708E-05
205.6033,-7.18247E-05
205.7034,-7.186142E-05
205.8034,-7.181811E-05
205.9034,-7.176066E-05
206.0034,-7.175784E-05
206.1034,-7.176443E-05
206.2034,-7.172676E-05
206.3034,-7.173147E-05
206.4034,-7.173052E-05
206.5034,-7.170415E-05
206.6034,-7.167403E-05
206.7034,-7.165048E-05
206.8034,-7.16646E-05
206.9034,-7.164389E-05
207.0034,-7.160998E-05
207.1034,-7.162505E-05
207.2034,-7.157985E-05
207.3035,-7.156101E-05
207.4035,-7.159021E-05
207.5035,-7.154783E-05
207.6035,-7.153182E-05
207.7035,-7.152805E-05
207.8035,-7.147815E-05
207.9035,-7.147909E-05
208.0035,-7.14998E-05
208.1035,-7.142541E-05
208.2035,-7.140092E-05
208.3035,-7.146307E-05
208.4035,-7.137832E-05
208.5035,-7.137644E-05
208.6035,-7.139904E-05
208.7035,-7.133877E-05
208.8035,-7.139621E-05
208.9035,-7.132746E-05
209.0036,-7.130581E-05
209.1036,-7.129921E-05
209.2036,-7.132087E-05
209.3036,-7.124459E-05
209.4036,-7.121257E-05
209.5036,-7.125966E-05
209.6036,-7.124082E-05
209.7036,-7.120222E-05
209.8036,-7.120692E-05
209.9036,-7.113535E-05
210.0036,-7.114948E-05
210.1036,-7.120034E-05
210.2036,-7.115136E-05
210.3036,-7.111087E-05
210.4036,-7.112782E-05
210.5036,-7.108356E-05
210.6037,-7.107508E-05
210.7037,-7.105342E-05
210.8037,-7.104118E-05
210.9037,-7.102517E-05
211.0037,-7.102706E-05
211.1037,-7.098938E-05
211.2037,-7.099881E-05
211.3037,-7.100728E-05
211.4037,-7.093005E-05
211.5037,-7.090274E-05
211.6037,-7.092064E-05
211.7037,-7.092157E-05
211.8037,-7.091121E-05
211.9037,-7.090651E-05
212.0037,-7.082646E-05
212.1037,-7.088108E-05
212.2038,-7.086414E-05
212.3038,-7.081516E-05
212.4038,-7.080104E-05
212.5038,-7.076337E-05
212.6038,-7.076337E-05
212.7038,-7.080293E-05
212.8038,-7.07596E-05
212.9038,-7.070875E-05
213.0038,-7.070027E-05
213.1038,-7.069651E-05
213.2038,-7.069275E-05
213.3038,-7.070404E-05
213.4038,-7.068144E-05
213.5038,-7.063058E-05
213.6038,-7.061929E-05
213.7038,-7.061551E-05
213.8038,-7.059574E-05
213.9039,-7.059385E-05
214.0039,-7.054206E-05
214.1039,-7.052794E-05
214.2039,-7.052417E-05
214.3039,-7.050439E-05
214.4039,-7.048838E-05
214.5039,-7.049026E-05
214.6039,-7.048179E-05
214.7039,-7.042057E-05
214.8039,-7.038291E-05
214.9039,-7.039139E-05
215.0039,-7.040457E-05
215.1039,-7.042057E-05
215.2039,-7.038197E-05
215.3039,-7.03669E-05
215.4039,-7.035466E-05
215.504,-7.031322E-05
215.604,-7.030663E-05
215.704,-7.028026E-05
215.804,-7.02765E-05
215.904,-7.026424E-05
216.004,-7.023128E-05
216.104,-7.022376E-05
216.204,-7.024824E-05
216.304,-7.021058E-05
216.404,-7.019833E-05
216.504,-7.023599E-05
216.604,-7.021152E-05
216.704,-7.015502E-05
216.804,-7.015972E-05
216.904,-7.011734E-05
217.004,-7.006648E-05
217.104,-7.010227E-05
217.2041,-7.006178E-05
217.3041,-7.005048E-05
217.4041,-7.009945E-05
217.5041,-7.003258E-05
217.6041,-7.001375E-05
217.7041,-6.999398E-05
217.8041,-6.997891E-05
217.9041,-6.994312E-05
218.0041,-6.997608E-05
218.1041,-6.993653E-05
218.2041,-6.99224E-05
218.3041,-6.990451E-05
218.4041,-6.990734E-05
218.5041,-6.985742E-05
218.6041,-6.987154E-05
218.7041,-6.985365E-05
218.8042,-6.980939E-05
218.9042,-6.982729E-05
219.0042,-6.981504E-05
219.1042,-6.976231E-05
219.2042,-6.977267E-05
219.3042,-6.980092E-05
219.4042,-6.978679E-05
219.5042,-6.980939E-05
219.6042,-6.97689E-05
219.7042,-6.970109E-05
219.8042,-6.972747E-05
219.9042,-6.966908E-05
220.0042,-6.964176E-05
220.1042,-6.964836E-05
220.2042,-6.964931E-05
220.3042,-6.960692E-05
220.4043,-6.967661E-05
220.5043,-6.961163E-05
220.6043,-6.954477E-05
220.7043,-6.955513E-05
220.8043,-6.955041E-05
220.9043,-6.955324E-05
221.0043,-6.950615E-05
221.1043,-6.947508E-05
221.2043,-6.951651E-05
221.3043,-6.946754E-05
221.4043,-6.942612E-05
221.5043,-6.944965E-05
221.6043,-6.940916E-05
221.7043,-6.941857E-05
221.8043,-6.941952E-05
221.9043,-6.936395E-05
222.0043,-6.935924E-05
222.1044,-6.937431E-05
222.2044,-6.936583E-05
222.3044,-6.933005E-05
222.4044,-6.934418E-05
222.5044,-6.929332E-05
222.6044,-6.925471E-05
222.7044,-6.927073E-05
222.8044,-6.925E-05
222.9044,-6.920292E-05
223.0044,-6.926319E-05
223.1044,-6.922081E-05
223.2044,-6.920669E-05
223.3044,-6.919256E-05
223.4044,-6.920481E-05
223.5044,-6.918126E-05
223.6044,-6.924247E-05
223.7045,-6.921234E-05
223.8045,-6.918597E-05
223.9045,-6.922646E-05
224.0045,-6.915772E-05
224.1045,-6.916148E-05
224.2045,-6.919727E-05
224.3045,-6.920669E-05
224.4045,-6.936961E-05
224.5045,-6.949862E-05
224.6045,-6.935171E-05
224.7045,-6.94327E-05
224.8045,-6.9444E-05
224.9045,-6.935831E-05
225.0045,-6.947413E-05
225.1045,-6.943929E-05
225.2045,-6.938185E-05
225.3046,-6.960598E-05
225.4046,-6.964836E-05
225.5046,-6.951745E-05
225.6046,-6.957773E-05
225.7046,-6.965307E-05
225.8046,-6.945342E-05
225.9046,-6.951086E-05
226.0046,-6.950709E-05
226.1046,-6.9428E-05
226.2046,-6.949109E-05
226.3046,-6.941481E-05
226.4046,-6.929992E-05
226.5046,-6.933194E-05
226.6046,-6.932535E-05
226.7046,-6.924718E-05
226.8046,-6.924435E-05
226.9046,-6.922929E-05
227.0047,-6.910968E-05
227.1047,-6.910403E-05
227.2047,-6.915678E-05
227.3047,-6.915018E-05
227.4047,-6.911534E-05
227.5047,-6.910403E-05
227.6047,-6.901834E-05
227.7047,-6.896089E-05
227.8047,-6.896089E-05
227.9047,-6.893169E-05
228.0047,-6.888932E-05
228.1047,-6.89204E-05
228.2047,-6.885542E-05
228.3047,-6.88008E-05
228.4047,-6.882622E-05
228.5047,-6.880174E-05
228.6048,-6.874618E-05
228.7048,-6.875089E-05
228.8048,-6.872923E-05
228.9048,-6.867178E-05
229.0048,-6.870098E-05
229.1048,-6.867838E-05
229.2048,-6.860397E-05
229.3048,-6.860868E-05
229.4048,-6.85955E-05
229.5048,-6.856631E-05
229.6048,-6.856443E-05
229.7048,-6.853994E-05
229.8048,-6.852016E-05
229.9048,-6.849097E-05
230.0048,-6.85051E-05
230.1048,-6.847402E-05
230.2048,-6.847402E-05
230.3049,-6.844954E-05
230.4049,-6.839115E-05
230.5049,-6.834029E-05
230.6049,-6.836667E-05
230.7049,-6.832899E-05
230.8049,-6.834406E-05
230.9049,-6.830262E-05
231.0049,-6.827815E-05
231.1049,-6.827437E-05
231.2049,-6.829602E-05
231.3049,-6.824518E-05
231.4049,-6.82075E-05
231.5049,-6.819244E-05
231.6049,-6.815478E-05
231.7049,-6.815006E-05
231.8049,-6.815288E-05
231.905,-6.812087E-05
232.005,-6.808791E-05
232.105,-6.808226E-05
232.205,-6.810769E-05
232.305,-6.805401E-05
232.405,-6.802764E-05
232.505,-6.803988E-05
232.605,-6.805118E-05
232.705,-6.801727E-05
232.805,-6.801445E-05
232.905,-6.798149E-05
233.005,-6.798149E-05
233.105,-6.794665E-05
233.205,-6.790144E-05
233.305,-6.788826E-05
233.405,-6.79005E-05
233.5051,-6.78713E-05
233.6051,-6.784306E-05
233.7051,-6.788261E-05
233.8051,-6.782517E-05
233.9051,-6.778091E-05
234.0051,-6.77988E-05
234.1051,-6.777714E-05
234.2051,-6.771498E-05
234.3051,-6.774889E-05
234.4051,-6.77357E-05
234.5051,-6.770745E-05
234.6051,-6.770557E-05
234.7051,-6.768485E-05
234.8051,-6.765942E-05
234.9051,-6.763682E-05
235.0051,-6.761139E-05
235.1051,-6.762269E-05
235.2052,-6.760009E-05
235.3052,-6.759255E-05
235.4052,-6.755018E-05
235.5052,-6.753606E-05
235.6052,-6.755866E-05
235.7052,-6.75483E-05
235.8052,-6.750027E-05
235.9052,-6.745695E-05
236.0052,-6.745601E-05
236.1052,-6.745035E-05
236.2052,-6.742965E-05
236.3052,-6.741929E-05
236.4052,-6.741269E-05
236.5052,-6.73882E-05
236.6052,-6.738066E-05
236.7052,-6.735995E-05
236.8053,-6.732134E-05
236.9053,-6.733075E-05
237.0053,-6.733075E-05
237.1053,-6.729498E-05
237.2053,-6.728273E-05
237.3053,-6.72573E-05
237.4053,-6.722433E-05
237.5053,-6.723471E-05
237.6053,-6.719232E-05
237.7053,-6.717726E-05
237.8053,-6.719232E-05
237.9053,-6.715277E-05
238.0053,-6.714335E-05
238.1053,-6.71716E-05
238.2053,-6.713205E-05
238.3053,-6.710192E-05
238.4053,-6.707649E-05
238.5054,-6.705577E-05
238.6054,-6.705012E-05
238.7054,-6.705483E-05
238.8054,-6.705294E-05
238.9054,-6.701904E-05
239.0054,-6.699833E-05
239.1054,-6.698327E-05
239.2054,-6.698137E-05
239.3054,-6.693711E-05
239.4054,-6.692864E-05
239.5054,-6.693241E-05
239.6054,-6.689662E-05
239.7054,-6.687873E-05
239.8054,-6.691357E-05
239.9054,-6.68194E-05
240.0054,-6.68354E-05
240.1055,-6.681375E-05
240.2055,-6.679774E-05
240.3055,-6.677984E-05
240.4055,-6.676948E-05
240.5055,-6.672522E-05
240.6055,-6.671486E-05
240.7055,-6.673935E-05
240.8055,-6.670922E-05
240.9055,-6.671674E-05
241.0055,-6.668285E-05
241.1055,-6.668379E-05
241.2055,-6.663387E-05
241.3055,-6.668473E-05
241.4055,-6.663481E-05
241.5055,-6.665177E-05
241.6055,-6.669791E-05
241.7056,-6.66932E-05
241.8056,-6.662351E-05
241.9056,-6.656984E-05
242.0056,-6.656042E-05
242.1056,-6.65397E-05
242.2056,-6.654065E-05
242.3056,-6.651804E-05
242.4056,-6.647755E-05
242.5056,-6.647849E-05
242.6056,-6.648132E-05
242.7056,-6.644552E-05
242.8056,-6.640598E-05
242.9056,-6.640692E-05
243.0056,-6.641351E-05
243.1056,-6.640786E-05
243.2056,-6.639845E-05
243.3056,-6.638902E-05
243.4057,-6.636171E-05
243.5057,-6.632593E-05
243.6057,-6.6357E-05
243.7057,-6.630898E-05
243.8057,-6.630521E-05
243.9057,-6.632404E-05
244.0057,-6.629579E-05
244.1057,-6.623835E-05
244.2057,-6.624588E-05
244.3057,-6.621762E-05
244.4057,-6.619503E-05
244.5057,-6.624494E-05
244.6057,-6.620822E-05
244.7057,-6.617713E-05
244.8057,-6.620539E-05
244.9057,-6.617713E-05
245.0058,-6.615736E-05
245.1058,-6.615642E-05
245.2058,-6.610744E-05
245.3058,-6.609238E-05
245.4058,-6.614041E-05
245.5058,-6.607637E-05
245.6058,-6.604246E-05
245.7058,-6.604718E-05
245.8058,-6.604624E-05
245.9058,-6.601421E-05
246.0058,-6.603776E-05
246.1058,-6.599915E-05
246.2058,-6.598125E-05
246.3058,-6.598973E-05
246.4058,-6.596807E-05
246.5058,-6.594735E-05
246.6059,-6.599821E-05
246.7059,-6.591817E-05
246.8059,-6.586072E-05
246.9059,-6.587861E-05
247.0059,-6.587672E-05
247.1059,-6.588332E-05
247.2059,-6.590968E-05
247.3059,-6.591439E-05
247.4059,-6.590968E-05
247.5059,-6.595677E-05
247.6059,-6.582775E-05
247.7059,-6.579856E-05
247.8059,-6.581457E-05
247.9059,-6.579761E-05
248.0059,-6.574583E-05
248.1059,-6.589273E-05
248.2059,-6.589085E-05
248.306,-6.576089E-05
248.406,-6.579385E-05
248.506,-6.573546E-05
248.606,-6.569779E-05
248.706,-6.57543E-05
248.806,-6.570627E-05
248.906,-6.565636E-05
249.006,-6.566672E-05
249.106,-6.564788E-05
249.206,-6.561587E-05
249.306,-6.558478E-05
249.406,-6.558385E-05
249.506,-6.558761E-05
249.606,-6.557348E-05
249.706,-6.558761E-05
249.806,-6.554052E-05
249.9061,-6.550756E-05
250.0061,-6.551321E-05
250.1061,-6.549439E-05
250.2061,-6.545294E-05
250.3061,-6.54633E-05
250.4061,-6.547084E-05
250.5061,-6.542564E-05
250.6061,-6.540586E-05
250.7061,-6.544447E-05
250.8061,-6.538702E-05
250.9061,-6.535783E-05
251.0061,-6.542564E-05
251.1061,-6.537854E-05
251.2061,-6.534841E-05
251.3061,-6.537289E-05
251.4061,-6.536724E-05
251.5061,-6.540774E-05
251.6062,-6.533617E-05
251.7062,-6.532204E-05
251.8062,-6.526931E-05
251.9062,-6.53437E-05
252.0062,-6.52825E-05
252.1062,-6.524954E-05
252.2062,-6.523446E-05
252.3062,-6.520339E-05
252.4062,-6.523446E-05
252.5062,-6.525235E-05
252.6062,-6.519303E-05
252.7062,-6.521375E-05
252.8062,-6.531168E-05
252.9062,-6.516289E-05
253.0062,-6.515159E-05
253.1062,-6.515064E-05
253.2063,-6.510357E-05
253.3063,-6.510733E-05
253.4063,-6.506589E-05
253.5063,-6.500468E-05
253.6063,-6.506401E-05
253.7063,-6.506778E-05
253.8063,-6.498962E-05
253.9063,-6.502822E-05
254.0063,-6.515819E-05
254.1063,-6.50546E-05
254.2063,-6.499244E-05
254.3063,-6.500091E-05
254.4063,-6.493688E-05
254.5063,-6.494064E-05
254.6063,-6.493029E-05
254.7063,-6.490392E-05
254.8064,-6.489638E-05
254.9064,-6.498396E-05
255.0064,-6.491145E-05
255.1064,-6.486059E-05
255.2064,-6.484742E-05
255.3064,-6.482293E-05
255.4064,-6.482104E-05
255.5064,-6.482576E-05
255.6064,-6.482669E-05
255.7064,-6.489073E-05
255.8064,-6.489544E-05
255.9064,-6.480503E-05
256.0064,-6.480692E-05
256.1064,-6.483988E-05
256.2064,-6.480316E-05
256.3064,-6.480033E-05
256.4064,-6.478902E-05
256.5064,-6.474759E-05
256.6064,-6.480973E-05
256.7065,-6.473911E-05
256.8065,-6.471369E-05
256.9065,-6.470898E-05
257.0065,-6.47005E-05
257.1065,-6.471181E-05
257.2065,-6.473723E-05
257.3065,-6.46779E-05
257.4065,-6.470333E-05
257.5065,-6.465059E-05
257.6065,-6.465719E-05
257.7065,-6.465059E-05
257.8065,-6.460727E-05
257.9065,-6.465248E-05
258.0065,-6.466754E-05
258.1065,-6.459409E-05
258.2065,-6.464212E-05
258.3065,-6.457807E-05
258.4066,-6.458843E-05
258.5066,-6.467413E-05
258.6066,-6.463553E-05
258.7066,-6.45922E-05
258.8066,-6.460162E-05
258.9066,-6.459785E-05
259.0066,-6.452911E-05
259.1066,-6.458843E-05
259.2066,-6.456867E-05
259.3066,-6.457243E-05
259.4066,-6.461574E-05
259.5066,-6.45809E-05
259.6066,-6.454135E-05
259.7066,-6.454229E-05
259.8066,-6.455077E-05
259.9066,-6.45065E-05
260.0067,-6.450462E-05
260.1067,-6.450745E-05
260.2067,-6.452157E-05
260.3067,-6.451404E-05
260.4067,-6.45065E-05
260.5067,-6.445847E-05
260.6067,-6.441986E-05
260.7067,-6.438408E-05
260.8067,-6.438408E-05
260.9067,-6.43709E-05
261.0067,-6.435206E-05
261.1067,-6.436524E-05
261.2067,-6.434642E-05
261.3067,-6.429556E-05
261.4067,-6.427107E-05
261.5067,-6.427201E-05
261.6068,-6.426731E-05
261.7068,-6.422398E-05
261.8068,-6.420891E-05
261.9068,-6.420891E-05
262.0068,-6.417125E-05
262.1068,-6.418537E-05
262.2068,-6.417219E-05
262.3068,-6.410909E-05
262.4068,-6.410439E-05
262.5068,-6.410627E-05
262.6068,-6.406107E-05
262.7068,-6.408933E-05
262.8068,-6.407802E-05
262.9068,-6.401868E-05
263.0068,-6.402057E-05
263.1068,-6.399797E-05
263.2068,-6.399797E-05
263.3069,-6.397536E-05
263.4069,-6.3933E-05
263.5069,-6.3933E-05
263.6069,-6.390474E-05
263.7069,-6.389627E-05
263.8069,-6.390568E-05
263.9069,-6.385388E-05
264.0069,-6.384165E-05
264.1069,-6.382939E-05
264.2069,-6.379362E-05
264.3069,-6.379926E-05
264.4069,-6.381057E-05
264.5069,-6.375407E-05
264.6069,-6.374747E-05
264.7069,-6.372957E-05
264.8069,-6.371733E-05
264.907,-6.370132E-05
265.007,-6.371074E-05
265.107,-6.368908E-05
265.207,-6.363917E-05
265.307,-6.363822E-05
265.407,-6.364671E-05
265.507,-6.360526E-05
265.607,-6.362786E-05
265.707,-6.361469E-05
265.807,-6.35563E-05
265.907,-6.354405E-05
266.007,-6.353934E-05
266.107,-6.35337E-05
266.207,-6.350262E-05
266.307,-6.34932E-05
266.407,-6.348472E-05
266.507,-6.345742E-05
266.6071,-6.34254E-05
266.7071,-6.343763E-05
266.8071,-6.341221E-05
266.9071,-6.33962E-05
267.0071,-6.341127E-05
267.1071,-6.338207E-05
267.2071,-6.334818E-05
267.3071,-6.334065E-05
267.4071,-6.333781E-05
267.5071,-6.330862E-05
267.6071,-6.333028E-05
267.7071,-6.328602E-05
267.8071,-6.323704E-05
267.9071,-6.329355E-05
268.0071,-6.325683E-05
268.1071,-6.320974E-05
268.2072,-6.326153E-05
268.3072,-6.322857E-05
268.4072,-6.322104E-05
268.5072,-6.320786E-05
268.6072,-6.318431E-05
268.7072,-6.3141E-05
268.8072,-6.320597E-05
268.9072,-6.314476E-05
269.0072,-6.309202E-05
269.1072,-6.310426E-05
269.2072,-6.307979E-05
269.3072,-6.305436E-05
269.4072,-6.306095E-05
269.5072,-6.302799E-05
269.6072,-6.298089E-05
269.7072,-6.299219E-05
269.8073,-6.298748E-05
269.9073,-6.296866E-05
270.0073,-6.295736E-05
270.1073,-6.294417E-05
270.2073,-6.288861E-05
270.3073,-6.290085E-05
270.4073,-6.291122E-05
270.5073,-6.289615E-05
270.6073,-6.288297E-05
270.7073,-6.28679E-05
270.8073,-6.288673E-05
270.9073,-6.285283E-05
271.0073,-6.285094E-05
271.1073,-6.283305E-05
271.2073,-6.279255E-05
271.3073,-6.281045E-05
271.4073,-6.282928E-05
271.5074,-6.277655E-05
271.6074,-6.272851E-05
271.7074,-6.270591E-05
271.8074,-6.270874E-05
271.9074,-6.269179E-05
272.0074,-6.270121E-05
272.1074,-6.26447E-05
272.2074,-6.265318E-05
272.3074,-6.268991E-05
272.4074,-6.262775E-05
272.5074,-6.259949E-05
272.6074,-6.263435E-05
272.7074,-6.262304E-05
272.8074,-6.258255E-05
272.9074,-6.257219E-05
273.0074,-6.25411E-05
273.1075,-6.258349E-05
273.2075,-6.259856E-05
273.3075,-6.260986E-05
273.4075,-6.25769E-05
273.5075,-6.257313E-05
273.6075,-6.251851E-05
273.7075,-6.249497E-05
273.8075,-6.248084E-05
273.9075,-6.243093E-05
274.0075,-6.246012E-05
274.1075,-6.24799E-05
274.2075,-6.242433E-05
274.3075,-6.23989E-05
274.4075,-6.238573E-05
274.5075,-6.234617E-05
274.6075,-6.231981E-05
274.7076,-6.231415E-05
274.8076,-6.230662E-05
274.9076,-6.231886E-05
275.0076,-6.234429E-05
275.1076,-6.232169E-05
275.2076,-6.232734E-05
275.3076,-6.228872E-05
275.4076,-6.224918E-05
275.5076,-6.222846E-05
275.6076,-6.221339E-05
275.7076,-6.219927E-05
275.8076,-6.217477E-05
275.9076,-6.216536E-05
276.0076,-6.21729E-05
276.1076,-6.216913E-05
276.2076,-6.212581E-05
276.3076,-6.215218E-05
276.4077,-6.2155E-05
276.5077,-6.212298E-05
276.6077,-6.215971E-05
276.7077,-6.212675E-05
276.8077,-6.210039E-05
276.9077,-6.212958E-05
277.0077,-6.207119E-05
277.1077,-6.20241E-05
277.2077,-6.199491E-05
277.3077,-6.198925E-05
277.4077,-6.200621E-05
277.5077,-6.200621E-05
277.6077,-6.198361E-05
277.7077,-6.194029E-05
277.8077,-6.192993E-05
277.9077,-6.193558E-05
278.0078,-6.191109E-05
278.1078,-6.189696E-05
278.2078,-6.188755E-05
278.3078,-6.184988E-05
278.4078,-6.183293E-05
278.5078,-6.188002E-05
278.6078,-6.187343E-05
278.7078,-6.184517E-05
278.8078,-6.182163E-05
278.9078,-6.179997E-05
279.0078,-6.179055E-05
279.1078,-6.178867E-05
279.2078,-6.176795E-05
279.3078,-6.175006E-05
279.4078,-6.174441E-05
279.5078,-6.170485E-05
279.6078,-6.171804E-05
279.7079,-6.167754E-05
279.8079,-6.166624E-05
279.9079,-6.167284E-05
280.0079,-6.166436E-05
280.1079,-6.161538E-05
280.2079,-6.164081E-05
280.3079,-6.161822E-05
280.4079,-6.157113E-05
280.5079,-6.159938E-05
280.6079,-6.157772E-05
280.7079,-6.153251E-05
280.8079,-6.155041E-05
280.9079,-6.153251E-05
281.0079,-6.14892E-05
281.1079,-6.151368E-05
281.2079,-6.148543E-05
281.308,-6.145529E-05
281.408,-6.148825E-05
281.508,-6.146471E-05
281.608,-6.141103E-05
281.708,-6.145812E-05
281.808,-6.141951E-05
281.908,-6.137996E-05
282.008,-6.138937E-05
282.108,-6.137713E-05
282.208,-6.135265E-05
282.308,-6.1347E-05
282.408,-6.134983E-05
282.508,-6.1363E-05
282.608,-6.143175E-05
282.708,-6.135265E-05
282.808,-6.13178E-05
282.9081,-6.13244E-05
283.0081,-6.128014E-05
283.1081,-6.125282E-05
283.2081,-6.123022E-05
283.3081,-6.124246E-05
283.4081,-6.122834E-05
283.5081,-6.124905E-05
283.6081,-6.119726E-05
283.7081,-6.116807E-05
283.8081,-6.116524E-05
283.9081,-6.115771E-05
284.0081,-6.112663E-05
284.1081,-6.115865E-05
284.2081,-6.112758E-05
284.3081,-6.112286E-05
284.4081,-6.111815E-05
284.5081,-6.107389E-05
284.6082,-6.108049E-05
284.7082,-6.106165E-05
284.8082,-6.108896E-05
284.9082,-6.107578E-05
285.0082,-6.103716E-05
285.1082,-6.102775E-05
285.2082,-6.102586E-05
285.3082,-6.101362E-05
285.4082,-6.101927E-05
285.5082,-6.100986E-05
285.6082,-6.095429E-05
285.7082,-6.093828E-05
285.8082,-6.096842E-05
285.9082,-6.089873E-05
286.0082,-6.089119E-05
286.1082,-6.089308E-05
286.2083,-6.085353E-05
286.3083,-6.082999E-05
286.4083,-6.089497E-05
286.5083,-6.081774E-05
286.6083,-6.079043E-05
286.7083,-6.079608E-05
286.8083,-6.079703E-05
286.9083,-6.077536E-05
287.0083,-6.081304E-05
287.1083,-6.07716E-05
287.2083,-6.072922E-05
287.3083,-6.073204E-05
287.4083,-6.071886E-05
287.5083,-6.070944E-05
287.6083,-6.070379E-05
287.7083,-6.068966E-05
287.8083,-6.069909E-05
287.9084,-6.066895E-05
288.0084,-6.065953E-05
288.1084,-6.066518E-05
288.2084,-6.064352E-05
288.3084,-6.062469E-05
288.4084,-6.063787E-05
288.5084,-6.059549E-05
288.6084,-6.057666E-05
288.7084,-6.060491E-05
288.8084,-6.05889E-05
288.9084,-6.053146E-05
289.0084,-6.055217E-05
289.1084,-6.053617E-05
289.2084,-6.048154E-05
289.3084,-6.051356E-05
289.4084,-6.049567E-05
289.5085,-6.04354E-05
289.6085,-6.046648E-05
289.7085,-6.044482E-05
289.8085,-6.042033E-05
289.9085,-6.043446E-05
290.0085,-6.039208E-05
290.1085,-6.039114E-05
290.2085,-6.0361E-05
290.3085,-6.037702E-05
290.4085,-6.034217E-05
290.5085,-6.033746E-05
290.6085,-6.032804E-05
290.7085,-6.02819E-05
290.8085,-6.028284E-05
290.9085,-6.028566E-05
291.0085,-6.026777E-05
291.1086,-6.026777E-05
291.2086,-6.023952E-05
291.3086,-6.023292E-05
291.4086,-6.021786E-05
291.5086,-6.021315E-05
291.6086,-6.021409E-05
291.7086,-6.018866E-05
291.8086,-6.016324E-05
291.9086,-6.015476E-05
292.0086,-6.01331E-05
292.1086,-6.011803E-05
292.2086,-6.011897E-05
292.3086,-6.009167E-05
292.4086,-6.011144E-05
292.5086,-6.008978E-05
292.6086,-6.011333E-05
292.7086,-6.009544E-05
292.8087,-6.005494E-05
292.9087,-6.001821E-05
293.0087,-5.998525E-05
293.1087,-5.998525E-05
293.2087,-5.998808E-05
293.3087,-5.997772E-05
293.4087,-5.995229E-05
293.5087,-5.99862E-05
293.6087,-5.993816E-05
293.7087,-5.990991E-05
293.8087,-5.987884E-05
293.9087,-5.986847E-05
294.0087,-5.986283E-05
294.1087,-5.988072E-05
294.2087,-5.983363E-05
294.3087,-5.983081E-05
294.4088,-5.97922E-05
294.5088,-5.982421E-05
294.6088,-5.989202E-05
294.7088,-5.980727E-05
294.8088,-5.97922E-05
294.9088,-5.977713E-05
295.0088,-5.981574E-05
295.1088,-5.978749E-05
295.2088,-5.976583E-05
295.3088,-5.972439E-05
295.4088,-5.975829E-05
295.5088,-5.97357E-05
295.6088,-5.969991E-05
295.7088,-5.969426E-05
295.8088,-5.971686E-05
295.9088,-5.965753E-05
296.0089,-5.969332E-05
296.1089,-5.96726E-05
296.2089,-5.963681E-05
296.3089,-5.960102E-05
296.4089,-5.962174E-05
296.5089,-5.959255E-05
296.6089,-5.959349E-05
296.7089,-5.958408E-05
296.8089,-5.955017E-05
296.9089,-5.95464E-05
297.0089,-5.958031E-05
297.1089,-5.954546E-05
297.2089,-5.95012E-05
297.3089,-5.951439E-05
297.4089,-5.951062E-05
297.5089,-5.951156E-05
297.6089,-5.950779E-05
297.709,-5.948519E-05
297.809,-5.945882E-05
297.909,-5.949179E-05
298.009,-5.946165E-05
298.109,-5.944187E-05
298.209,-5.941174E-05
298.309,-5.94042E-05
298.409,-5.943151E-05
298.509,-5.939008E-05
298.609,-5.938819E-05
298.709,-5.937501E-05
298.809,-5.938913E-05
298.909,-5.939291E-05
299.009,-5.934581E-05
299.109,-5.930627E-05
299.209,-5.92846E-05
299.3091,-5.927612E-05
299.4091,-5.9262E-05
299.5091,-5.924129E-05
299.6091,-5.925447E-05
299.7091,-5.92055E-05
299.8091,-5.920927E-05
299.9091,-5.917442E-05
300.0091,-5.91829E-05
300.1091,-5.917819E-05
300.2091,-5.91716E-05
300.3091,-5.916312E-05
300.4091,-5.913298E-05
300.5091,-5.9165E-05
300.6091,-5.913487E-05
300.7091,-5.911886E-05
300.8091,-5.918007E-05
300.9091,-5.912451E-05
301.0092,-5.906895E-05
301.1092,-5.906989E-05
301.2092,-5.901527E-05
301.3092,-5.901056E-05
301.4092,-5.903316E-05
301.5092,-5.902374E-05
301.6092,-5.899078E-05
301.7092,-5.899173E-05
301.8092,-5.900397E-05
301.9092,-5.895311E-05
302.0092,-5.894276E-05
302.1092,-5.895594E-05
302.2092,-5.893616E-05
302.3092,-5.892675E-05
302.4092,-5.89032E-05
302.5092,-5.889002E-05
302.6093,-5.887778E-05
302.7093,-5.884011E-05
302.8093,-5.885706E-05
302.9093,-5.883446E-05
303.0093,-5.879678E-05
303.1093,-5.881656E-05
303.2093,-5.879585E-05
303.3093,-5.877701E-05
303.4093,-5.879396E-05
303.5093,-5.873369E-05
303.6093,-5.873652E-05
303.7093,-5.875912E-05
303.8093,-5.872616E-05
303.9093,-5.870356E-05
304.0093,-5.875064E-05
304.1093,-5.870261E-05
304.2094,-5.868001E-05
304.3094,-5.87497E-05
304.4094,-5.868943E-05
304.5094,-5.862445E-05
304.6094,-5.864328E-05
304.7094,-5.862445E-05
304.8094,-5.863198E-05
304.9094,-5.863104E-05
305.0094,-5.86706E-05
305.1094,-5.86414E-05
305.2094,-5.863575E-05
305.3094,-5.858113E-05
305.4094,-5.855853E-05
305.5094,-5.856418E-05
305.6094,-5.853781E-05
305.7094,-5.853499E-05
305.8094,-5.851803E-05
305.9095,-5.85284E-05
306.0095,-5.853028E-05
306.1095,-5.847189E-05
306.2095,-5.848319E-05
306.3095,-5.850485E-05
306.4095,-5.846341E-05
306.5095,-5.847283E-05
306.6095,-5.846059E-05
306.7095,-5.844082E-05
306.8095,-5.851333E-05
306.9095,-5.851709E-05
307.0095,-5.839938E-05
307.1095,-5.841539E-05
307.2095,-5.840597E-05
307.3095,-5.836924E-05
307.4095,-5.836077E-05
307.5096,-5.836359E-05
307.6096,-5.833628E-05
307.7096,-5.834382E-05
307.8096,-5.831179E-05
307.9096,-5.829013E-05
308.0096,-5.828449E-05
308.1096,-5.831839E-05
308.2096,-5.826848E-05
308.3096,-5.826283E-05
308.4096,-5.835135E-05
308.5096,-5.828166E-05
308.6096,-5.825435E-05
308.7096,-5.824682E-05
308.8096,-5.822892E-05
308.9096,-5.825152E-05
309.0096,-5.824776E-05
309.1096,-5.820726E-05
309.2097,-5.8163E-05
309.3097,-5.819031E-05
309.4097,-5.817524E-05
309.5097,-5.815735E-05
309.6097,-5.816018E-05
309.7097,-5.812627E-05
309.8097,-5.812627E-05
309.9097,-5.812721E-05
310.0097,-5.809425E-05
310.1097,-5.809708E-05
310.2097,-5.807919E-05
310.3097,-5.804341E-05
310.4097,-5.802928E-05
310.5097,-5.802363E-05
310.6097,-5.800197E-05
310.7097,-5.801986E-05
310.8098,-5.796053E-05
310.9098,-5.794923E-05
311.0098,-5.800291E-05
311.1098,-5.796712E-05
311.2098,-5.792004E-05
311.3098,-5.791344E-05
311.4098,-5.789838E-05
311.5098,-5.789273E-05
311.6098,-5.795111E-05
311.7098,-5.789743E-05
311.8098,-5.787106E-05
311.9098,-5.788896E-05
312.0098,-5.785976E-05
312.1098,-5.783905E-05
312.2098,-5.785882E-05
312.3098,-5.784658E-05
312.4099,-5.780891E-05
312.5099,-5.780232E-05
312.6099,-5.779384E-05
312.7099,-5.777501E-05
312.8099,-5.777406E-05
312.9099,-5.775335E-05
313.0099,-5.771191E-05
313.1099,-5.772792E-05
313.2099,-5.772886E-05
313.3099,-5.770155E-05
313.4099,-5.770532E-05
313.5099,-5.767236E-05
313.6099,-5.768555E-05
313.7099,-5.767895E-05
313.8099,-5.767048E-05
313.9099,-5.765635E-05
314.0099,-5.761209E-05
314.11,-5.762621E-05
314.21,-5.763186E-05
314.31,-5.763657E-05
314.41,-5.762339E-05
314.51,-5.757442E-05
314.61,-5.758101E-05
314.71,-5.761491E-05
314.81,-5.755747E-05
314.91,-5.750662E-05
315.01,-5.750097E-05
315.11,-5.748684E-05
315.21,-5.747836E-05
315.31,-5.747554E-05
315.41,-5.748119E-05
315.51,-5.746895E-05
315.61,-5.744164E-05
315.7101,-5.745388E-05
315.8101,-5.742563E-05
315.9101,-5.742186E-05
316.0101,-5.742468E-05
316.1101,-5.739361E-05
316.2101,-5.736441E-05
316.3101,-5.73776E-05
316.4101,-5.739455E-05
316.5101,-5.736536E-05
316.6101,-5.735123E-05
316.7101,-5.734087E-05
316.8101,-5.731545E-05
316.9101,-5.733616E-05
317.0101,-5.730885E-05
317.1101,-5.731073E-05
317.2101,-5.72806E-05
317.3102,-5.725329E-05
317.4102,-5.725988E-05
317.5102,-5.725423E-05
317.6102,-5.722221E-05
317.7102,-5.723163E-05
317.8102,-5.720621E-05
317.9102,-5.717513E-05
318.0102,-5.717983E-05
318.1102,-5.716665E-05
318.2102,-5.713557E-05
318.3102,-5.715629E-05
318.4102,-5.712615E-05
318.5102,-5.711862E-05
318.6102,-5.712145E-05
318.7102,-5.709979E-05
318.8102,-5.705647E-05
318.9102,-5.706306E-05
319.0103,-5.705082E-05
319.1103,-5.704705E-05
319.2103,-5.704799E-05
319.3103,-5.703481E-05
319.4103,-5.701409E-05
319.5103,-5.702445E-05
319.6103,-5.701221E-05
319.7103,-5.699055E-05
319.8103,-5.699243E-05
319.9103,-5.695099E-05
320.0103,-5.695759E-05
320.1103,-5.69623E-05
320.2103,-5.693875E-05
320.3103,-5.695288E-05
320.4103,-5.692086E-05
320.5103,-5.689167E-05
320.6104,-5.688978E-05
320.7104,-5.689355E-05
320.8104,-5.68653E-05
320.9104,-5.689449E-05
321.0104,-5.684175E-05
321.1104,-5.682763E-05
321.2104,-5.683799E-05
321.3104,-5.681821E-05
321.4104,-5.680785E-05
321.5104,-5.684269E-05
321.6104,-5.678713E-05
321.7104,-5.678148E-05
321.8104,-5.68361E-05
321.9104,-5.678713E-05
322.0104,-5.671933E-05
322.1104,-5.673157E-05
322.2104,-5.671839E-05
322.3105,-5.670237E-05
322.4105,-5.670991E-05
322.5105,-5.669296E-05
322.6105,-5.667883E-05
322.7105,-5.668449E-05
322.8105,-5.664681E-05
322.9105,-5.664964E-05
323.0105,-5.663834E-05
323.1105,-5.665529E-05
323.2105,-5.665152E-05
323.3105,-5.662515E-05
323.4105,-5.668449E-05
323.5105,-5.67617E-05
323.6105,-5.669202E-05
323.7105,-5.666471E-05
323.8105,-5.667318E-05
323.9106,-5.671839E-05
324.0106,-5.672498E-05
324.1106,-5.674005E-05
324.2106,-5.671744E-05
324.3106,-5.668919E-05
324.4106,-5.671556E-05
324.5106,-5.667318E-05
324.6106,-5.667789E-05
324.7106,-5.667789E-05
324.8106,-5.6757E-05
324.9106,-5.668071E-05
325.0106,-5.669107E-05
325.1106,-5.667695E-05
325.2106,-5.665529E-05
325.3106,-5.667318E-05
325.4106,-5.664211E-05
325.5107,-5.656582E-05
325.6107,-5.661668E-05
325.7107,-5.666753E-05
325.8107,-5.654699E-05
325.9107,-5.652533E-05
326.0107,-5.651686E-05
326.1107,-5.649613E-05
326.2107,-5.651686E-05
326.3107,-5.650273E-05
326.4107,-5.64547E-05
326.5107,-5.64434E-05
326.6107,-5.649896E-05
326.7107,-5.642551E-05
326.8107,-5.639537E-05
326.9107,-5.646224E-05
327.0107,-5.641515E-05
327.1107,-5.641232E-05
327.2108,-5.639537E-05
327.3108,-5.63464E-05
327.4108,-5.64095E-05
327.5108,-5.638125E-05
327.6108,-5.636806E-05
327.7108,-5.631344E-05
327.8108,-5.635393E-05
327.9108,-5.629743E-05
328.0108,-5.628048E-05
328.1108,-5.627954E-05
328.2108,-5.628236E-05
328.3108,-5.626729E-05
328.4108,-5.626259E-05
328.5108,-5.628048E-05
328.6108,-5.623151E-05
328.7108,-5.624846E-05
328.8109,-5.621362E-05
328.9109,-5.62221E-05
329.0109,-5.620703E-05
329.1109,-5.616936E-05
329.2109,-5.617406E-05
329.3109,-5.613546E-05
329.4109,-5.614675E-05
329.5109,-5.615523E-05
329.6109,-5.613263E-05
329.7109,-5.612039E-05
329.8109,-5.608554E-05
329.9109,-5.607518E-05
330.0109,-5.609873E-05
330.1109,-5.606483E-05
330.2109,-5.603752E-05
330.3109,-5.604317E-05
330.4109,-5.60281E-05
330.511,-5.601397E-05
330.611,-5.597818E-05
330.711,-5.596123E-05
330.811,-5.595747E-05
330.911,-5.594146E-05
331.011,-5.592168E-05
331.111,-5.59198E-05
331.211,-5.592262E-05
331.311,-5.594617E-05
331.411,-5.590661E-05
331.511,-5.588213E-05
331.611,-5.591227E-05
331.711,-5.587648E-05
331.811,-5.583975E-05
331.911,-5.5868E-05
332.011,-5.581715E-05
332.1111,-5.578136E-05
332.2111,-5.584917E-05
332.3111,-5.582374E-05
332.4111,-5.577007E-05
332.5111,-5.577571E-05
332.6111,-5.577007E-05
332.7111,-5.577383E-05
332.8111,-5.579926E-05
332.9111,-5.572863E-05
333.0111,-5.572015E-05
333.1111,-5.573145E-05
333.2111,-5.570038E-05
333.3111,-5.568907E-05
333.4111,-5.569001E-05
333.5111,-5.569849E-05
333.6111,-5.568248E-05
333.7112,-5.565423E-05
333.8112,-5.563257E-05
333.9112,-5.561562E-05
334.0112,-5.560149E-05
334.1112,-5.558643E-05
334.2112,-5.558266E-05
334.3112,-5.560149E-05
334.4112,-5.556288E-05
334.5112,-5.555158E-05
334.6112,-5.555346E-05
334.7112,-5.553557E-05
334.8112,-5.553934E-05
334.9112,-5.551579E-05
335.0112,-5.549131E-05
335.1112,-5.549319E-05
335.2112,-5.550072E-05
335.3112,-5.549131E-05
335.4113,-5.548942E-05
335.5113,-5.545929E-05
335.6113,-5.544799E-05
335.7113,-5.543198E-05
335.8113,-5.543481E-05
335.9113,-5.541315E-05
336.0113,-5.541503E-05
336.1113,-5.541126E-05
336.2113,-5.544422E-05
336.3113,-5.543857E-05
336.4113,-5.541691E-05
336.5113,-5.535287E-05
336.6113,-5.540184E-05
336.7113,-5.538678E-05
336.8113,-5.532086E-05
336.9113,-5.530579E-05
337.0114,-5.527E-05
337.1114,-5.525305E-05
337.2114,-5.531897E-05
337.3114,-5.530108E-05
337.4114,-5.526059E-05
337.5114,-5.526341E-05
337.6114,-5.522386E-05
337.7114,-5.521256E-05
337.8114,-5.522857E-05
337.9114,-5.518995E-05
338.0114,-5.51683E-05
338.1114,-5.516547E-05
338.2114,-5.516359E-05
338.3114,-5.515982E-05
338.4114,-5.516641E-05
338.5114,-5.513722E-05
338.6115,-5.513533E-05
338.7115,-5.511368E-05
338.8115,-5.509013E-05
338.9115,-5.509955E-05
339.0115,-5.50713E-05
339.1115,-5.508919E-05
339.2115,-5.512686E-05
339.3115,-5.506376E-05
339.4115,-5.506282E-05
339.5115,-5.502892E-05
339.6115,-5.505341E-05
339.7115,-5.505058E-05
339.8115,-5.502233E-05
339.9115,-5.499502E-05
340.0115,-5.499879E-05
340.1115,-5.498937E-05
340.2115,-5.495641E-05
340.3116,-5.492062E-05
340.4116,-5.492439E-05
340.5116,-5.492439E-05
340.6116,-5.493569E-05
340.7116,-5.491968E-05
340.8116,-5.488295E-05
340.9116,-5.490461E-05
341.0116,-5.492533E-05
341.1116,-5.485187E-05
341.2116,-5.48547E-05
341.3116,-5.485282E-05
341.4116,-5.481232E-05
341.5116,-5.483492E-05
341.6116,-5.4866E-05
341.7116,-5.479161E-05
341.8116,-5.479819E-05
341.9117,-5.481232E-05
342.0117,-5.475865E-05
342.1117,-5.475488E-05
342.2117,-5.474546E-05
342.3117,-5.473698E-05
342.4117,-5.473133E-05
342.5117,-5.47398E-05
342.6117,-5.470025E-05
342.7117,-5.469084E-05
342.8117,-5.468707E-05
342.9117,-5.466635E-05
343.0117,-5.467294E-05
343.1117,-5.467389E-05
343.2117,-5.465223E-05
343.3117,-5.461927E-05
343.4117,-5.46155E-05
343.5117,-5.45816E-05
343.6118,-5.460608E-05
343.7118,-5.457595E-05
343.8118,-5.455429E-05
343.9118,-5.4575E-05
344.0118,-5.454299E-05
344.1118,-5.453263E-05
344.2118,-5.452415E-05
344.3118,-5.450343E-05
344.4118,-5.447518E-05
344.5118,-5.454111E-05
344.6118,-5.448177E-05
344.7118,-5.446953E-05
344.8118,-5.447424E-05
344.9118,-5.445541E-05
345.0118,-5.441491E-05
345.1118,-5.443563E-05
345.2119,-5.440079E-05
345.3119,-5.435653E-05
345.4119,-5.440455E-05
345.5119,-5.43876E-05
345.6119,-5.434711E-05
345.7119,-5.434051E-05
345.8119,-5.432168E-05
345.9119,-5.434146E-05
346.0119,-5.433769E-05
346.1119,-5.43311E-05
346.2119,-5.431885E-05
346.3119,-5.437818E-05
346.4119,-5.430567E-05
346.5119,-5.427836E-05
346.6119,-5.4268E-05
346.7119,-5.425011E-05
346.812,-5.426894E-05
346.912,-5.4268E-05
347.012,-5.423221E-05
347.112,-5.422185E-05
347.212,-5.419454E-05
347.312,-5.420585E-05
347.412,-5.424634E-05
347.512,-5.422845E-05
347.612,-5.418419E-05
347.712,-5.412957E-05
347.812,-5.413804E-05
347.912,-5.419831E-05
348.012,-5.416064E-05
348.112,-5.411544E-05
348.212,-5.409755E-05
348.312,-5.412769E-05
348.412,-5.411544E-05
348.5121,-5.405328E-05
348.6121,-5.40693E-05
348.7121,-5.408248E-05
348.8121,-5.40288E-05
348.9121,-5.404764E-05
349.0121,-5.401562E-05
349.1121,-5.405988E-05
349.2121,-5.403257E-05
349.3121,-5.400714E-05
349.4121,-5.401185E-05
349.5121,-5.406365E-05
349.6121,-5.398266E-05
349.7121,-5.397607E-05
349.8121,-5.398737E-05
349.9121,-5.393463E-05
350.0121,-5.392333E-05
350.1122,-5.3961E-05
350.2122,-5.392521E-05
350.3122,-5.390072E-05
350.4122,-5.393557E-05
350.5122,-5.389696E-05
350.6122,-5.392521E-05
350.7122,-5.394122E-05
350.8122,-5.38414E-05
350.9122,-5.3864E-05
351.0122,-5.392803E-05
351.1122,-5.386023E-05
351.2122,-5.383293E-05
351.3122,-5.382445E-05
351.4122,-5.380938E-05
351.5122,-5.381126E-05
351.6122,-5.384422E-05
351.7122,-5.377359E-05
351.8123,-5.374628E-05
351.9123,-5.377359E-05
352.0123,-5.374723E-05
352.1123,-5.373215E-05
352.2123,-5.376324E-05
352.3123,-5.37152E-05
352.4123,-5.372086E-05
352.5123,-5.372368E-05
352.6123,-5.369166E-05
352.7123,-5.369543E-05
352.8123,-5.369637E-05
352.9123,-5.365682E-05
353.0123,-5.366623E-05
353.1123,-5.363233E-05
353.2123,-5.364363E-05
353.3123,-5.366058E-05
353.4124,-5.361821E-05
353.5124,-5.360126E-05
353.6124,-5.36135E-05
353.7124,-5.360219E-05
353.8124,-5.360314E-05
353.9124,-5.360408E-05
354.0124,-5.357394E-05
354.1124,-5.355417E-05
354.2124,-5.356264E-05
354.3124,-5.352215E-05
354.4124,-5.351368E-05
354.5124,-5.350237E-05
354.6124,-5.350049E-05
354.7124,-5.347883E-05
354.8124,-5.347318E-05
354.9124,-5.345152E-05
355.0125,-5.342044E-05
355.1125,-5.34195E-05
355.2125,-5.342326E-05
355.3125,-5.341668E-05
355.4125,-5.342609E-05
355.5125,-5.338937E-05
355.6125,-5.336394E-05
355.7125,-5.336582E-05
355.8125,-5.335169E-05
355.9125,-5.337053E-05
356.0125,-5.335547E-05
356.1125,-5.332344E-05
356.2125,-5.331403E-05
356.3125,-5.331779E-05
356.4125,-5.329802E-05
356.5125,-5.327259E-05
356.6125,-5.326977E-05
356.7126,-5.322645E-05
356.8126,-5.325847E-05
356.9126,-5.323492E-05
357.0126,-5.322456E-05
357.1126,-5.321797E-05
357.2126,-5.32142E-05
357.3126,-5.316618E-05
357.4126,-5.319725E-05
357.5126,-5.318313E-05
357.6126,-5.321138E-05
357.7126,-5.322645E-05
357.8126,-5.318784E-05
357.9126,-5.32142E-05
358.0126,-5.32029E-05
358.1126,-5.317559E-05
358.2126,-5.314828E-05
358.3127,-5.316335E-05
358.4127,-5.31285E-05
358.5127,-5.309931E-05
358.6127,-5.313886E-05
358.7127,-5.313416E-05
358.8127,-5.31803E-05
358.9127,-5.323398E-05
359.0127,-5.323492E-05
359.1127,-5.324622E-05
359.2127,-5.324057E-05
359.3127,-5.319537E-05
359.4127,-5.321892E-05
359.5127,-5.32434E-05
359.6127,-5.324434E-05
359.7127,-5.326694E-05
359.8127,-5.32321E-05
359.9128,-5.322362E-05
360.0128,-5.324717E-05
360.1128,-5.319819E-05
360.2128,-5.316523E-05
360.3128,-5.317748E-05
360.4128,-5.316241E-05
360.5128,-5.312945E-05
360.6128,-5.309649E-05
360.7128,-5.314828E-05
360.8128,-5.315205E-05
360.9128,-5.315299E-05
361.0128,-5.31012E-05
361.1128,-5.307389E-05
361.2128,-5.307671E-05
361.3128,-5.307483E-05
361.4128,-5.307577E-05
361.5128,-5.305693E-05
361.6129,-5.305976E-05
361.7129,-5.305411E-05
361.8129,-5.306447E-05
361.9129,-5.303151E-05
362.0129,-5.302774E-05
362.1129,-5.302209E-05
362.2129,-5.302209E-05
362.3129,-5.300137E-05
362.4129,-5.300796E-05
362.5129,-5.298065E-05
362.6129,-5.29524E-05
362.7129,-5.29703E-05
362.8129,-5.297312E-05
362.9129,-5.293451E-05
363.0129,-5.296277E-05
363.1129,-5.293074E-05
363.213,-5.288836E-05
363.313,-5.291191E-05
363.413,-5.289213E-05
363.513,-5.287895E-05
363.613,-5.288554E-05
363.713,-5.287423E-05
363.813,-5.283751E-05
363.913,-5.28554E-05
364.013,-5.283092E-05
364.113,-5.282998E-05
364.213,-5.282433E-05
364.313,-5.278101E-05
364.413,-5.280078E-05
364.513,-5.279231E-05
364.613,-5.278289E-05
364.713,-5.277253E-05
364.813,-5.274711E-05
364.9131,-5.272639E-05
365.0131,-5.273486E-05
365.1131,-5.272733E-05
365.2131,-5.271038E-05
365.3131,-5.272733E-05
365.4131,-5.26906E-05
365.5131,-5.267082E-05
365.6131,-5.268212E-05
365.7131,-5.266989E-05
365.8131,-5.264916E-05
365.9131,-5.263975E-05
366.0131,-5.260961E-05
366.1131,-5.257759E-05
366.2131,-5.262656E-05
366.3131,-5.26049E-05
366.4131,-5.257571E-05
366.5132,-5.257383E-05
366.6132,-5.25258E-05
366.7132,-5.252862E-05
366.8132,-5.255216E-05
366.9132,-5.251262E-05
367.0132,-5.249284E-05
367.1132,-5.249755E-05
367.2132,-5.247589E-05
367.3132,-5.248436E-05
367.4132,-5.248153E-05
367.5132,-5.245046E-05
367.6132,-5.241844E-05
367.7132,-5.242974E-05
367.8132,-5.239396E-05
367.9132,-5.241938E-05
368.0132,-5.24175E-05
368.1133,-5.237512E-05
368.2133,-5.238642E-05
368.3133,-5.238548E-05
368.4133,-5.235817E-05
368.5133,-5.235911E-05
368.6133,-5.233745E-05
368.7133,-5.232332E-05
368.8133,-5.233745E-05
368.9133,-5.229884E-05
369.0133,-5.230543E-05
369.1133,-5.230826E-05
369.2133,-5.229225E-05
369.3133,-5.226023E-05
369.4133,-5.225552E-05
369.5133,-5.223386E-05
369.6133,-5.221596E-05
369.7133,-5.224422E-05
369.8134,-5.221503E-05
369.9134,-5.22009E-05
370.0134,-5.218207E-05
370.1134,-5.216135E-05
370.2134,-5.215664E-05
370.3134,-5.216888E-05
370.4134,-5.215287E-05
370.5134,-5.21152E-05
370.6134,-5.209825E-05
370.7134,-5.211238E-05
370.8134,-5.209919E-05
370.9134,-5.209448E-05
371.0134,-5.204928E-05
371.1134,-5.203704E-05
371.2134,-5.203516E-05
371.3134,-5.202668E-05
371.4135,-5.20248E-05
371.5135,-5.201162E-05
371.6135,-5.198524E-05
371.7135,-5.200031E-05
371.8135,-5.198242E-05
371.9135,-5.19391E-05
372.0135,-5.196453E-05
372.1135,-5.194946E-05
372.2135,-5.194004E-05
372.3135,-5.19391E-05
372.4135,-5.191179E-05
372.5135,-5.189578E-05
372.6135,-5.193345E-05
372.7135,-5.188542E-05
372.8135,-5.184022E-05
372.9135,-5.1876E-05
373.0135,-5.185435E-05
373.1136,-5.185435E-05
373.2136,-5.185152E-05
373.3136,-5.185152E-05
373.4136,-5.182892E-05
373.5136,-5.185999E-05
373.6136,-5.181761E-05
373.7136,-5.177335E-05
373.8136,-5.179973E-05
373.9136,-5.177335E-05
374.0136,-5.176582E-05
374.1136,-5.177618E-05
374.2136,-5.17404E-05
374.3136,-5.175075E-05
374.4136,-5.176959E-05
374.5136,-5.169802E-05
374.6136,-5.170272E-05
374.7137,-5.172438E-05
374.8137,-5.168766E-05
374.9137,-5.16773E-05
375.0137,-5.169048E-05
375.1137,-5.163304E-05
375.2137,-5.163398E-05
375.3137,-5.16481E-05
375.4137,-5.163586E-05
375.5137,-5.161985E-05
375.6137,-5.166035E-05
375.7137,-5.16434E-05
375.8137,-5.161232E-05
375.9137,-5.162268E-05
376.0137,-5.158124E-05
376.1137,-5.162268E-05
376.2137,-5.162645E-05
376.3138,-5.159631E-05
376.4138,-5.153039E-05
376.5138,-5.157559E-05
376.6138,-5.156335E-05
376.7138,-5.155958E-05
376.8138,-5.156994E-05
376.9138,-5.152003E-05
377.0138,-5.15464E-05
377.1138,-5.152285E-05
377.2138,-5.151343E-05
377.3138,-5.149837E-05
377.4138,-5.146729E-05
377.5138,-5.146541E-05
377.6138,-5.145316E-05
377.7138,-5.144563E-05
377.8138,-5.145034E-05
377.9138,-5.143056E-05
378.0139,-5.143527E-05
378.1139,-5.142868E-05
378.2139,-5.142209E-05
378.3139,-5.140984E-05
378.4139,-5.137877E-05
378.5139,-5.138913E-05
378.6139,-5.135523E-05
378.7139,-5.135805E-05
378.8139,-5.136935E-05
378.9139,-5.132227E-05
379.0139,-5.134958E-05
379.1139,-5.13411E-05
379.2139,-5.131944E-05
379.3139,-5.127518E-05
379.4139,-5.128836E-05
379.5139,-5.128459E-05
379.614,-5.124881E-05
379.714,-5.127423E-05
379.814,-5.12328E-05
379.914,-5.124693E-05
380.014,-5.124975E-05
380.114,-5.119796E-05
380.214,-5.116217E-05
380.314,-5.11876E-05
380.414,-5.118195E-05
380.514,-5.117818E-05
380.614,-5.116876E-05
380.714,-5.114145E-05
380.814,-5.113204E-05
380.914,-5.114899E-05
381.014,-5.112827E-05
381.114,-5.11019E-05
381.2141,-5.116876E-05
381.3141,-5.112544E-05
381.4141,-5.10614E-05
381.5141,-5.107742E-05
381.6141,-5.106705E-05
381.7141,-5.110284E-05
381.8141,-5.110378E-05
381.9141,-5.105482E-05
382.0141,-5.104351E-05
382.1141,-5.108024E-05
382.2141,-5.102751E-05
382.3141,-5.099454E-05
382.4141,-5.100301E-05
382.5141,-5.097288E-05
382.6141,-5.0971E-05
382.7141,-5.101809E-05
382.8141,-5.094934E-05
382.9142,-5.095876E-05
383.0142,-5.099172E-05
383.1142,-5.097759E-05
383.2142,-5.096818E-05
383.3142,-5.094275E-05
383.4142,-5.090978E-05
383.5142,-5.091826E-05
383.6142,-5.092203E-05
383.7142,-5.091073E-05
383.8142,-5.090696E-05
383.9142,-5.088153E-05
384.0142,-5.085799E-05
384.1142,-5.085611E-05
384.2142,-5.084198E-05
384.3142,-5.082974E-05
384.4142,-5.083821E-05
384.5143,-5.081655E-05
384.6143,-5.08109E-05
384.7143,-5.082692E-05
384.8143,-5.079584E-05
384.9143,-5.078077E-05
385.0143,-5.078359E-05
385.1143,-5.078359E-05
385.2143,-5.074687E-05
385.3143,-5.076947E-05
385.4143,-5.073274E-05
385.5143,-5.072332E-05
385.6143,-5.075251E-05
385.7143,-5.071768E-05
385.8143,-5.071014E-05
385.9143,-5.072992E-05
386.0143,-5.069978E-05
386.1143,-5.071014E-05
386.2144,-5.067435E-05
386.3144,-5.065458E-05
386.4144,-5.064893E-05
386.5144,-5.064045E-05
386.6144,-5.061502E-05
386.7144,-5.057924E-05
386.8144,-5.059713E-05
386.9144,-5.058018E-05
387.0144,-5.057924E-05
387.1144,-5.053686E-05
387.2144,-5.051708E-05
387.3144,-5.052462E-05
387.4144,-5.05491E-05
387.5144,-5.050767E-05
387.6144,-5.051426E-05
387.7144,-5.050861E-05
387.8145,-5.049825E-05
387.9145,-5.04926E-05
388.0145,-5.050296E-05
388.1145,-5.047942E-05
388.2145,-5.045305E-05
388.3145,-5.046058E-05
388.4145,-5.046058E-05
388.5145,-5.04361E-05
388.6145,-5.044457E-05
388.7145,-5.043138E-05
388.8145,-5.038901E-05
388.9145,-5.038995E-05
389.0145,-5.039372E-05
389.1145,-5.040219E-05
389.2145,-5.038712E-05
389.3145,-5.034757E-05
389.4146,-5.03391E-05
389.5146,-5.035887E-05
389.6146,-5.035417E-05
389.7146,-5.032874E-05
389.8146,-5.031085E-05
389.9146,-5.029484E-05
390.0146,-5.029484E-05
390.1146,-5.029107E-05
390.2146,-5.029484E-05
390.3146,-5.029201E-05
390.4146,-5.026282E-05
390.5146,-5.024963E-05
390.6146,-5.027035E-05
390.7146,-5.024586E-05
390.8146,-5.02308E-05
390.9146,-5.02308E-05
391.0146,-5.019784E-05
391.1147,-5.017712E-05
391.2147,-5.01969E-05
391.3147,-5.019031E-05
391.4147,-5.017147E-05
391.5147,-5.017053E-05
391.6147,-5.015075E-05
391.7147,-5.01338E-05
391.8147,-5.01451E-05
391.9147,-5.013192E-05
392.0147,-5.010837E-05
392.1147,-5.011402E-05
392.2147,-5.010461E-05
392.3147,-5.009142E-05
392.4147,-5.008201E-05
392.5147,-5.006129E-05
392.6147,-5.005187E-05
392.7148,-5.005187E-05
392.8148,-5.003492E-05
392.9148,-5.00368E-05
393.0148,-5.004151E-05
393.1148,-5.000667E-05
393.2148,-5.00255E-05
393.3148,-4.999536E-05
393.4148,-4.996711E-05
393.5148,-4.999254E-05
393.6148,-4.997371E-05
393.7148,-4.993039E-05
393.8148,-4.995393E-05
393.9148,-4.993604E-05
394.0148,-4.993886E-05
394.1148,-4.993133E-05
394.2148,-4.993039E-05
394.3148,-4.986823E-05
394.4149,-4.98899E-05
394.5149,-4.988895E-05
394.6149,-4.987483E-05
394.7149,-4.988613E-05
394.8149,-4.984563E-05
394.9149,-4.982962E-05
395.0149,-4.984092E-05
395.1149,-4.983809E-05
395.2149,-4.982774E-05
395.3149,-4.984657E-05
395.4149,-4.981832E-05
395.5149,-4.980984E-05
395.6149,-4.980043E-05
395.7149,-4.97524E-05
395.8149,-4.976652E-05
395.9149,-4.977406E-05
396.015,-4.978536E-05
396.115,-4.975993E-05
396.215,-4.974675E-05
396.315,-4.975522E-05
396.415,-4.974298E-05
396.515,-4.972603E-05
396.615,-4.969684E-05
396.715,-4.968365E-05
396.815,-4.971473E-05
396.915,-4.967989E-05
397.015,-4.966953E-05
397.115,-4.965728E-05
397.215,-4.964787E-05
397.315,-4.965163E-05
397.415,-4.964033E-05
397.515,-4.960455E-05
397.6151,-4.960643E-05
397.7151,-4.960455E-05
397.8151,-4.960172E-05
397.9151,-4.959231E-05
398.0151,-4.958477E-05
398.1151,-4.954804E-05
398.2151,-4.957912E-05
398.3151,-4.958571E-05
398.4151,-4.954333E-05
398.5151,-4.954051E-05
398.6151,-4.952074E-05
398.7151,-4.950284E-05
398.8151,-4.952544E-05
398.9151,-4.950096E-05
399.0151,-4.947741E-05
399.1151,-4.95019E-05
399.2151,-4.945952E-05
399.3152,-4.942656E-05
399.4152,-4.949813E-05
399.5152,-4.944916E-05
399.6152,-4.940961E-05
399.7152,-4.946235E-05
399.8152,-4.941337E-05
399.9152,-4.944916E-05
400.0152,-4.944351E-05
400.1152,-4.940867E-05
400.2152,-4.938041E-05
400.3152,-4.937476E-05
400.4152,-4.936629E-05
400.5152,-4.93418E-05
400.6152,-4.933521E-05
400.7152,-4.933145E-05
400.8152,-4.93079E-05
400.9153,-4.931544E-05
401.0153,-4.927965E-05
401.1153,-4.927871E-05
401.2153,-4.927494E-05
401.3153,-4.927777E-05
401.4153,-4.928059E-05
401.5153,-4.929001E-05
401.6153,-4.925611E-05
401.7153,-4.925893E-05
401.8153,-4.927682E-05
401.9153,-4.924198E-05
402.0153,-4.924292E-05
402.1153,-4.921373E-05
402.2153,-4.923539E-05
402.3153,-4.925234E-05
402.4153,-4.922786E-05
402.5154,-4.920148E-05
402.6154,-4.919678E-05
402.7154,-4.920713E-05
402.8154,-4.920243E-05
402.9154,-4.917417E-05
403.0154,-4.91431E-05
403.1154,-4.912991E-05
403.2154,-4.918171E-05
403.3154,-4.913744E-05
403.4154,-4.911768E-05
403.5154,-4.911673E-05
403.6154,-4.909601E-05
403.7154,-4.90866E-05
403.8154,-4.913556E-05
403.9154,-4.908E-05
404.0154,-4.907153E-05
404.1154,-4.90687E-05
404.2155,-4.907058E-05
404.3155,-4.906023E-05
404.4155,-4.905552E-05
404.5155,-4.901032E-05
404.6155,-4.902444E-05
404.7155,-4.903386E-05
404.8155,-4.902067E-05
404.9155,-4.901973E-05
405.0155,-4.900655E-05
405.1155,-4.897924E-05
405.2155,-4.897453E-05
405.3155,-4.896699E-05
405.4155,-4.895005E-05
405.5155,-4.896417E-05
405.6155,-4.893686E-05
405.7155,-4.892367E-05
405.8156,-4.894157E-05
405.9156,-4.891803E-05
406.0156,-4.891332E-05
406.1156,-4.890201E-05
406.2156,-4.888129E-05
406.3156,-4.886246E-05
406.4156,-4.890484E-05
406.5156,-4.884928E-05
406.6156,-4.88069E-05
406.7156,-4.882574E-05
406.8156,-4.883421E-05
406.9156,-4.881161E-05
407.0156,-4.883704E-05
407.1156,-4.881443E-05
407.2156,-4.878712E-05
407.3156,-4.881067E-05
407.4156,-4.878148E-05
407.5157,-4.878618E-05
407.6157,-4.883798E-05
407.7157,-4.880031E-05
407.8157,-4.876735E-05
407.9157,-4.877488E-05
408.0157,-4.872779E-05
408.1157,-4.872214E-05
408.2157,-4.872121E-05
408.3157,-4.872874E-05
408.4157,-4.872121E-05
408.5157,-4.86939E-05
408.6157,-4.869672E-05
408.7157,-4.870708E-05
408.8157,-4.869201E-05
408.9157,-4.86873E-05
409.0157,-4.867223E-05
409.1158,-4.86826E-05
409.2158,-4.870425E-05
409.3158,-4.866564E-05
409.4158,-4.867035E-05
409.5158,-4.868918E-05
409.6158,-4.866753E-05
409.7158,-4.86581E-05
409.8158,-4.864681E-05
409.9158,-4.863645E-05
410.0158,-4.864869E-05
410.1158,-4.864681E-05
410.2158,-4.861573E-05
410.3158,-4.86355E-05
410.4158,-4.862797E-05
410.5158,-4.863079E-05
410.6158,-4.863079E-05
410.7159,-4.861196E-05
410.8159,-4.859124E-05
410.9159,-4.860631E-05
411.0159,-4.858559E-05
411.1159,-4.861479E-05
411.2159,-4.861949E-05
411.3159,-4.861008E-05
411.4159,-4.862326E-05
411.5159,-4.860914E-05
411.6159,-4.857712E-05
411.7159,-4.855734E-05
411.8159,-4.856299E-05
411.9159,-4.857053E-05
412.0159,-4.854981E-05
412.1159,-4.853945E-05
412.2159,-4.851026E-05
412.3159,-4.854981E-05
412.416,-4.852533E-05
412.516,-4.849142E-05
412.616,-4.848483E-05
412.716,-4.84933E-05
412.816,-4.84933E-05
412.916,-4.85338E-05
413.016,-4.848577E-05
413.116,-4.844433E-05
413.216,-4.850555E-05
413.316,-4.850367E-05
413.416,-4.846411E-05
413.516,-4.848483E-05
413.616,-4.844433E-05
413.716,-4.840384E-05
413.816,-4.846505E-05
413.916,-4.843586E-05
414.0161,-4.843963E-05
414.1161,-4.844433E-05
414.2161,-4.84029E-05
414.3161,-4.840102E-05
414.4161,-4.84255E-05
414.5161,-4.836429E-05
414.6161,-4.837653E-05
414.7161,-4.842267E-05
414.8161,-4.840572E-05
414.9161,-4.834922E-05
415.0161,-4.832191E-05
415.1161,-4.83398E-05
415.2161,-4.834451E-05
415.3161,-4.832944E-05
415.4161,-4.827576E-05
415.5161,-4.828989E-05
415.6161,-4.830308E-05
415.7162,-4.826446E-05
415.8162,-4.82428E-05
415.9162,-4.828236E-05
416.0162,-4.826258E-05
416.1162,-4.827576E-05
416.2162,-4.825128E-05
416.3162,-4.822585E-05
416.4162,-4.821832E-05
416.5162,-4.823904E-05
416.6162,-4.819289E-05
416.7162,-4.819572E-05
416.8162,-4.817029E-05
416.9162,-4.819101E-05
417.0162,-4.818818E-05
417.1162,-4.816558E-05
417.2162,-4.818159E-05
417.3163,-4.81571E-05
417.4163,-4.815334E-05
417.5163,-4.815805E-05
417.6163,-4.814015E-05
417.7163,-4.813262E-05
417.8163,-4.809307E-05
417.9163,-4.80893E-05
418.0163,-4.806105E-05
418.1163,-4.807518E-05
418.2163,-4.809119E-05
418.3163,-4.806011E-05
418.4163,-4.804787E-05
418.5163,-4.808647E-05
418.6163,-4.804881E-05
418.7163,-4.802903E-05
418.8163,-4.803751E-05
418.9164,-4.802056E-05
419.0164,-4.803091E-05
419.1164,-4.80554E-05
419.2164,-4.800455E-05
419.3164,-4.79923E-05
419.4164,-4.799795E-05
419.5164,-4.798853E-05
419.6164,-4.799607E-05
419.7164,-4.797535E-05
419.8164,-4.795181E-05
419.9164,-4.792544E-05
420.0164,-4.792167E-05
420.1164,-4.793109E-05
420.2164,-4.792826E-05
420.3164,-4.792826E-05
420.4164,-4.792073E-05
420.5164,-4.788306E-05
420.6165,-4.787082E-05
420.7165,-4.788024E-05
420.8165,-4.787553E-05
420.9165,-4.786706E-05
421.0165,-4.783127E-05
421.1165,-4.782468E-05
421.2165,-4.78275E-05
421.3165,-4.780772E-05
421.4165,-4.781337E-05
421.5165,-4.781432E-05
421.6165,-4.781808E-05
421.7165,-4.778512E-05
421.8165,-4.778889E-05
421.9165,-4.778889E-05
422.0165,-4.776911E-05
422.1165,-4.778324E-05
422.2166,-4.776346E-05
422.3166,-4.774651E-05
422.4166,-4.777947E-05
422.5166,-4.774745E-05
422.6166,-4.775593E-05
422.7166,-4.777194E-05
422.8166,-4.774275E-05
422.9166,-4.77418E-05
423.0166,-4.773333E-05
423.1166,-4.772297E-05
423.2166,-4.774557E-05
423.3166,-4.773333E-05
423.4166,-4.769095E-05
423.5166,-4.773898E-05
423.6166,-4.772768E-05
423.7166,-4.770696E-05
423.8167,-4.769754E-05
423.9167,-4.768342E-05
424.0167,-4.770131E-05
424.1167,-4.770507E-05
424.2167,-4.767776E-05
424.3167,-4.767871E-05
424.4167,-4.770037E-05
424.5167,-4.769754E-05
424.6167,-4.771261E-05
424.7167,-4.769849E-05
424.8167,-4.769471E-05
424.9167,-4.769942E-05
425.0167,-4.767871E-05
425.1167,-4.767306E-05
425.2167,-4.765422E-05
425.3167,-4.766552E-05
425.4167,-4.7674E-05
425.5168,-4.763916E-05
425.6168,-4.763539E-05
425.7168,-4.75996E-05
425.8168,-4.761938E-05
425.9168,-4.767117E-05
426.0168,-4.763256E-05
426.1168,-4.760431E-05
426.2168,-4.763539E-05
426.3168,-4.763162E-05
426.4168,-4.762409E-05
426.5168,-4.763633E-05
426.6168,-4.76222E-05
426.7168,-4.759207E-05
426.8168,-4.759207E-05
426.9168,-4.760243E-05
427.0168,-4.759395E-05
427.1169,-4.760713E-05
427.2169,-4.756287E-05
427.3169,-4.756005E-05
427.4169,-4.755534E-05
427.5169,-4.754875E-05
427.6169,-4.754027E-05
427.7169,-4.753651E-05
427.8169,-4.751202E-05
427.9169,-4.751484E-05
428.0169,-4.750354E-05
428.1169,-4.751484E-05
428.2169,-4.753368E-05
428.3169,-4.750354E-05
428.4169,-4.747341E-05
428.5169,-4.747812E-05
428.6169,-4.746023E-05
428.7169,-4.745457E-05
428.817,-4.744516E-05
428.917,-4.741691E-05
429.017,-4.740937E-05
429.117,-4.740372E-05
429.217,-4.739995E-05
429.317,-4.736982E-05
429.417,-4.736699E-05
429.517,-4.737264E-05
429.617,-4.735757E-05
429.717,-4.735004E-05
429.817,-4.732744E-05
429.917,-4.730672E-05
430.017,-4.733968E-05
430.117,-4.732273E-05
430.217,-4.730767E-05
430.317,-4.733309E-05
430.4171,-4.730767E-05
430.5171,-4.724739E-05
430.6171,-4.725775E-05
430.7171,-4.723421E-05
430.8171,-4.727753E-05
430.9171,-4.725775E-05
431.0171,-4.725022E-05
431.1171,-4.722103E-05
431.2171,-4.717677E-05
431.3171,-4.720125E-05
431.4171,-4.720313E-05
431.5171,-4.722385E-05
431.6171,-4.719466E-05
431.7171,-4.71843E-05
431.8171,-4.71843E-05
431.9171,-4.718053E-05
432.0172,-4.719089E-05
432.1172,-4.714663E-05
432.2172,-4.713533E-05
432.3172,-4.711555E-05
432.4172,-4.711838E-05
432.5172,-4.71212E-05
432.6172,-4.714098E-05
432.7172,-4.710048E-05
432.8172,-4.708259E-05
432.9172,-4.708636E-05
433.0172,-4.709389E-05
433.1172,-4.705716E-05
433.2172,-4.706846E-05
433.3172,-4.703079E-05
433.4172,-4.704492E-05
433.5172,-4.706281E-05
433.6172,-4.704963E-05
433.7173,-4.70242E-05
433.8173,-4.699784E-05
433.9173,-4.699689E-05
434.0173,-4.70016E-05
434.1173,-4.699124E-05
434.2173,-4.696582E-05
434.3173,-4.696958E-05
434.4173,-4.694886E-05
434.5173,-4.693003E-05
434.6173,-4.696205E-05
434.7173,-4.69338E-05
434.8173,-4.690649E-05
434.9173,-4.692532E-05
435.0173,-4.68886E-05
435.1173,-4.68886E-05
435.2173,-4.690178E-05
435.3174,-4.686034E-05
435.4174,-4.684622E-05
435.5174,-4.686222E-05
435.6174,-4.683209E-05
435.7174,-4.682361E-05
435.8174,-4.683397E-05
435.9174,-4.681138E-05
436.0174,-4.679913E-05
436.1174,-4.68076E-05
436.2174,-4.680101E-05
436.3174,-4.677088E-05
436.4174,-4.676711E-05
436.5174,-4.675204E-05
436.6174,-4.675864E-05
436.7174,-4.674545E-05
436.8174,-4.675299E-05
436.9174,-4.673791E-05
437.0175,-4.675016E-05
437.1175,-4.673038E-05
437.2175,-4.668801E-05
437.3175,-4.668612E-05
437.4175,-4.665693E-05
437.5175,-4.667671E-05
437.6175,-4.666917E-05
437.7175,-4.664468E-05
437.8175,-4.665222E-05
437.9175,-4.667482E-05
438.0175,-4.662773E-05
438.1175,-4.666446E-05
438.2175,-4.66089E-05
438.3175,-4.659195E-05
438.4175,-4.660702E-05
438.5175,-4.657971E-05
438.6176,-4.657876E-05
438.7176,-4.6575E-05
438.8176,-4.657123E-05
438.9176,-4.655145E-05
439.0176,-4.65524E-05
439.1176,-4.652226E-05
439.2176,-4.652509E-05
439.3176,-4.652885E-05
439.4176,-4.649777E-05
439.5176,-4.649966E-05
439.6176,-4.649872E-05
439.7176,-4.648741E-05
439.8176,-4.645352E-05
439.9176,-4.646481E-05
440.0176,-4.645634E-05
440.1176,-4.643939E-05
440.2177,-4.644598E-05
440.3177,-4.643186E-05
440.4177,-4.640078E-05
440.5177,-4.641773E-05
440.6177,-4.639983E-05
440.7177,-4.64149E-05
440.8177,-4.639042E-05
440.9177,-4.637252E-05
441.0177,-4.638383E-05
441.1177,-4.636688E-05
441.2177,-4.635463E-05
441.3177,-4.63471E-05
441.4177,-4.633392E-05
441.5177,-4.630754E-05
441.6177,-4.634051E-05
441.7177,-4.63245E-05
441.8177,-4.631131E-05
441.9178,-4.630284E-05
442.0178,-4.627835E-05
442.1178,-4.627082E-05
442.2178,-4.627929E-05
442.3178,-4.623409E-05
442.4178,-4.620301E-05
442.5178,-4.626234E-05
442.6178,-4.623786E-05
442.7178,-4.623503E-05
442.8178,-4.623315E-05
442.9178,-4.621055E-05
443.0178,-4.621808E-05
443.1178,-4.621902E-05
443.2178,-4.623221E-05
443.3178,-4.622185E-05
443.4178,-4.62162E-05
443.5179,-4.61936E-05
443.6179,-4.615122E-05
443.7179,-4.615781E-05
443.8179,-4.618606E-05
443.9179,-4.618606E-05
444.0179,-4.620207E-05
444.1179,-4.619737E-05
444.2179,-4.619737E-05
444.3179,-4.622279E-05
444.4179,-4.621902E-05
444.5179,-4.622185E-05
444.6179,-4.625575E-05
444.7179,-4.624822E-05
444.8179,-4.626329E-05
444.9179,-4.628118E-05
445.0179,-4.628683E-05
445.118,-4.62501E-05
445.218,-4.624257E-05
445.318,-4.624822E-05
445.418,-4.625387E-05
445.518,-4.627835E-05
445.618,-4.625763E-05
445.718,-4.626234E-05
445.818,-4.629719E-05
445.918,-4.629154E-05
446.018,-4.624162E-05
446.118,-4.628306E-05
446.218,-4.624633E-05
446.318,-4.627647E-05
446.418,-4.628494E-05
446.518,-4.629248E-05
446.618,-4.631319E-05
446.718,-4.633203E-05
446.8181,-4.634427E-05
446.9181,-4.634051E-05
447.0181,-4.63763E-05
447.1181,-4.635557E-05
447.2181,-4.637158E-05
447.3181,-4.636311E-05
447.4181,-4.639418E-05
447.5181,-4.638195E-05
447.6181,-4.63923E-05
447.7181,-4.639513E-05
447.8181,-4.639983E-05
447.9181,-4.64375E-05
448.0181,-4.643656E-05
448.1181,-4.643939E-05
448.2181,-4.64262E-05
448.3181,-4.643374E-05
448.4182,-4.641867E-05
448.5182,-4.643845E-05
448.6182,-4.642338E-05
448.7182,-4.642056E-05
448.8182,-4.639418E-05
448.9182,-4.640361E-05
449.0182,-4.638288E-05
449.1182,-4.641208E-05
449.2182,-4.6381E-05
449.3182,-4.639701E-05
449.4182,-4.63697E-05
449.5182,-4.636217E-05
449.6182,-4.63584E-05
449.7182,-4.632638E-05
449.8182,-4.633486E-05
449.9182,-4.635087E-05
450.0182,-4.633109E-05
450.1183,-4.627929E-05
450.2183,-4.628683E-05
450.3183,-4.629342E-05
450.4183,-4.629342E-05
450.5183,-4.630472E-05
450.6183,-4.627929E-05
450.7183,-4.626329E-05
450.8183,-4.625952E-05
450.9183,-4.623503E-05
451.0183,-4.624539E-05
451.1183,-4.623032E-05
451.2183,-4.62049E-05
451.3183,-4.619171E-05
451.4183,-4.620772E-05
451.5183,-4.619548E-05
451.6183,-4.619925E-05
451.7184,-4.617476E-05
451.8184,-4.614745E-05
451.9184,-4.616911E-05
452.0184,-4.615687E-05
452.1184,-4.613521E-05
452.2184,-4.617382E-05
452.3184,-4.614274E-05
452.4184,-4.611543E-05
452.5184,-4.611826E-05
452.6184,-4.608812E-05
452.7184,-4.608059E-05
452.8184,-4.609189E-05
452.9184,-4.606835E-05
453.0184,-4.604763E-05
453.1184,-4.604198E-05
453.2184,-4.604198E-05
453.3185,-4.603256E-05
453.4185,-4.603068E-05
453.5185,-4.598265E-05
453.6185,-4.598736E-05
453.7185,-4.597982E-05
453.8185,-4.595722E-05
453.9185,-4.596758E-05
454.0185,-4.595534E-05
454.1185,-4.59252E-05
454.2185,-4.590637E-05
454.3185,-4.591296E-05
454.4185,-4.591014E-05
454.5185,-4.591861E-05
454.6185,-4.588753E-05
454.7185,-4.58574E-05
454.8185,-4.590919E-05
454.9185,-4.587718E-05
455.0186,-4.583857E-05
455.1186,-4.58235E-05
455.2186,-4.581879E-05
455.3186,-4.582161E-05
455.4186,-4.581596E-05
455.5186,-4.580937E-05
455.6186,-4.576134E-05
455.7186,-4.57717E-05
455.8186,-4.576605E-05
455.9186,-4.576699E-05
456.0186,-4.576134E-05
456.1186,-4.573591E-05
456.2186,-4.569636E-05
456.3186,-4.571519E-05
456.4186,-4.570013E-05
456.5186,-4.569165E-05
456.6187,-4.570484E-05
456.7187,-4.566246E-05
456.8187,-4.564268E-05
456.9187,-4.566246E-05
457.0187,-4.565116E-05
457.1187,-4.563703E-05
457.2187,-4.566434E-05
457.3187,-4.564456E-05
457.4187,-4.562385E-05
457.5187,-4.56295E-05
457.6187,-4.559089E-05
457.7187,-4.560596E-05
457.8187,-4.560973E-05
457.9187,-4.560878E-05
458.0187,-4.55617E-05
458.1187,-4.553909E-05
458.2188,-4.555228E-05
458.3188,-4.553533E-05
458.4188,-4.554663E-05
458.5188,-4.54986E-05
458.6188,-4.548165E-05
458.7188,-4.548541E-05
458.8188,-4.548447E-05
458.9188,-4.545999E-05
459.0188,-4.543173E-05
459.1188,-4.544303E-05
459.2188,-4.547035E-05
459.3188,-4.546093E-05
459.4188,-4.543456E-05
459.5188,-4.542138E-05
459.6188,-4.544586E-05
459.7188,-4.544963E-05
459.8188,-4.539501E-05
459.9189,-4.538653E-05
460.0189,-4.538747E-05
460.1189,-4.53903E-05
460.2189,-4.535922E-05
460.3189,-4.531214E-05
460.4189,-4.535075E-05
460.5189,-4.535546E-05
460.6189,-4.533191E-05
460.7189,-4.533756E-05
460.8189,-4.529613E-05
460.9189,-4.526788E-05
461.0189,-4.527823E-05
461.1189,-4.528671E-05
461.2189,-4.528483E-05
461.3189,-4.526599E-05
461.4189,-4.522926E-05
461.519,-4.525657E-05
461.619,-4.528859E-05
461.719,-4.525186E-05
461.819,-4.521891E-05
461.919,-4.523397E-05
462.019,-4.524339E-05
462.119,-4.520949E-05
462.219,-4.520854E-05
462.319,-4.5185E-05
462.419,-4.518595E-05
462.519,-4.520384E-05
462.619,-4.515393E-05
462.719,-4.514262E-05
462.819,-4.515958E-05
462.919,-4.514357E-05
463.019,-4.513415E-05
463.119,-4.510684E-05
463.2191,-4.509836E-05
463.3191,-4.508801E-05
463.4191,-4.507482E-05
463.5191,-4.508518E-05
463.6191,-4.507199E-05
463.7191,-4.507764E-05
463.8191,-4.502208E-05
463.9191,-4.504092E-05
464.0191,-4.503903E-05
464.1191,-4.503056E-05
464.2191,-4.504845E-05
464.3191,-4.500701E-05
464.4191,-4.502208E-05
464.5191,-4.505599E-05
464.6191,-4.506164E-05
464.7191,-4.499854E-05
464.8192,-4.500042E-05
464.9192,-4.499854E-05
465.0192,-4.496746E-05
465.1192,-4.494769E-05
465.2192,-4.49232E-05
465.3192,-4.490625E-05
465.4192,-4.492131E-05
465.5192,-4.492696E-05
465.6192,-4.489777E-05
465.7192,-4.491567E-05
465.8192,-4.488742E-05
465.9192,-4.485163E-05
466.0192,-4.4894E-05
466.1192,-4.48667E-05
466.2192,-4.484409E-05
466.3192,-4.485822E-05
466.4193,-4.483939E-05
466.5193,-4.483751E-05
466.6193,-4.485822E-05
466.7193,-4.483091E-05
466.8193,-4.482055E-05
466.9193,-4.481114E-05
467.0193,-4.479418E-05
467.1193,-4.47923E-05
467.2193,-4.479418E-05
467.3193,-4.477629E-05
467.4193,-4.477252E-05
467.5193,-4.47584E-05
467.6193,-4.474145E-05
467.7193,-4.476311E-05
467.8193,-4.47245E-05
467.9193,-4.471696E-05
468.0193,-4.471037E-05
468.1194,-4.471131E-05
468.2194,-4.472355E-05
468.3194,-4.47245E-05
468.4194,-4.470189E-05
468.5194,-4.467647E-05
468.6194,-4.469719E-05
468.7194,-4.467081E-05
468.8194,-4.466799E-05
468.9194,-4.466705E-05
469.0194,-4.464445E-05
469.1194,-4.462279E-05
469.2194,-4.46275E-05
469.3194,-4.461902E-05
469.4194,-4.462185E-05
469.5194,-4.459736E-05
469.6194,-4.460395E-05
469.7195,-4.459171E-05
469.8195,-4.458606E-05
469.9195,-4.457287E-05
470.0195,-4.459548E-05
470.1195,-4.456252E-05
470.2195,-4.452767E-05
470.3195,-4.454839E-05
470.4195,-4.454651E-05
470.5195,-4.453709E-05
470.6195,-4.452861E-05
470.7195,-4.449942E-05
470.8195,-4.447117E-05
470.9195,-4.450413E-05
471.0195,-4.449188E-05
471.1195,-4.448624E-05
471.2195,-4.448059E-05
471.3195,-4.445704E-05
471.4196,-4.445893E-05
471.5196,-4.44448E-05
471.6196,-4.444386E-05
471.7196,-4.443162E-05
471.8196,-4.441561E-05
471.9196,-4.440996E-05
472.0196,-4.441466E-05
472.1196,-4.441184E-05
472.2196,-4.436664E-05
472.3196,-4.437511E-05
472.4196,-4.437229E-05
472.5196,-4.435251E-05
472.6196,-4.4393E-05
472.7196,-4.435722E-05
472.8196,-4.434121E-05
472.9196,-4.436758E-05
473.0197,-4.436946E-05
473.1197,-4.433839E-05
473.2197,-4.434592E-05
473.3197,-4.435157E-05
473.4197,-4.431107E-05
473.5197,-4.432803E-05
473.6197,-4.431296E-05
473.7197,-4.430637E-05
473.8197,-4.432332E-05
473.9197,-4.428471E-05
474.0197,-4.42508E-05
474.1197,-4.427529E-05
474.2197,-4.425551E-05
474.3197,-4.42508E-05
474.4197,-4.425269E-05
474.5197,-4.424327E-05
474.6198,-4.420654E-05
474.7198,-4.423762E-05
474.8198,-4.422915E-05
474.9198,-4.420937E-05
475.0198,-4.42169E-05
475.1198,-4.417359E-05
475.2198,-4.418206E-05
475.3198,-4.418771E-05
475.4198,-4.416228E-05
475.5198,-4.414345E-05
475.6198,-4.414816E-05
475.7198,-4.413685E-05
475.8198,-4.414345E-05
475.9198,-4.414062E-05
476.0198,-4.41265E-05
476.1198,-4.410955E-05
476.2198,-4.410766E-05
476.3199,-4.409824E-05
476.4199,-4.410955E-05
476.5199,-4.41086E-05
476.6199,-4.408694E-05
476.7199,-4.409448E-05
476.8199,-4.406905E-05
476.9199,-4.405964E-05
477.0199,-4.409165E-05
477.1199,-4.407187E-05
477.2199,-4.403892E-05
477.3199,-4.405775E-05
477.4199,-4.404457E-05
477.5199,-4.402196E-05
477.6199,-4.403327E-05
477.7199,-4.402479E-05
477.8199,-4.399654E-05
477.92,-4.402102E-05
478.02,-4.398901E-05
478.12,-4.398994E-05
478.22,-4.398618E-05
478.32,-4.396358E-05
478.42,-4.395416E-05
478.52,-4.395416E-05
478.62,-4.395039E-05
478.72,-4.391743E-05
478.82,-4.392591E-05
478.92,-4.389766E-05
479.02,-4.390519E-05
479.12,-4.390613E-05
479.22,-4.388824E-05
479.32,-4.387694E-05
479.42,-4.387223E-05
479.5201,-4.388824E-05
479.6201,-4.388918E-05
479.7201,-4.388165E-05
479.8201,-4.384586E-05
479.9201,-4.384492E-05
480.0201,-4.385434E-05
480.1201,-4.38242E-05
480.2201,-4.383739E-05
480.3201,-4.380631E-05
480.4201,-4.378842E-05
480.5201,-4.381008E-05
480.6201,-4.382326E-05
480.7201,-4.379877E-05
480.8201,-4.37837E-05
480.9201,-4.372438E-05
481.0201,-4.374133E-05
481.1201,-4.375922E-05
481.2202,-4.374133E-05
481.3202,-4.37272E-05
481.4202,-4.371778E-05
481.5202,-4.36867E-05
481.6202,-4.370366E-05
481.7202,-4.36933E-05
481.8202,-4.368577E-05
481.9202,-4.367164E-05
482.0202,-4.366128E-05
482.1202,-4.365845E-05
482.2202,-4.367352E-05
482.3202,-4.364621E-05
482.4202,-4.362832E-05
482.5202,-4.362267E-05
482.6202,-4.362267E-05
482.7202,-4.362362E-05
482.8203,-4.363774E-05
482.9203,-4.362078E-05
483.0203,-4.359159E-05
483.1203,-4.360666E-05
483.2203,-4.358029E-05
483.3203,-4.357841E-05
483.4203,-4.355958E-05
483.5203,-4.354074E-05
483.6203,-4.354639E-05
483.7203,-4.354733E-05
483.8203,-4.353603E-05
483.9203,-4.351343E-05
484.0203,-4.350966E-05
484.1203,-4.349365E-05
484.2203,-4.35106E-05
484.3203,-4.349365E-05
484.4203,-4.349271E-05
484.5204,-4.348801E-05
484.6204,-4.349554E-05
484.7204,-4.347482E-05
484.8204,-4.346258E-05
484.9204,-4.345598E-05
485.0204,-4.344845E-05
485.1204,-4.345222E-05
485.2204,-4.343903E-05
485.3204,-4.340984E-05
485.4204,-4.344468E-05
485.5204,-4.341926E-05
485.6204,-4.341078E-05
485.7204,-4.342491E-05
485.8204,-4.341926E-05
485.9204,-4.34315E-05
486.0204,-4.342491E-05
486.1205,-4.343338E-05
486.2205,-4.340136E-05
486.3205,-4.339759E-05
486.4205,-4.338347E-05
486.5205,-4.336557E-05
486.6205,-4.338535E-05
486.7205,-4.337028E-05
486.8205,-4.338253E-05
486.9205,-4.34089E-05
487.0205,-4.337405E-05
487.1205,-4.339194E-05
487.2205,-4.345975E-05
487.3205,-4.34315E-05
487.4205,-4.343056E-05
487.5205,-4.34315E-05
487.6205,-4.341549E-05
487.7206,-4.343715E-05
487.8206,-4.342961E-05
487.9206,-4.337217E-05
488.0206,-4.341078E-05
488.1206,-4.344186E-05
488.2206,-4.340325E-05
488.3206,-4.343903E-05
488.4206,-4.338912E-05
488.5206,-4.33684E-05
488.6206,-4.338441E-05
488.7206,-4.337405E-05
488.8206,-4.334109E-05
488.9206,-4.333638E-05
489.0206,-4.330531E-05
489.1206,-4.331378E-05
489.2206,-4.333074E-05
489.3206,-4.334203E-05
489.4207,-4.330908E-05
489.5207,-4.329965E-05
489.6207,-4.330248E-05
489.7207,-4.329212E-05
489.8207,-4.332131E-05
489.9207,-4.330248E-05
490.0207,-4.330154E-05
490.1207,-4.331849E-05
490.2207,-4.330248E-05
490.3207,-4.329965E-05
490.4207,-4.331849E-05
490.5207,-4.332414E-05
490.6207,-4.33006E-05
490.7207,-4.330154E-05
490.8207,-4.328553E-05
490.9207,-4.3278E-05
491.0208,-4.329589E-05
491.1208,-4.328741E-05
491.2208,-4.328836E-05
491.3208,-4.327517E-05
491.4208,-4.325163E-05
491.5208,-4.325727E-05
491.6208,-4.327046E-05
491.7208,-4.326293E-05
491.8208,-4.324032E-05
491.9208,-4.323844E-05
492.0208,-4.325163E-05
492.1208,-4.325069E-05
492.2208,-4.324315E-05
492.3208,-4.321867E-05
492.4208,-4.322432E-05
492.5208,-4.320548E-05
492.6208,-4.321019E-05
492.7209,-4.32375E-05
492.8209,-4.324221E-05
492.9209,-4.319607E-05
493.0209,-4.321113E-05
493.1209,-4.320172E-05
493.2209,-4.316593E-05
493.3209,-4.316593E-05
493.4209,-4.316499E-05
493.5209,-4.314521E-05
493.6209,-4.314804E-05
493.7209,-4.315181E-05
493.8209,-4.314616E-05
493.9209,-4.317158E-05
494.0209,-4.316311E-05
494.1209,-4.314144E-05
494.2209,-4.314427E-05
494.321,-4.312826E-05
494.421,-4.312167E-05
494.521,-4.313203E-05
494.621,-4.313203E-05
494.721,-4.315181E-05
494.821,-4.314238E-05
494.921,-4.31179E-05
495.021,-4.308965E-05
495.121,-4.310283E-05
495.221,-4.310189E-05
495.321,-4.309812E-05
495.421,-4.309812E-05
495.521,-4.309154E-05
495.621,-4.307364E-05
495.721,-4.306893E-05
495.821,-4.307647E-05
495.9211,-4.304916E-05
496.0211,-4.306799E-05
496.1211,-4.3084E-05
496.2211,-4.30322E-05
496.3211,-4.304068E-05
496.4211,-4.303691E-05
496.5211,-4.306705E-05
496.6211,-4.306705E-05
496.7211,-4.305763E-05
496.8211,-4.303315E-05
496.9211,-4.306046E-05
497.0211,-4.308117E-05
497.1211,-4.306046E-05
497.2211,-4.304445E-05
497.3211,-4.303315E-05
497.4211,-4.303691E-05
497.5211,-4.308212E-05
497.6212,-4.306046E-05
497.7212,-4.303315E-05
497.8212,-4.303691E-05
497.9212,-4.301243E-05
498.0212,-4.300866E-05
498.1212,-4.30209E-05
498.2212,-4.298324E-05
498.3212,-4.294745E-05
498.4212,-4.297476E-05
498.5212,-4.295969E-05
498.6212,-4.296723E-05
498.7212,-4.297664E-05
498.8212,-4.293144E-05
498.9212,-4.295781E-05
499.0212,-4.295781E-05
499.1212,-4.293144E-05
499.2213,-4.296346E-05
499.3213,-4.293992E-05
499.4213,-4.292108E-05
499.5213,-4.290507E-05
499.6213,-4.290319E-05
499.7213,-4.287776E-05
499.8213,-4.289094E-05
499.9213,-4.28966E-05
500.0213,-4.285987E-05
500.1213,-4.286646E-05
500.2213,-4.284574E-05
500.3213,-4.28448E-05
500.4213,-4.285328E-05
500.5213,-4.281937E-05
500.6213,-4.280713E-05
500.7213,-4.281749E-05
500.8214,-4.280431E-05
500.9214,-4.280902E-05
501.0214,-4.280713E-05
501.1214,-4.278924E-05
501.2214,-4.278171E-05
501.3214,-4.280336E-05
501.4214,-4.277511E-05
501.5214,-4.276475E-05
501.6214,-4.277228E-05
501.7214,-4.276005E-05
501.8214,-4.275062E-05
501.9214,-4.274592E-05
502.0214,-4.270919E-05
502.1214,-4.272708E-05
502.2214,-4.274121E-05
502.3214,-4.274121E-05
502.4214,-4.268188E-05
502.5215,-4.270825E-05
502.6215,-4.268565E-05
502.7215,-4.267623E-05
502.8215,-4.266681E-05
502.9215,-4.264233E-05
503.0215,-4.264044E-05
503.1215,-4.264609E-05
503.2215,-4.265363E-05
503.3215,-4.262914E-05
503.4215,-4.26122E-05
503.5215,-4.258959E-05
503.6215,-4.261878E-05
503.7215,-4.260372E-05
503.8215,-4.258771E-05
503.9215,-4.258488E-05
504.0215,-4.259053E-05
504.1216,-4.258394E-05
504.2216,-4.259147E-05
504.3216,-4.258017E-05
504.4216,-4.256887E-05
504.5216,-4.257923E-05
504.6216,-4.25604E-05
504.7216,-4.253874E-05
504.8216,-4.255286E-05
504.9216,-4.251519E-05
505.0216,-4.251614E-05
505.1216,-4.250954E-05
505.2216,-4.248129E-05
505.3216,-4.245774E-05
505.4216,-4.249071E-05
505.5216,-4.246622E-05
505.6216,-4.248223E-05
505.7216,-4.245963E-05
505.8217,-4.244645E-05
505.9217,-4.241632E-05
506.0217,-4.245774E-05
506.1217,-4.242855E-05
506.2217,-4.241443E-05
506.3217,-4.240689E-05
506.4217,-4.236923E-05
506.5217,-4.238994E-05
506.6217,-4.240878E-05
506.7217,-4.237582E-05
506.8217,-4.237016E-05
506.9217,-4.236828E-05
507.0217,-4.234474E-05
507.1217,-4.236263E-05
507.2217,-4.234757E-05
507.3217,-4.233815E-05
507.4218,-4.233909E-05
507.5218,-4.233627E-05
507.6218,-4.233156E-05
507.7218,-4.234192E-05
507.8218,-4.232497E-05
507.9218,-4.228635E-05
508.0218,-4.23033E-05
508.1218,-4.230896E-05
508.2218,-4.226093E-05
508.3218,-4.229294E-05
508.4218,-4.229671E-05
508.5218,-4.229765E-05
508.6218,-4.230896E-05
508.7218,-4.224209E-05
508.8218,-4.223456E-05
508.9218,-4.225339E-05
509.0219,-4.225151E-05
509.1219,-4.22129E-05
509.2219,-4.221666E-05
509.3219,-4.222231E-05
509.4219,-4.219124E-05
509.5219,-4.220348E-05
509.6219,-4.216958E-05
509.7219,-4.220442E-05
509.8219,-4.220065E-05
509.9219,-4.2179E-05
510.0219,-4.213567E-05
510.1219,-4.215545E-05
510.2219,-4.216675E-05
510.3219,-4.213944E-05
510.4219,-4.212438E-05
510.5219,-4.212155E-05
510.6219,-4.209424E-05
510.722,-4.213473E-05
510.822,-4.210554E-05
510.922,-4.208106E-05
511.022,-4.210554E-05
511.122,-4.209235E-05
511.222,-4.208482E-05
511.322,-4.210083E-05
511.422,-4.203114E-05
511.522,-4.20707E-05
511.622,-4.209989E-05
511.722,-4.213191E-05
511.822,-4.206787E-05
511.922,-4.206222E-05
512.022,-4.206975E-05
512.122,-4.20641E-05
512.222,-4.20594E-05
512.322,-4.203114E-05
512.4219,-4.201419E-05
512.5219,-4.202549E-05
512.6219,-4.199159E-05
512.7219,-4.199442E-05
512.8218,-4.198123E-05
512.9218,-4.198312E-05
513.0218,-4.200666E-05
513.1218,-4.200101E-05
513.2217,-4.197558E-05
513.3217,-4.198688E-05
513.4217,-4.197558E-05
513.5217,-4.194921E-05
513.6216,-4.197276E-05
513.7216,-4.195863E-05
513.8216,-4.193038E-05
513.9216,-4.192943E-05
514.0215,-4.192096E-05
514.1215,-4.188424E-05
514.2215,-4.190401E-05
514.3215,-4.192755E-05
514.4214,-4.189271E-05
514.5214,-4.190024E-05
514.6214,-4.189271E-05
514.7214,-4.187482E-05
514.8214,-4.190589E-05
514.9213,-4.186069E-05
515.0213,-4.184845E-05
515.1213,-4.187952E-05
515.2213,-4.187482E-05
515.3212,-4.186822E-05
515.4212,-4.184563E-05
515.5212,-4.183338E-05
515.6212,-4.18315E-05
515.7211,-4.183526E-05
515.8211,-4.180795E-05
515.9211,-4.181078E-05
516.0211,-4.18136E-05
516.121,-4.180042E-05
516.221,-4.179382E-05
516.321,-4.180795E-05
516.421,-4.178535E-05
516.5209,-4.175239E-05
516.6209,-4.176275E-05
516.7209,-4.176746E-05
516.8209,-4.176558E-05
516.9208,-4.175239E-05
517.0208,-4.173356E-05
517.1208,-4.173544E-05
517.2208,-4.172508E-05
517.3207,-4.171943E-05
517.4207,-4.174109E-05
517.5207,-4.172885E-05
517.6207,-4.171943E-05
517.7206,-4.171567E-05
517.8206,-4.170154E-05
517.9206,-4.169212E-05
518.0206,-4.169683E-05
518.1205,-4.169589E-05
518.2205,-4.167329E-05
518.3205,-4.166952E-05
518.4205,-4.165445E-05
518.5204,-4.164974E-05
518.6204,-4.168176E-05
518.7204,-4.163655E-05
518.8204,-4.160831E-05
518.9203,-4.163279E-05
519.0203,-4.163655E-05
519.1203,-4.16036E-05
519.2203,-4.161489E-05
519.3203,-4.158006E-05
519.4202,-4.158476E-05
519.5202,-4.160831E-05
519.6202,-4.157535E-05
519.7202,-4.159041E-05
519.8201,-4.157063E-05
519.9201,-4.156593E-05
520.0201,-4.156593E-05
520.1201,-4.158194E-05
520.22,-4.154427E-05
520.32,-4.152449E-05
520.42,-4.151978E-05
520.52,-4.150095E-05
520.6199,-4.154804E-05
520.7199,-4.152449E-05
520.8199,-4.14727E-05
520.9199,-4.1484E-05
521.0198,-4.146893E-05
521.1198,-4.14614E-05
521.2198,-4.149247E-05
521.3198,-4.147175E-05
521.4197,-4.144539E-05
521.5197,-4.14614E-05
521.6197,-4.145104E-05
521.7197,-4.144539E-05
521.8196,-4.143879E-05
521.9196,-4.14162E-05
522.0196,-4.141713E-05
522.1196,-4.140866E-05
522.2195,-4.141148E-05
522.3195,-4.140395E-05
522.4195,-4.141243E-05
522.5195,-4.139548E-05
522.6194,-4.137758E-05
522.7194,-4.138041E-05
522.8194,-4.136817E-05
522.9194,-4.134839E-05
523.0193,-4.133991E-05
523.1193,-4.13126E-05
523.2193,-4.134086E-05
523.3193,-4.134839E-05
523.4193,-4.132767E-05
523.5192,-4.133521E-05
523.6192,-4.132296E-05
523.7192,-4.130318E-05
523.8192,-4.133332E-05
523.9191,-4.128623E-05
524.0191,-4.127022E-05
524.1191,-4.129754E-05
524.2191,-4.129754E-05
524.319,-4.127682E-05
524.419,-4.127776E-05
524.519,-4.128529E-05
524.619,-4.125139E-05
524.7189,-4.126175E-05
524.8189,-4.124009E-05
524.9189,-4.122973E-05
525.0189,-4.121278E-05
525.1188,-4.118736E-05
525.2188,-4.118736E-05
525.3188,-4.12109E-05
525.4188,-4.117323E-05
525.5187,-4.118829E-05
525.6187,-4.118736E-05
525.7187,-4.118076E-05
525.8187,-4.116852E-05
525.9186,-4.117888E-05
526.0186,-4.117134E-05
526.1186,-4.116004E-05
526.2186,-4.118359E-05
526.3185,-4.116852E-05
526.4185,-4.114027E-05
526.5185,-4.112332E-05
526.6185,-4.110919E-05
526.7184,-4.112614E-05
526.8184,-4.110542E-05
526.9184,-4.108094E-05
527.0184,-4.109035E-05
527.1183,-4.10687E-05
527.2183,-4.109318E-05
527.3183,-4.109035E-05
527.4183,-4.106492E-05
527.5182,-4.102726E-05
527.6182,-4.105739E-05
527.7182,-4.105551E-05
527.8182,-4.103197E-05
527.9182,-4.10282E-05
528.0181,-4.101219E-05
528.1181,-4.099806E-05
528.2181,-4.10282E-05
528.3181,-4.100842E-05
528.418,-4.100654E-05
528.518,-4.101878E-05
528.618,-4.098771E-05
528.718,-4.095945E-05
528.8179,-4.098582E-05
528.9179,-4.097923E-05
529.0179,-4.09764E-05
529.1179,-4.096416E-05
529.2178,-4.094721E-05
529.3178,-4.095663E-05
529.4178,-4.094533E-05
529.5178,-4.092837E-05
529.6177,-4.09312E-05
529.7177,-4.093591E-05
529.8177,-4.093874E-05
529.9177,-4.09312E-05
530.0176,-4.088035E-05
530.1176,-4.089448E-05
530.2176,-4.090201E-05
530.3176,-4.088317E-05
530.4175,-4.087941E-05
530.5175,-4.087941E-05
530.6175,-4.085304E-05
530.7175,-4.086151E-05
530.8174,-4.086622E-05
530.9174,-4.087093E-05
531.0174,-4.084457E-05
531.1174,-4.085963E-05
531.2173,-4.083514E-05
531.3173,-4.083609E-05
531.4173,-4.085492E-05
531.5173,-4.082384E-05
531.6172,-4.080125E-05
531.7172,-4.082667E-05
531.8172,-4.081631E-05
531.9172,-4.080783E-05
532.0172,-4.081725E-05
532.1171,-4.077676E-05
532.2171,-4.076263E-05
532.3171,-4.082196E-05
532.4171,-4.080407E-05
532.517,-4.07551E-05
532.617,-4.075133E-05
532.717,-4.075133E-05
532.817,-4.076734E-05
532.9169,-4.077205E-05
533.0169,-4.075792E-05
533.1169,-4.073909E-05
533.2169,-4.077864E-05
533.3168,-4.075887E-05
533.4168,-4.071366E-05
533.5168,-4.071272E-05
533.6168,-4.071648E-05
533.7167,-4.069106E-05
533.8167,-4.071837E-05
533.9167,-4.069577E-05
534.0167,-4.070519E-05
534.1166,-4.07259E-05
534.2166,-4.074474E-05
534.3166,-4.068541E-05
534.4166,-4.06807E-05
534.5165,-4.068352E-05
534.6165,-4.068259E-05
534.7165,-4.067222E-05
534.8165,-4.067317E-05
534.9164,-4.065433E-05
535.0164,-4.069106E-05
535.1164,-4.071272E-05
535.2164,-4.068164E-05
535.3163,-4.067694E-05
535.4163,-4.066657E-05
535.5163,-4.067787E-05
535.6163,-4.067599E-05
535.7162,-4.06129E-05
535.8162,-4.062326E-05
535.9162,-4.066752E-05
536.0162,-4.061101E-05
536.1161,-4.060065E-05
536.2161,-4.066093E-05
536.3161,-4.064774E-05
536.4161,-4.061101E-05
536.5161,-4.063079E-05
536.616,-4.061101E-05
536.716,-4.059877E-05
536.816,-4.062985E-05
536.916,-4.059595E-05
537.0159,-4.059218E-05
537.1159,-4.060254E-05
537.2159,-4.05724E-05
537.3159,-4.059406E-05
537.4158,-4.059689E-05
537.5158,-4.058276E-05
537.6158,-4.058182E-05
537.7158,-4.0595E-05
537.8157,-4.05611E-05
537.9157,-4.059783E-05
538.0157,-4.060536E-05
538.1157,-4.05724E-05
538.2156,-4.058653E-05
538.3156,-4.058276E-05
538.4156,-4.059406E-05
538.5156,-4.05903E-05
538.6155,-4.060442E-05
538.7155,-4.056675E-05
538.8155,-4.057805E-05
538.9155,-4.058088E-05
539.0154,-4.054603E-05
539.1154,-4.057523E-05
539.2154,-4.057334E-05
539.3154,-4.055075E-05
539.4153,-4.057146E-05
539.5153,-4.052626E-05
539.6153,-4.05159E-05
539.7153,-4.053097E-05
539.8152,-4.052344E-05
539.9152,-4.053379E-05
540.0152,-4.054791E-05
540.1152,-4.053662E-05
540.2151,-4.054038E-05
540.3151,-4.051213E-05
540.4151,-4.051872E-05
540.5151,-4.050837E-05
540.6151,-4.051119E-05
540.715,-4.051119E-05
540.815,-4.051307E-05
540.915,-4.04528E-05
541.015,-4.046881E-05
541.1149,-4.04528E-05
541.2149,-4.045375E-05
541.3149,-4.044433E-05
541.4149,-4.04528E-05
541.5148,-4.04594E-05
541.6148,-4.043585E-05
541.7148,-4.045092E-05
541.8148,-4.041514E-05
541.9147,-4.041419E-05
542.0147,-4.04302E-05
542.1147,-4.042361E-05
542.2147,-4.041231E-05
542.3146,-4.042078E-05
542.4146,-4.041607E-05
542.5146,-4.040759E-05
542.6146,-4.045751E-05
542.7145,-4.040571E-05
542.8145,-4.038782E-05
542.9145,-4.040195E-05
543.0145,-4.04189E-05
543.1144,-4.041984E-05
543.2144,-4.040666E-05
543.3144,-4.037276E-05
543.4144,-4.03558E-05
543.5143,-4.036711E-05
543.6143,-4.035863E-05
543.7143,-4.034545E-05
543.8143,-4.032379E-05
543.9142,-4.030966E-05
544.0142,-4.028988E-05
544.1142,-4.03445E-05
544.2142,-4.031531E-05
544.3141,-4.03106E-05
544.4141,-4.032567E-05
544.5141,-4.030401E-05
544.6141,-4.031531E-05
544.7141,-4.032002E-05
544.814,-4.029836E-05
544.914,-4.029648E-05
545.014,-4.03445E-05
545.114,-4.031719E-05
545.2139,-4.03106E-05
545.3139,-4.032567E-05
545.4139,-4.031813E-05
545.5139,-4.032567E-05
545.6138,-4.032284E-05
545.7138,-4.029459E-05
545.8138,-4.033038E-05
545.9138,-4.032567E-05
546.0137,-4.03219E-05
546.1137,-4.029365E-05
546.2137,-4.026917E-05
546.3137,-4.026728E-05
546.4136,-4.028894E-05
546.5136,-4.025787E-05
546.6136,-4.023714E-05
546.7136,-4.025598E-05
546.8135,-4.026822E-05
546.9135,-4.024844E-05
547.0135,-4.023714E-05
547.1135,-4.02362E-05
547.2134,-4.021549E-05
547.3134,-4.023526E-05
547.4134,-4.023432E-05
547.5134,-4.020607E-05
547.6133,-4.019948E-05
547.7133,-4.0191E-05
547.8133,-4.019194E-05
547.9133,-4.021549E-05
548.0132,-4.018629E-05
548.1132,-4.016181E-05
548.2132,-4.015804E-05
548.3132,-4.015522E-05
548.4131,-4.016275E-05
548.5131,-4.017311E-05
548.6131,-4.013073E-05
548.7131,-4.010248E-05
548.813,-4.014297E-05
548.913,-4.012131E-05
549.013,-4.010059E-05
549.113,-4.011943E-05
549.213,-4.009683E-05
549.3129,-4.008741E-05
549.4129,-4.009589E-05
549.5129,-4.008835E-05
549.6129,-4.008929E-05
549.7128,-4.00714E-05
549.8128,-4.00488E-05
549.9128,-4.006763E-05
550.0128,-4.006669E-05
550.1127,-4.004126E-05
550.2127,-4.004409E-05
550.3127,-4.00375E-05
550.4127,-4.005633E-05
550.5126,-4.007329E-05
550.6126,-4.004503E-05
550.7126,-4.00149E-05
550.8126,-4.001301E-05
550.9125,-4.001113E-05
551.0125,-3.999512E-05
551.1125,-3.999606E-05
551.2125,-3.997817E-05
551.3124,-3.996499E-05
551.4124,-4.000265E-05
551.5124,-3.997158E-05
551.6124,-3.996404E-05
551.7123,-3.995368E-05
551.8123,-3.990754E-05
551.9123,-3.993768E-05
552.0123,-3.99405E-05
552.1122,-3.991978E-05
552.2122,-3.990942E-05
552.3122,-3.989247E-05
552.4122,-3.988305E-05
552.5121,-3.988776E-05
552.6121,-3.990283E-05
552.7121,-3.986328E-05
552.8121,-3.985292E-05
552.912,-3.985857E-05
553.012,-3.984915E-05
553.112,-3.989153E-05
553.212,-3.987081E-05
553.312,-3.98435E-05
553.4119,-3.984162E-05
553.5119,-3.982561E-05
553.6119,-3.98322E-05
553.7119,-3.983409E-05
553.8118,-3.980018E-05
553.9118,-3.978041E-05
554.0118,-3.977193E-05
554.1118,-3.979359E-05
554.2117,-3.977193E-05
554.3117,-3.976817E-05
554.4117,-3.976817E-05
554.5117,-3.975215E-05
554.6116,-3.97644E-05
554.7116,-3.975027E-05
554.8116,-3.977664E-05
554.9116,-3.974462E-05
555.0115,-3.971448E-05
555.1115,-3.973049E-05
555.2115,-3.970224E-05
555.3115,-3.972484E-05
555.4114,-3.971637E-05
555.5114,-3.971919E-05
555.6114,-3.969094E-05
555.7114,-3.970695E-05
555.8113,-3.968623E-05
555.9113,-3.967116E-05
556.0113,-3.968812E-05
556.1113,-3.967399E-05
556.2112,-3.964386E-05
556.3112,-3.965704E-05
556.4112,-3.963538E-05
556.5112,-3.961749E-05
556.6111,-3.961843E-05
556.7111,-3.962784E-05
556.8111,-3.962125E-05
556.9111,-3.963915E-05
557.011,-3.96156E-05
557.111,-3.961937E-05
557.211,-3.962408E-05
557.311,-3.96043E-05
557.4109,-3.962596E-05
557.5109,-3.960524E-05
557.6109,-3.957982E-05
557.7109,-3.958829E-05
557.8109,-3.960054E-05
557.9108,-3.958547E-05
558.0108,-3.957511E-05
558.1108,-3.955251E-05
558.2108,-3.95365E-05
558.3107,-3.956475E-05
558.4107,-3.955157E-05
558.5107,-3.950918E-05
558.6107,-3.954026E-05
558.7106,-3.95073E-05
558.8106,-3.948659E-05
558.9106,-3.950165E-05
559.0106,-3.946681E-05
559.1105,-3.947622E-05
559.2105,-3.95073E-05
559.3105,-3.948941E-05
559.4105,-3.944891E-05
559.5104,-3.946587E-05
559.6104,-3.950071E-05
559.7104,-3.945928E-05
559.8104,-3.94621E-05
559.9103,-3.945268E-05
560.0103,-3.944797E-05
560.1103,-3.947057E-05
560.2103,-3.94282E-05
560.3102,-3.940748E-05
560.4102,-3.939241E-05
560.5102,-3.94103E-05
560.6102,-3.93943E-05
560.7101,-3.941219E-05
560.8101,-3.937734E-05
560.9101,-3.93651E-05
561.0101,-3.938771E-05
561.11,-3.937923E-05
561.21,-3.937923E-05
561.31,-3.936793E-05
561.41,-3.935568E-05
561.5099,-3.93604E-05
561.6099,-3.936698E-05
561.7099,-3.934627E-05
561.8099,-3.934439E-05
561.9099,-3.933873E-05
562.0098,-3.933685E-05
562.1098,-3.934909E-05
562.2098,-3.933591E-05
562.3098,-3.931048E-05
562.4097,-3.932272E-05
562.5097,-3.930201E-05
562.6097,-3.931142E-05
562.7097,-3.931048E-05
562.8096,-3.928506E-05
562.9096,-3.929353E-05
563.0096,-3.930295E-05
563.1096,-3.929071E-05
563.2095,-3.92681E-05
563.3095,-3.926151E-05
563.4095,-3.926245E-05
563.5095,-3.925775E-05
563.6094,-3.92681E-05
563.7094,-3.92568E-05
563.8094,-3.924645E-05
563.9094,-3.924645E-05
564.0093,-3.922196E-05
564.1093,-3.923326E-05
564.2093,-3.921631E-05
564.3093,-3.922478E-05
564.4092,-3.922102E-05
564.5092,-3.921537E-05
564.6092,-3.920501E-05
564.7092,-3.919936E-05
564.8091,-3.920124E-05
564.9091,-3.917864E-05
565.0091,-3.915227E-05
565.1091,-3.91664E-05
565.209,-3.916451E-05
565.309,-3.913626E-05
565.409,-3.914097E-05
565.509,-3.913156E-05
565.6089,-3.911554E-05
565.7089,-3.915698E-05
565.8089,-3.907034E-05
565.9089,-3.907128E-05
566.0089,-3.913626E-05
566.1088,-3.911837E-05
566.2088,-3.908352E-05
566.3088,-3.910989E-05
566.4088,-3.910518E-05
566.5087,-3.910048E-05
566.6087,-3.910613E-05
566.7087,-3.9092E-05
566.8087,-3.906187E-05
566.9086,-3.907599E-05
567.0086,-3.905999E-05
567.1086,-3.907222E-05
567.2086,-3.909012E-05
567.3085,-3.90581E-05
567.4085,-3.90694E-05
567.5085,-3.905245E-05
567.6085,-3.905245E-05
567.7084,-3.907034E-05
567.8084,-3.90581E-05
567.9084,-3.903644E-05
568.0084,-3.903644E-05
568.1083,-3.905245E-05
568.2083,-3.901383E-05
568.3083,-3.904397E-05
568.4083,-3.90468E-05
568.5082,-3.903738E-05
568.6082,-3.901666E-05
568.7082,-3.900159E-05
568.8082,-3.900724E-05
568.9081,-3.902608E-05
569.0081,-3.898276E-05
569.1081,-3.895922E-05
569.2081,-3.899312E-05
569.308,-3.899688E-05
569.408,-3.898464E-05
569.508,-3.896863E-05
569.608,-3.895827E-05
569.7079,-3.8979E-05
569.8079,-3.899123E-05
569.9079,-3.898558E-05
570.0079,-3.898182E-05
570.1078,-3.89724E-05
570.2078,-3.899123E-05
570.3078,-3.895827E-05
570.4078,-3.894509E-05
570.5078,-3.894509E-05
570.6077,-3.894509E-05
570.7077,-3.893662E-05
570.8077,-3.895168E-05
570.9077,-3.893662E-05
571.0076,-3.893756E-05
571.1076,-3.896204E-05
571.2076,-3.894697E-05
571.3076,-3.895074E-05
571.4075,-3.893944E-05
571.5075,-3.89319E-05
571.6075,-3.893285E-05
571.7075,-3.895733E-05
571.8074,-3.894415E-05
571.9074,-3.892249E-05
572.0074,-3.892908E-05
572.1074,-3.89272E-05
572.2073,-3.892531E-05
572.3073,-3.890271E-05
572.4073,-3.89385E-05
572.5073,-3.892814E-05
572.6072,-3.892155E-05
572.7072,-3.891025E-05
572.8072,-3.890554E-05
572.9072,-3.891025E-05
573.0071,-3.893756E-05
573.1071,-3.890931E-05
573.2071,-3.88867E-05
573.3071,-3.889518E-05
573.407,-3.888764E-05
573.507,-3.88867E-05
573.607,-3.889047E-05
573.707,-3.887728E-05
573.8069,-3.887917E-05
573.9069,-3.889612E-05
574.0069,-3.888388E-05
574.1069,-3.88641E-05
574.2068,-3.889141E-05
574.3068,-3.889424E-05
574.4068,-3.887634E-05
574.5068,-3.889424E-05
574.6068,-3.887446E-05
574.7067,-3.886599E-05
574.8067,-3.891496E-05
574.9067,-3.888764E-05
575.0067,-3.889235E-05
575.1066,-3.893002E-05
575.2066,-3.892249E-05
575.3066,-3.891307E-05
575.4066,-3.892249E-05
575.5065,-3.892437E-05
575.6065,-3.89272E-05
575.7065,-3.892908E-05
575.8065,-3.89159E-05
575.9064,-3.887352E-05
576.0064,-3.888764E-05
576.1064,-3.887728E-05
576.2064,-3.888199E-05
576.3063,-3.888388E-05
576.4063,-3.88754E-05
576.5063,-3.887258E-05
576.6063,-3.889047E-05
576.7062,-3.889047E-05
576.8062,-3.888105E-05
576.9062,-3.88641E-05
577.0062,-3.884527E-05
577.1061,-3.88528E-05
577.2061,-3.885092E-05
577.3061,-3.884244E-05
577.4061,-3.885563E-05
577.506,-3.882078E-05
577.606,-3.880195E-05
577.706,-3.883208E-05
577.806,-3.881607E-05
577.9059,-3.8801E-05
578.0059,-3.882267E-05
578.1059,-3.879442E-05
578.2059,-3.87963E-05
578.3058,-3.881607E-05
578.4058,-3.87963E-05
578.5058,-3.875957E-05
578.6058,-3.877652E-05
578.7057,-3.877746E-05
578.8057,-3.875863E-05
578.9057,-3.877087E-05
579.0057,-3.874544E-05
579.1057,-3.873697E-05
579.2056,-3.876616E-05
579.3056,-3.875204E-05
579.4056,-3.87219E-05
579.5056,-3.872661E-05
579.6055,-3.873508E-05
579.7055,-3.872755E-05
579.8055,-3.872473E-05
579.9055,-3.869459E-05
580.0054,-3.869176E-05
580.1054,-3.870495E-05
580.2054,-3.86654E-05
580.3054,-3.868988E-05
580.4053,-3.86927E-05
580.5053,-3.867858E-05
580.6053,-3.865786E-05
580.7053,-3.865033E-05
580.8052,-3.864844E-05
580.9052,-3.866822E-05
581.0052,-3.86541E-05
581.1052,-3.863526E-05
581.2051,-3.864374E-05
581.3051,-3.86249E-05
581.4051,-3.860795E-05
581.5051,-3.861831E-05
581.605,-3.861172E-05
581.705,-3.859948E-05
581.805,-3.861266E-05
581.905,-3.86023E-05
582.0049,-3.856652E-05
582.1049,-3.857028E-05
582.2049,-3.857593E-05
582.3049,-3.854956E-05
582.4048,-3.856557E-05
582.5048,-3.853355E-05
582.6048,-3.851943E-05
582.7048,-3.853826E-05
582.8047,-3.852602E-05
582.9047,-3.852885E-05
583.0047,-3.852037E-05
583.1047,-3.852225E-05
583.2047,-3.852131E-05
583.3046,-3.85006E-05
583.4046,-3.851189E-05
583.5046,-3.850813E-05
583.6046,-3.8494E-05
583.7045,-3.846575E-05
583.8045,-3.848176E-05
583.9045,-3.848176E-05
584.0045,-3.845822E-05
584.1044,-3.84601E-05
584.2044,-3.843561E-05
584.3044,-3.843844E-05
584.4044,-3.846386E-05
584.5043,-3.846763E-05
584.6043,-3.841395E-05
584.7043,-3.843938E-05
584.8043,-3.842337E-05
584.9042,-3.839418E-05
585.0042,-3.842055E-05
585.1042,-3.840925E-05
585.2042,-3.838005E-05
585.3041,-3.839982E-05
585.4041,-3.835651E-05
585.5041,-3.837817E-05
585.6041,-3.838382E-05
585.704,-3.83744E-05
585.804,-3.834238E-05
585.904,-3.834898E-05
586.004,-3.832637E-05
586.1039,-3.834991E-05
586.2039,-3.835086E-05
586.3039,-3.830848E-05
586.4039,-3.830565E-05
586.5038,-3.830471E-05
586.6038,-3.829624E-05
586.7038,-3.830471E-05
586.8038,-3.827834E-05
586.9037,-3.824915E-05
587.0037,-3.82774E-05
587.1037,-3.826328E-05
587.2037,-3.824444E-05
587.3036,-3.824727E-05
587.4036,-3.82209E-05
587.5036,-3.822843E-05
587.6036,-3.824256E-05
587.7036,-3.821054E-05
587.8035,-3.819924E-05
587.9035,-3.821619E-05
588.0035,-3.820206E-05
588.1035,-3.821525E-05
588.2034,-3.821054E-05
588.3034,-3.819265E-05
588.4034,-3.821619E-05
588.5034,-3.822749E-05
588.6033,-3.821148E-05
588.7033,-3.815498E-05
588.8033,-3.815498E-05
588.9033,-3.816063E-05
589.0032,-3.817475E-05
589.1032,-3.814838E-05
589.2032,-3.813049E-05
589.3032,-3.812579E-05
589.4031,-3.813332E-05
589.5031,-3.811919E-05
589.6031,-3.811637E-05
589.7031,-3.810601E-05
589.803,-3.806834E-05
589.903,-3.807681E-05
590.003,-3.806928E-05
590.103,-3.807022E-05
590.2029,-3.807776E-05
590.3029,-3.807022E-05
590.4029,-3.803349E-05
590.5029,-3.805892E-05
590.6028,-3.804291E-05
590.7028,-3.803443E-05
590.8028,-3.803443E-05
590.9028,-3.802879E-05
591.0027,-3.798923E-05
591.1027,-3.80156E-05
591.2027,-3.799583E-05
591.3027,-3.798452E-05
591.4026,-3.7993E-05
591.5026,-3.79704E-05
591.6026,-3.796098E-05
591.7026,-3.798452E-05
591.8026,-3.797699E-05
591.9025,-3.795251E-05
592.0025,-3.796192E-05
592.1025,-3.794214E-05
592.2025,-3.79412E-05
592.3024,-3.794591E-05
592.4024,-3.791484E-05
592.5024,-3.791954E-05
592.6024,-3.79252E-05
592.7023,-3.791201E-05
592.8023,-3.79186E-05
592.9023,-3.790919E-05
593.0023,-3.788282E-05
593.1022,-3.788847E-05
593.2022,-3.788564E-05
593.3022,-3.786492E-05
593.4022,-3.78621E-05
593.5021,-3.786492E-05
593.6021,-3.786398E-05
593.7021,-3.785551E-05
593.8021,-3.784609E-05
593.902,-3.78395E-05
594.002,-3.785362E-05
594.102,-3.782819E-05
594.202,-3.780842E-05
594.3019,-3.784891E-05
594.4019,-3.781501E-05
594.5019,-3.779806E-05
594.6019,-3.781596E-05
594.7018,-3.779053E-05
594.8018,-3.779523E-05
594.9018,-3.780559E-05
595.0018,-3.776322E-05
595.1017,-3.777075E-05
595.2017,-3.779523E-05
595.3017,-3.780653E-05
595.4017,-3.777264E-05
595.5016,-3.775568E-05
595.6016,-3.773967E-05
595.7016,-3.776133E-05
595.8016,-3.776227E-05
595.9016,-3.773967E-05
596.0015,-3.772555E-05
596.1015,-3.772366E-05
596.2015,-3.776322E-05
596.3015,-3.773685E-05
596.4014,-3.772743E-05
596.5014,-3.770107E-05
596.6014,-3.77199E-05
596.7014,-3.770766E-05
596.8013,-3.77246E-05
596.9013,-3.772272E-05
597.0013,-3.77133E-05
597.1013,-3.771895E-05
597.2012,-3.770389E-05
597.3012,-3.7686E-05
597.4012,-3.770201E-05
597.5012,-3.769824E-05
597.6011,-3.768976E-05
597.7011,-3.768034E-05
597.8011,-3.76907E-05
597.9011,-3.766716E-05
598.001,-3.767564E-05
598.101,-3.766716E-05
598.201,-3.763232E-05
598.301,-3.763326E-05
598.4009,-3.76455E-05
598.5009,-3.764362E-05
598.6009,-3.761065E-05
598.7009,-3.761819E-05
598.8008,-3.762478E-05
598.9008,-3.762855E-05
599.0008,-3.7605E-05
599.1008,-3.759841E-05
599.2007,-3.757958E-05
599.3007,-3.7589E-05
599.4007,-3.76003E-05
599.5007,-3.756451E-05
599.6006,-3.756263E-05
599.7006,-3.756357E-05
599.8006,-3.75372E-05
599.9006,-3.755886E-05
600.0005,-3.754568E-05
