EXPID. 1169
[电化学]: CV : 0 >> 0.7 >> 0 >> 0(V) @ 0.01(V/s) X 10(Seg)
起始电位 (V),0
上限电位 (V),0.7
下限电位 (V),0
终止电位 (V),0
扫速 (V/s),0.01
电解液 信息:
KOH,1
0.001,3.373198E-07
0.002,1.088363E-06
0.003,1.630954E-06
0.004,2.185806E-06
0.005,2.630301E-06
0.006,3.034944E-06
0.007,3.467177E-06
0.008,3.83197E-06
0.009,4.123191E-06
0.01,4.518638E-06
0.011,4.831317E-06
0.012,5.171586E-06
0.013,5.475069E-06
0.014,5.7387E-06
0.015,6.036052E-06
0.016,6.367124E-06
0.017,6.624624E-06
0.018,6.91278E-06
0.019,7.115102E-06
0.02,7.443108E-06
0.021,7.6393E-06
0.022,7.961175E-06
0.023,8.218675E-06
0.024,8.427128E-06
0.025,8.678498E-06
0.026,8.963588E-06
0.027,9.156714E-06
0.028,9.460196E-06
0.029,9.677845E-06
0.03,9.913887E-06
0.031,1.017445E-05
0.032,1.041356E-05
0.033,1.052698E-05
0.034,1.081207E-05
0.035,1.095308E-05
0.036,1.123817E-05
0.037,1.14221E-05
0.038,1.158151E-05
0.039,1.180529E-05
0.04,1.202294E-05
0.041,1.226818E-05
0.042,1.243984E-05
0.043,1.261458E-05
0.044,1.285062E-05
0.045,1.297017E-05
0.046,1.313264E-05
0.047,1.340854E-05
0.048,1.362619E-05
0.049,1.381931E-05
0.05,1.40952E-05
0.051,1.426994E-05
0.052,1.452437E-05
0.053,1.475428E-05
0.054,1.501792E-05
0.055,1.526622E-05
0.056,1.54992E-05
0.057,1.56494E-05
0.058,1.593143E-05
0.059,1.610616E-05
0.06,1.629929E-05
0.061,1.657825E-05
0.062,1.674378E-05
0.063,1.697063E-05
0.064,1.719441E-05
0.065,1.745804E-05
0.066,1.762664E-05
0.067,1.783203E-05
0.068,1.812325E-05
0.069,1.83317E-05
0.07,1.854322E-05
0.071,1.878539E-05
0.072,1.901837E-05
0.073,1.924828E-05
0.074,1.953031E-05
0.075,1.973263E-05
0.076,2.000545E-05
0.077,2.026296E-05
0.078,2.045302E-05
0.079,2.071971E-05
0.08,2.098028E-05
0.081,2.117647E-05
0.082,2.150141E-05
0.083,2.166388E-05
0.084,2.198269E-05
0.085,2.223406E-05
0.086,2.246091E-05
0.087,2.278278E-05
0.088,2.299737E-05
0.089,2.323647E-05
0.09,2.353383E-05
0.091,2.3776E-05
0.092,2.414386E-05
0.093,2.477027E-05
0.094,2.498485E-05
0.095,2.535271E-05
0.096,2.556729E-05
0.097,2.581253E-05
0.098,2.618039E-05
0.099,2.639497E-05
0.1,2.679348E-05
0.101,2.706938E-05
0.102,2.734527E-05
0.103,2.768247E-05
0.104,2.795837E-05
0.105,2.829557E-05
0.106,2.863277E-05
0.107,2.890867E-05
0.108,2.927653E-05
0.109,2.961373E-05
0.11,2.992028E-05
0.111,3.031879E-05
0.112,3.065599E-05
0.113,3.102385E-05
0.114,3.142237E-05
0.115,3.175957E-05
0.116,3.215808E-05
0.117,3.252594E-05
0.118,3.289379E-05
0.119,3.335362E-05
0.12,3.375213E-05
0.121,3.408933E-05
0.122,3.454915E-05
0.123,3.482505E-05
0.124,3.540749E-05
0.125,3.577535E-05
0.126,3.614321E-05
0.127,3.663368E-05
0.128,3.703219E-05
0.129,3.746136E-05
0.13,3.795184E-05
0.131,3.835035E-05
0.132,3.887149E-05
0.133,3.939262E-05
0.134,3.979113E-05
0.135,4.025095E-05
0.136,4.080274E-05
0.137,4.129322E-05
0.138,4.181435E-05
0.139,4.227417E-05
0.14,4.294858E-05
0.141,4.343905E-05
0.142,4.399084E-05
0.143,4.457328E-05
0.144,4.506376E-05
0.145,4.56462E-05
0.146,4.622864E-05
0.147,4.678043E-05
0.148,4.748549E-05
0.149,4.806793E-05
0.15,4.861972E-05
0.151,4.935544E-05
0.152,4.996853E-05
0.153,5.058163E-05
0.154,5.131734E-05
0.155,5.193044E-05
0.156,5.266616E-05
0.157,5.337122E-05
0.158,5.404562E-05
0.159,5.481199E-05
0.16,5.554771E-05
0.161,5.634474E-05
0.162,5.720307E-05
0.163,5.796944E-05
0.164,5.885843E-05
0.165,5.971677E-05
0.166,6.05751E-05
0.167,6.155606E-05
0.168,6.244505E-05
0.169,6.339535E-05
0.17,6.440695E-05
0.171,6.538791E-05
0.172,6.646083E-05
0.173,6.759506E-05
0.174,6.863732E-05
0.175,6.983286E-05
0.176,7.093643E-05
0.177,7.216263E-05
0.178,7.345013E-05
0.179,7.458436E-05
0.18,7.599447E-05
0.181,7.725132E-05
0.182,7.856948E-05
0.183,8.004092E-05
0.184,8.142038E-05
0.185,8.289181E-05
0.186,8.445521E-05
0.187,8.589599E-05
0.188,8.752069E-05
0.189,8.911475E-05
0.19,9.067814E-05
0.191,9.239481E-05
0.192,9.411148E-05
0.193,9.573618E-05
0.194,9.757547E-05
0.195,9.926149E-05
0.196,0.0001011621
0.197,0.0001030014
0.198,0.0001048713
0.199,0.0001067413
0.2,0.0001087338
0.201,0.0001106651
0.202,0.0001127189
0.203,0.0001147422
0.204,0.000116888
0.205,0.0001190032
0.206,0.0001211184
0.207,0.0001234481
0.208,0.0001255633
0.209,0.0001277398
0.21,0.0001300389
0.211,0.0001323074
0.212,0.0001347598
0.213,0.0001370895
0.214,0.000139358
0.215,0.0001417797
0.216,0.0001441401
0.217,0.0001465312
0.218,0.0001491062
0.219,0.0001514667
0.22,0.000154103
0.221,0.0001565247
0.222,0.0001590384
0.223,0.000161644
0.224,0.0001642497
0.225,0.0001667634
0.226,0.000169461
0.227,0.000172128
0.228,0.0001748869
0.229,0.0001774313
0.23,0.0001800676
0.231,0.0001829185
0.232,0.0001855855
0.233,0.0001883444
0.234,0.0001912566
0.235,0.0001939236
0.236,0.0001969584
0.237,0.00019984
0.238,0.0002026909
0.239,0.0002057257
0.24,0.0002086686
0.241,0.0002116727
0.242,0.0002147995
0.243,0.000217773
0.244,0.0002209612
0.245,0.0002239653
0.246,0.0002269388
0.247,0.0002301882
0.248,0.000233407
0.249,0.0002364418
0.25,0.0002397526
0.251,0.0002429407
0.252,0.0002463433
0.253,0.0002498073
0.254,0.0002531794
0.255,0.0002567966
0.256,0.00026023
0.257,0.0002639086
0.258,0.0002676178
0.259,0.0002709898
0.26,0.0002748217
0.261,0.0002784696
0.262,0.0002820869
0.263,0.0002862559
0.264,0.0002936849
0.265,0.0002973635
0.266,0.0003016552
0.267,0.0003056403
0.268,0.000309932
0.269,0.0003142237
0.27,0.0003182088
0.271,0.000322807
0.272,0.0003270987
0.273,0.0003320035
0.274,0.0003369082
0.275,0.0003415065
0.276,0.0003464112
0.277,0.000351316
0.278,0.0003562208
0.279,0.0003614321
0.28,0.0003666434
0.281,0.0003721613
0.282,0.0003776792
0.283,0.000383197
0.284,0.0003896345
0.285,0.0003954589
0.286,0.0004012834
0.287,0.0004074143
0.288,0.0004138518
0.289,0.0004202893
0.29,0.0004270334
0.291,0.0004337775
0.292,0.0004414412
0.293,0.0004481853
0.294,0.000455849
0.295,0.0004638192
0.296,0.0004711764
0.297,0.0004791466
0.298,0.00048773
0.299,0.0004957002
0.3,0.0005048967
0.301,0.0005137866
0.302,0.0005226765
0.303,0.0005327926
0.304,0.0005422956
0.305,0.0005524117
0.306,0.0005631408
0.307,0.0005744831
0.308,0.0005855189
0.309,0.0005965546
0.31,0.00060851
0.311,0.0006207719
0.312,0.0006330339
0.313,0.0006462154
0.314,0.0006597036
0.315,0.0006728852
0.316,0.000687906
0.317,0.0007023137
0.318,0.0007176412
0.319,0.0007341948
0.32,0.0007504418
0.321,0.000767302
0.322,0.0007856949
0.323,0.0008031682
0.324,0.0008227873
0.325,0.0008420998
0.326,0.0008623319
0.327,0.0008840969
0.328,0.0009055553
0.329,0.0009282398
0.33,0.0009527637
0.331,0.0009766745
0.332,0.001003038
0.333,0.001029401
0.334,0.00105699
0.335,0.001086112
0.336,0.001115847
0.337,0.001147115
0.338,0.001179609
0.339,0.001213636
0.34,0.001250115
0.341,0.001286288
0.342,0.001324913
0.343,0.001365684
0.344,0.001406762
0.345,0.001451518
0.346,0.001497807
0.347,0.001544402
0.348,0.001596209
0.349,0.001648015
0.35,0.001702274
0.351,0.001761131
0.352,0.001820602
0.353,0.001883751
0.354,0.001950885
0.355,0.002018939
0.356,0.002093737
0.357,0.002168534
0.358,0.002248543
0.359,0.002333457
0.36,0.002418678
0.361,0.002510642
0.362,0.002606285
0.363,0.002704381
0.364,0.00281014
0.365,0.002916205
0.366,0.003027482
0.367,0.003175956
0.368,0.003289379
0.369,0.003411999
0.37,0.003534618
0.371,0.003660303
0.372,0.003792119
0.373,0.003917804
0.374,0.004046554
0.375,0.004178369
0.376,0.004300989
0.377,0.004426674
0.378,0.004546227
0.379,0.004662716
0.38,0.004779204
0.381,0.004886496
0.382,0.004990723
0.383,0.005085752
0.384,0.005177717
0.385,0.005266616
0.386,0.005349384
0.387,0.005429087
0.388,0.005499593
0.389,0.005563968
0.39,0.005625277
0.391,0.005680456
0.392,0.005726438
0.393,0.005772421
0.394,0.005809206
0.395,0.005842926
0.396,0.005879712
0.397,0.005904236
0.398,0.005931825
0.399,0.005953284
0.4,0.005971677
0.401,0.005993135
0.402,0.006008463
0.403,0.00602379
0.404,0.006042183
0.405,0.006054445
0.406,0.006069772
0.407,0.0060851
0.408,0.006097361
0.409,0.006115754
0.41,0.006131082
0.411,0.006143344
0.412,0.006155606
0.413,0.006167868
0.414,0.006180129
0.415,0.006192391
0.416,0.006207719
0.417,0.006219981
0.418,0.006229177
0.419,0.006241439
0.42,0.006253701
0.421,0.006265963
0.422,0.006278225
0.423,0.006290487
0.424,0.006299683
0.425,0.006311945
0.426,0.006321141
0.427,0.006330338
0.428,0.0063426
0.429,0.006348731
0.43,0.006357928
0.431,0.00637019
0.432,0.006373255
0.433,0.006385517
0.434,0.006388582
0.435,0.006391648
0.436,0.00640391
0.437,0.006406975
0.438,0.006410041
0.439,0.006419237
0.44,0.006416172
0.441,0.006419237
0.442,0.006425368
0.443,0.006422303
0.444,0.006425368
0.445,0.006422303
0.446,0.006422303
0.447,0.006419237
0.448,0.006416172
0.449,0.006413106
0.45,0.006406975
0.451,0.006400844
0.452,0.006397779
0.453,0.006385517
0.454,0.006382451
0.455,0.006373255
0.456,0.006360993
0.457,0.006357928
0.458,0.006345665
0.459,0.006333403
0.46,0.006324207
0.461,0.006311945
0.462,0.006296618
0.463,0.006287422
0.464,0.006272094
0.465,0.006259832
0.466,0.00624757
0.467,0.006235308
0.468,0.006223046
0.469,0.006207719
0.47,0.006195457
0.471,0.00618626
0.472,0.006170933
0.473,0.006167868
0.474,0.006155606
0.475,0.006149475
0.476,0.00614641
0.477,0.006140279
0.478,0.006140279
0.479,0.006140279
0.48,0.006143344
0.481,0.006149475
0.482,0.006158671
0.483,0.006167868
0.484,0.006189326
0.485,0.006204653
0.486,0.006232243
0.487,0.006262898
0.488,0.006296618
0.489,0.006339534
0.49,0.006388582
0.491,0.00643763
0.492,0.006502005
0.493,0.006572511
0.494,0.006643017
0.495,0.006731917
0.496,0.006820816
0.497,0.006925041
0.498,0.007038464
0.499,0.007154953
0.5,0.007286769
0.501,0.007424715
0.502,0.007568793
0.503,0.007731264
0.504,0.007899866
0.505,0.008074597
0.506,0.008264658
0.507,0.008460849
0.508,0.008666236
0.509,0.008880819
0.51,0.009107665
0.511,0.009337576
0.512,0.009585881
0.513,0.00983725
0.514,0.01009168
0.515,0.01035838
0.516,0.01063428
0.517,0.01091017
0.518,0.01120139
0.519,0.01149568
0.52,0.01178996
0.521,0.01210264
0.522,0.01240919
0.523,0.01272187
0.524,0.01304988
0.525,0.01337175
0.526,0.01370282
0.527,0.01404309
0.528,0.01437723
0.529,0.01472363
0.53,0.01507309
0.531,0.01542256
0.532,0.01577815
0.533,0.01613375
0.534,0.01649854
0.535,0.01686027
0.536,0.01722506
0.537,0.01759599
0.538,0.01796691
0.539,0.01834396
0.54,0.01872715
0.541,0.01909807
0.542,0.01948432
0.543,0.01986444
0.544,0.02025376
0.545,0.02064921
0.546,0.02102933
0.547,0.02142477
0.548,0.02182942
0.549,0.02221567
0.55,0.02261725
0.551,0.02302189
0.552,0.02341427
0.553,0.02381892
0.554,0.02422663
0.555,0.02462514
0.556,0.02503591
0.557,0.02544669
0.558,0.02585133
0.559,0.02626517
0.56,0.02667901
0.561,0.02708366
0.562,0.02750056
0.563,0.02792053
0.564,0.02833744
0.565,0.02875128
0.566,0.02917431
0.567,0.02959122
0.568,0.03000813
0.569,0.03120778
0.57,0.03160629
0.571,0.03203546
0.572,0.03246463
0.573,0.0328938
0.574,0.03332296
0.575,0.03378279
0.576,0.03421196
0.577,0.03461047
0.578,0.03507029
0.579,0.03549946
0.58,0.03592863
0.581,0.03635779
0.582,0.03678696
0.583,0.03724678
0.584,0.03767595
0.585,0.03813577
0.586,0.03856494
0.587,0.03902476
0.588,0.03945393
0.589,0.0398831
0.59,0.04031226
0.591,0.04077209
0.592,0.04120126
0.593,0.04166108
0.594,0.0421209
0.595,0.04255007
0.596,0.04300989
0.597,0.04343906
0.598,0.04389888
0.599,0.0443587
0.6,0.04478787
0.601,0.04524769
0.602,0.04570751
0.603,0.04613668
0.604,0.0465965
0.605,0.04705633
0.606,0.04748549
0.607,0.04797597
0.608,0.04840514
0.609,0.04886496
0.61,0.04932478
0.611,0.0497846
0.612,0.05021377
0.613,0.05067359
0.614,0.05113342
0.615,0.05159324
0.616,0.05205306
0.617,0.05251288
0.618,0.0529727
0.619,0.05343253
0.62,0.05389235
0.621,0.05435218
0.622,0.054812
0.623,0.05524116
0.624,0.05573164
0.625,0.05616081
0.626,0.05662064
0.627,0.05708046
0.628,0.05757093
0.629,0.05803075
0.63,0.05849057
0.631,0.0589504
0.632,0.05941022
0.633,0.05983939
0.634,0.06032987
0.635,0.06078969
0.636,0.06124951
0.637,0.06170933
0.638,0.06219981
0.639,0.06262898
0.64,0.06311946
0.641,0.06357928
0.642,0.0640391
0.643,0.06449892
0.644,0.06495874
0.645,0.06541856
0.646,0.06590905
0.647,0.06636887
0.648,0.06682869
0.649,0.06728851
0.65,0.06774833
0.651,0.06820816
0.652,0.06869864
0.653,0.06915846
0.654,0.06964894
0.655,0.07010876
0.656,0.07056858
0.657,0.0710284
0.658,0.07148822
0.659,0.07194804
0.66,0.07243852
0.661,0.072929
0.662,0.07335817
0.663,0.07384864
0.664,0.07430847
0.665,0.07476829
0.666,0.07528942
0.667,0.07571859
0.668,0.07620906
0.669,0.07669955
0.67,0.07715937
0.671,0.07761919
0.672,0.07807901
0.673,0.07853883
0.674,0.07902931
0.675,0.07948913
0.676,0.07994895
0.677,0.08043943
0.678,0.08092991
0.679,0.08135908
0.68,0.08184955
0.681,0.08234003
0.682,0.0827692
0.683,0.08325968
0.684,0.0837195
0.685,0.08417932
0.686,0.0846698
0.687,0.08516028
0.688,0.08558945
0.689,0.08611058
0.69,0.08660105
0.691,0.08703022
0.692,0.0875207
0.693,0.08801118
0.694,0.088471
0.695,0.08893082
0.696,0.08942129
0.697,0.08988111
0.698,0.0903716
0.699,0.09083142
0.7,0.09098469
0.6990001,0.09049422
0.6980001,0.09003439
0.6970001,0.08957457
0.6960001,0.08911475
0.6950001,0.08865493
0.6940001,0.08816445
0.6930001,0.08773528
0.6920001,0.08721415
0.6910001,0.08678498
0.6900001,0.08632516
0.6890001,0.08583468
0.6880001,0.08537485
0.6870001,0.08491503
0.6860001,0.08445521
0.6850001,0.08396474
0.6840001,0.08353557
0.6830001,0.08307575
0.6820001,0.08258527
0.6810001,0.08215611
0.6800001,0.08169628
0.6790001,0.08120581
0.6780001,0.08077663
0.6770001,0.08031681
0.6760001,0.07982634
0.6750001,0.07939716
0.6740001,0.07890669
0.6730001,0.07847752
0.6720001,0.0780177
0.6710001,0.07752723
0.6700001,0.07709806
0.6690001,0.07663824
0.6680001,0.07614776
0.6670001,0.07571859
0.6660001,0.07525877
0.6650001,0.07476829
0.6640001,0.07433912
0.6630001,0.07387929
0.6620001,0.07338882
0.6610001,0.07299031
0.6600001,0.07249983
0.6590001,0.07207067
0.6580001,0.07161084
0.6570001,0.07115102
0.6560001,0.0706912
0.6550001,0.07026203
0.6540001,0.06977155
0.6530001,0.06931173
0.6520001,0.06888256
0.6510001,0.06839209
0.6500001,0.06796291
0.6490001,0.06750309
0.6480001,0.06704327
0.6470001,0.06658345
0.6460001,0.06612363
0.6450001,0.06566381
0.6440001,0.06523464
0.6430001,0.06477482
0.6420001,0.06431499
0.6410001,0.06385517
0.6400001,0.06339534
0.6390001,0.06293552
0.6380001,0.06250636
0.6370001,0.06204654
0.6360001,0.06158672
0.6350001,0.06112689
0.6340001,0.06066707
0.6330001,0.06020725
0.6320001,0.05977808
0.6310001,0.05931826
0.6300001,0.05885844
0.6290001,0.05839861
0.6280001,0.05793879
0.6270001,0.05750962
0.6260001,0.0570498
0.6250001,0.05658998
0.6240001,0.05616081
0.6230001,0.05570099
0.6220001,0.05524116
0.6210001,0.05478134
0.6200001,0.05435218
0.6190001,0.05389235
0.6180001,0.05343253
0.6170001,0.05300336
0.6160001,0.05254354
0.6150001,0.05208372
0.6140001,0.05162389
0.6130001,0.05116407
0.6120001,0.05073491
0.6110001,0.05030574
0.6100001,0.04984592
0.6090001,0.04941675
0.6080001,0.04898758
0.6070001,0.0484971
0.6060001,0.04809859
0.6050001,0.04763877
0.6040001,0.04717895
0.6030001,0.04674978
0.6020001,0.04632061
0.6010001,0.04586079
0.6000001,0.04543162
0.5990001,0.0449718
0.5980001,0.04454263
0.5970001,0.04411346
0.5960001,0.04365364
0.5950001,0.04322447
0.5940001,0.0427953
0.5930001,0.04233548
0.5920001,0.04190632
0.5910001,0.04147715
0.5900001,0.04104798
0.5890001,0.04061881
0.5880001,0.04018965
0.5870001,0.03976048
0.5860001,0.03933131
0.5850001,0.03890214
0.5840001,0.03847298
0.5830001,0.03801315
0.5820001,0.03761464
0.5810001,0.03715482
0.5800001,0.03672565
0.5790001,0.03632713
0.5780001,0.03589797
0.5770001,0.0354688
0.5760001,0.03503963
0.5750001,0.03461047
0.5740001,0.03421196
0.5730001,0.03378279
0.5720001,0.03335362
0.5710001,0.03295511
0.5700001,0.03252594
0.5690001,0.03209677
0.5680001,0.03169826
0.5670001,0.03126909
0.5660001,0.03083992
0.5650001,0.03044141
0.5640001,0.03001224
0.5630001,0.02961373
0.5620001,0.02921522
0.5610001,0.02878605
0.5600001,0.02838754
0.5590001,0.02798902
0.5580001,0.02755986
0.5570001,0.02716134
0.5560001,0.02676283
0.5550001,0.02636432
0.5540001,0.02593515
0.5530001,0.02556729
0.5520001,0.02513812
0.5510001,0.02473961
0.5500001,0.0243411
0.5490001,0.02397324
0.5480001,0.02357473
0.5470001,0.02317622
0.5460001,0.0227777
0.5450001,0.02237919
0.5440001,0.02198068
0.5430001,0.02161282
0.5420001,0.02121431
0.5410001,0.02084645
0.5400001,0.02044794
0.5390001,0.02008008
0.5380001,0.01968157
0.5370001,0.01931371
0.5360001,0.01894585
0.5350001,0.01857799
0.5340001,0.01821013
0.5330001,0.01784228
0.5320001,0.01747442
0.5310001,0.01710656
0.5300001,0.0167387
0.5290001,0.01637085
0.5280001,0.01600299
0.5270001,0.01566578
0.5260001,0.01532858
0.5250001,0.01493007
0.5240001,0.01459287
0.5230001,0.01425566
0.5220001,0.0138878
0.5210001,0.0135506
0.5200001,0.0132134
0.5190001,0.01237854
0.5180001,0.01205053
0.5170001,0.01172252
0.5160001,0.01139145
0.5150001,0.01107571
0.5140001,0.01075383
0.5130001,0.01043195
0.5120001,0.01011621
0.5110001,0.00980353
0.5100001,0.009493916
0.5090001,0.009193499
0.5080001,0.008890016
0.5070001,0.00859573
0.5060001,0.008295313
0.5050001,0.008010223
0.5040001,0.007722067
0.5030001,0.007436977
0.5020001,0.007161084
0.5010001,0.006882125
0.5000001,0.006612363
0.4990001,0.006345665
0.4980001,0.006082034
0.4970001,0.005824534
0.4960001,0.005570099
0.4950001,0.005315664
0.4940001,0.005073491
0.4930001,0.004834383
0.4920001,0.004595275
0.4910001,0.00436843
0.4900001,0.004138518
0.4890001,0.003917804
0.4880001,0.00370322
0.4870001,0.003488636
0.4860001,0.003286314
0.4850001,0.003083992
0.4840001,0.002887801
0.4830001,0.002697741
0.4820001,0.002510747
0.4810001,0.002329884
0.4800001,0.002155151
0.4790001,0.001983484
0.4780001,0.001821013
0.4770001,0.001664674
0.4760001,0.001505269
0.4750001,0.001361191
0.4740001,0.001217113
0.4730001,0.001042276
0.4720001,0.0009135255
0.4710001,0.0007826294
0.4700001,0.0006603167
0.4690001,0.0005429087
0.4680001,0.0004279531
0.4670001,0.0003185153
0.4660001,0.0002139824
0.4650001,0.0001149673
0.4640001,2.055041E-05
0.4630001,-7.85365E-05
0.4620001,-0.0001625001
0.4610001,-0.0002472913
0.4600001,-0.0003277296
0.4590001,-0.000397888
0.4580001,-0.0004708465
0.4570001,-0.0005392068
0.4560001,-0.0006005164
0.4550001,-0.0006658112
0.4540001,-0.0007231357
0.4530001,-0.0007777013
0.4520001,-0.0008341062
0.4510001,-0.000881008
0.4500001,-0.0009291361
0.4490001,-0.0009763446
0.4480001,-0.001018955
0.4470001,-0.001062485
0.4460001,-0.001099271
0.4450001,-0.00113575
0.4440001,-0.001172536
0.4430001,-0.001204417
0.4420001,-0.001238443
0.4410001,-0.001269405
0.4400001,-0.001296688
0.4390001,-0.001327036
0.4380001,-0.001351253
0.4370001,-0.001377923
0.4360001,-0.001404899
0.4350001,-0.001424212
0.4340001,-0.001448429
0.4330001,-0.001470807
0.4320001,-0.001489813
0.4310001,-0.001513724
0.4300001,-0.001531197
0.4290001,-0.001549896
0.4280001,-0.001571661
0.4270001,-0.001585763
0.4260001,-0.001604156
0.4250001,-0.001622242
0.4240001,-0.001636956
0.4230001,-0.001655656
0.4220001,-0.001671596
0.4210001,-0.001686004
0.4200001,-0.001701944
0.4190001,-0.001713593
0.4180001,-0.001730147
0.4170001,-0.001744248
0.4160001,-0.001757123
0.4150001,-0.001772757
0.4140001,-0.001784406
0.4130001,-0.001797587
0.4120001,-0.001813221
0.4110001,-0.001823031
0.4100001,-0.001842037
0.4090001,-0.00185951
0.4080001,-0.001865948
0.4070001,-0.001879742
0.4060001,-0.001889245
0.4050001,-0.001899975
0.4040001,-0.001913156
0.4030001,-0.001924192
0.4020001,-0.001936147
0.4010001,-0.001946877
0.4000001,-0.00195638
0.3990001,-0.001970787
0.3980001,-0.001979984
0.3970001,-0.001992552
0.3960001,-0.002004508
0.3950001,-0.002011864
0.3940001,-0.002025046
0.3930001,-0.002034856
0.3920001,-0.002041906
0.3910001,-0.002056008
0.3900001,-0.002066124
0.3890001,-0.002074707
0.3880001,-0.002086356
0.3870001,-0.002094939
0.3860001,-0.002105362
0.3850001,-0.002115784
0.3840001,-0.002122528
0.3830001,-0.002133258
0.3820001,-0.002142148
0.3810001,-0.002151651
0.3800001,-0.002161154
0.3790001,-0.002167898
0.3780001,-0.002178933
0.3770001,-0.002187517
0.3760001,-0.002193954
0.3750001,-0.00220499
0.3740001,-0.002210508
0.3730001,-0.002219091
0.3720001,-0.002229514
0.3710001,-0.002234419
0.3700001,-0.002243309
0.3690001,-0.002251279
0.3680001,-0.002255264
0.3670001,-0.002264461
0.3660001,-0.002269978
0.3650001,-0.002277029
0.3640001,-0.002285306
0.3630001,-0.002288065
0.3620001,-0.002295115
0.3610001,-0.002301246
0.3600001,-0.002304925
0.3590001,-0.002311975
0.3580001,-0.002317493
0.3570001,-0.002321785
0.3560001,-0.002327303
0.3550001,-0.002328836
0.3540001,-0.002333127
0.3530001,-0.002338032
0.3520001,-0.002339871
0.3510001,-0.002345696
0.3500001,-0.002347842
0.3490001,-0.002348761
0.3480001,-0.002353359
0.3470001,-0.002353666
0.3460001,-0.002356425
0.3450001,-0.00235949
0.3440001,-0.002358571
0.3430001,-0.00236041
0.3420001,-0.002360103
0.3410001,-0.00235949
0.3400001,-0.00236041
0.3390001,-0.00235949
0.3380001,-0.002358877
0.3370001,-0.002357038
0.3360001,-0.002355199
0.3350001,-0.002355505
0.3340001,-0.002349987
0.3330001,-0.002347228
0.3320001,-0.002346309
0.3310001,-0.002338338
0.3300001,-0.002335886
0.3290001,-0.002332208
0.3280001,-0.002324851
0.3270001,-0.002322091
0.3260001,-0.002314734
0.3250001,-0.002308603
0.3240001,-0.002302779
0.3230001,-0.002292663
0.3220001,-0.002285919
0.3210001,-0.002277336
0.3200001,-0.002266913
0.3190001,-0.002259249
0.3180001,-0.002246374
0.3170001,-0.002235032
0.3160001,-0.002223996
0.3150001,-0.002209895
0.3140001,-0.002197633
0.3130001,-0.002183838
0.3120001,-0.002166671
0.3110001,-0.002152264
0.3100001,-0.002136017
0.3090001,-0.002117011
0.3080001,-0.00210107
0.3070001,-0.00208421
0.3060001,-0.002063058
0.3050001,-0.002042826
0.3040001,-0.002020142
0.3030001,-0.00199807
0.3020001,-0.001973853
0.3010001,-0.001950555
0.3000001,-0.001925725
0.2990001,-0.001898135
0.2980001,-0.001872385
0.2970001,-0.001844796
0.2960001,-0.001815674
0.2950001,-0.001788698
0.2940001,-0.001757123
0.2930001,-0.001725855
0.2920001,-0.001695507
0.2910001,-0.00166148
0.2900001,-0.001628986
0.2890001,-0.001595572
0.2880001,-0.001560932
0.2870001,-0.001527825
0.2860001,-0.001491959
0.2850001,-0.001457012
0.2840001,-0.001422985
0.2830001,-0.001386813
0.2820001,-0.001351866
0.2810001,-0.001317226
0.2800001,-0.001281667
0.2790001,-0.00124856
0.2780001,-0.001214533
0.2770001,-0.001180812
0.2760001,-0.001149544
0.2750001,-0.001117663
0.2740001,-0.001087009
0.2730001,-0.001057887
0.2720001,-0.001028458
0.2710001,-0.001001482
0.2700001,-0.0009745053
0.2690001,-0.0009490618
0.2680001,-0.000925151
0.2670001,-0.0009012403
0.2660001,-0.0008788622
0.2650001,-0.000858017
0.2640001,-0.0008371716
0.2630001,-0.0008184722
0.2620001,-0.0008000793
0.2610001,-0.0007822995
0.2600001,-0.000766359
0.2590001,-0.000750725
0.2580001,-0.0007357041
0.2570001,-0.0007216029
0.2560001,-0.0007078083
0.2550001,-0.0006949333
0.2540001,-0.0006826713
0.2530001,-0.0006707159
0.2520001,-0.0006593736
0.2510001,-0.0006483379
0.2500001,-0.0006379153
0.2490001,-0.0006284123
0.2480001,-0.0006182962
0.2470001,-0.0006094063
0.2460001,-0.000600823
0.2450001,-0.000591933
0.2440001,-0.0005842693
0.2430001,-0.0005762991
0.2420001,-0.0005686354
0.2410001,-0.0005615847
0.2400001,-0.0005542276
0.2390001,-0.0005474835
0.2380001,-0.000541046
0.2370001,-0.0005346085
0.2360001,-0.0005287841
0.2350001,-0.0005226531
0.2340001,-0.0005171353
0.2330001,-0.0005116174
0.2320001,-0.0005060995
0.2310001,-0.0005008882
0.2300001,-0.0004959835
0.2290001,-0.0004910787
0.2280001,-0.0004864805
0.2270001,-0.0004815757
0.2260001,-0.0004769774
0.2250001,-0.0004729923
0.2240001,-0.0004683941
0.2230001,-0.0004644089
0.2220001,-0.0004607304
0.2210001,-0.0004564387
0.2200001,-0.0004530667
0.2190001,-0.0004493881
0.2180001,-0.0004457095
0.2170001,-0.000442644
0.2160001,-0.0004389654
0.2150001,-0.0004355934
0.2140001,-0.0004325279
0.2130001,-0.0004291559
0.2120001,-0.000426397
0.2110001,-0.000423638
0.2100001,-0.0004205726
0.2090001,-0.0004178136
0.2080001,-0.0004147482
0.2070001,-0.0004122957
0.2060001,-0.0004095368
0.2050001,-0.0004070844
0.2040001,-0.0004043255
0.2030001,-0.0004018731
0.2020001,-0.0003994207
0.2010001,-0.0003972749
0.2000001,-0.0003948225
0.1990001,-0.0003926767
0.1980001,-0.0003902243
0.1970001,-0.0003880784
0.1960001,-0.0003862391
0.1950001,-0.0003840933
0.1940001,-0.0003819475
0.1930001,-0.0003801082
0.1920001,-0.0003779623
0.1910001,-0.0003761231
0.1900001,-0.0003742838
0.1890001,-0.0003724445
0.1880001,-0.0003709117
0.1870001,-0.0003690725
0.1860001,-0.0003672332
0.1850001,-0.0003657004
0.1840001,-0.0003635546
0.1830001,-0.0003623284
0.1820001,-0.0003604891
0.1810001,-0.0003589563
0.1800001,-0.0003574236
0.1790001,-0.0003558909
0.1780001,-0.0003543581
0.1770001,-0.0003531319
0.1760001,-0.0003512927
0.1750001,-0.0003500664
0.1740001,-0.0003488403
0.1730001,-0.0003473075
0.1720001,-0.0003460813
0.1710001,-0.0003448552
0.1700001,-0.0003433224
0.1690001,-0.0003420962
0.1680001,-0.00034087
0.1670001,-0.0003396438
0.1660001,-0.0003384176
0.1650001,-0.0003371914
0.1640001,-0.0003362718
0.1630001,-0.0003350456
0.1620001,-0.0003338194
0.1610001,-0.0003328998
0.1600001,-0.000331367
0.1590001,-0.0003304474
0.1580001,-0.0003295277
0.1570001,-0.0003283015
0.1560001,-0.0003273819
0.1550001,-0.0003264622
0.1540001,-0.000325236
0.1530001,-0.0003243164
0.1520001,-0.0003230902
0.1510001,-0.0003221706
0.1500001,-0.0003212509
0.1490001,-0.0003203313
0.1480001,-0.0003194116
0.1470001,-0.0003181854
0.1460001,-0.0003175724
0.1450001,-0.0003163462
0.1440001,-0.0003154265
0.1430001,-0.0003145068
0.1420001,-0.0003135872
0.1410001,-0.0003126676
0.1400001,-0.0003117479
0.1390001,-0.0003108283
0.1380001,-0.0003099086
0.1370001,-0.000308989
0.1360001,-0.0003080693
0.1350001,-0.0003074562
0.1340001,-0.00030623
0.1330001,-0.0003053104
0.1320001,-0.0003046973
0.1310001,-0.0003037777
0.1300001,-0.000302858
0.1290001,-0.0003019384
0.1280001,-0.0003010187
0.1270001,-0.0003000991
0.1260001,-0.000299486
0.1250001,-0.0002985664
0.1240001,-0.0002976467
0.1230001,-0.0002970336
0.1220001,-0.000296114
0.1210001,-0.0002951943
0.1200001,-0.0002942747
0.1190001,-0.000293355
0.1180001,-0.0002924354
0.1170001,-0.0002915157
0.1160001,-0.0002905961
0.1150001,-0.0002896764
0.1140001,-0.0002887568
0.1130001,-0.0002878372
0.1120001,-0.0002869175
0.1110001,-0.0002859978
0.1100001,-0.0002850782
0.1090001,-0.0002844651
0.1080001,-0.0002835455
0.1070001,-0.0002826258
0.1060001,-0.0002813996
0.1050001,-0.0002807866
0.1040001,-0.0002795603
0.1030001,-0.0002789472
0.1020001,-0.0002777211
0.1010001,-0.0002768014
0.1000001,-0.0002758818
0.0990001,-0.0002746556
0.09800009,-0.0002737359
0.09700009,-0.0002728163
0.0960001,-0.0002712836
0.0950001,-0.0002706705
0.09400009,-0.0002694443
0.0930001,-0.000268218
0.0920001,-0.0002672984
0.0910001,-0.0002660722
0.09000009,-0.0002648461
0.0890001,-0.0002636198
0.0880001,-0.0002623936
0.08700009,-0.0002611674
0.08600009,-0.0002599413
0.0850001,-0.0002587151
0.0840001,-0.0002574889
0.08300009,-0.0002559561
0.08200009,-0.0002547299
0.0810001,-0.0002535038
0.0800001,-0.000251971
0.07900009,-0.0002507448
0.0780001,-0.0002492121
0.0770001,-0.0002479859
0.07600009,-0.0002467597
0.07500009,-0.000245227
0.0740001,-0.0002440007
0.0730001,-0.0002427746
0.07200009,-0.0002412418
0.07100009,-0.0002400156
0.0700001,-0.0002387894
0.0690001,-0.0002375632
0.06800009,-0.0002366436
0.0670001,-0.0002354174
0.0660001,-0.0002341912
0.06500009,-0.0002332716
0.06400009,-0.0002320454
0.0630001,-0.0002308192
0.0620001,-0.0002298995
0.06100009,-0.0002286733
0.0600001,-0.0002280602
0.0590001,-0.0002268341
0.0580001,-0.0002259144
0.0570001,-0.0002249948
0.05600009,-0.0002237686
0.0550001,-0.0002228489
0.05400009,-0.0002219293
0.0530001,-0.0002210096
0.05200009,-0.00022009
0.0510001,-0.0002191703
0.05000009,-0.0002179441
0.0490001,-0.000217331
0.04800009,-0.0002161049
0.0470001,-0.0002151852
0.0460001,-0.0002142656
0.04500009,-0.0002133459
0.0440001,-0.0002124263
0.04300009,-0.0002115066
0.0420001,-0.000210587
0.04100009,-0.0002096674
0.0400001,-0.0002087477
0.03900009,-0.0002078281
0.0380001,-0.0002069084
0.03700009,-0.0002059888
0.0360001,-0.0002050691
0.0350001,-0.000204456
0.03400009,-0.0002035364
0.0330001,-0.0002026167
0.03200009,-0.0002013905
0.03100009,-0.0002007774
0.0300001,-0.0001998578
0.0290001,-0.0001989382
0.0280001,-0.0001980185
0.0270001,-0.0001970989
0.0260001,-0.0001961792
0.0250001,-0.0001952596
0.0240001,-0.0001943399
0.0230001,-0.0001934203
0.02200009,-0.0001928072
0.02100009,-0.000191581
0.02000009,-0.0001909679
0.0190001,-0.0001900483
0.0180001,-0.0001891286
0.0170001,-0.0001885155
0.0160001,-0.0001875959
0.0150001,-0.0001866762
0.0140001,-0.0001857566
0.0130001,-0.0001851435
0.0120001,-0.0001842238
0.01100009,-0.0001833042
0.0100001,-0.0001826911
0.009000096,-0.0001817715
0.008000095,-0.0001808518
0.007000095,-0.0001799322
0.006000096,-0.0001793191
0.005000095,-0.000178706
0.004000095,-0.0001777863
0.003000095,-0.0001768667
0.002000095,-0.0001762536
0.001000095,-0.0001756405
9.536743E-08,-0.0001713488
0.0009999046,-0.0001676702
0.001999905,-0.0001649113
0.002999905,-0.0001627655
0.003999905,-0.0001606196
0.004999904,-0.0001584738
0.005999905,-0.0001598944
0.006999905,-0.0001582391
0.007999904,-0.0001564917
0.008999905,-0.0001548364
0.009999905,-0.000153181
0.0109999,-0.0001516789
0.0119999,-0.0001501155
0.0129999,-0.0001486441
0.0139999,-0.0001472033
0.0149999,-0.0001458545
0.0159999,-0.0001445977
0.0169999,-0.0001432795
0.0179999,-0.0001419613
0.0189999,-0.0001407352
0.0199999,-0.0001394783
0.0209999,-0.0001382521
0.0219999,-0.0001370566
0.02299991,-0.000135953
0.02399991,-0.0001348801
0.02499991,-0.0001337152
0.02599991,-0.0001326423
0.0269999,-0.0001316613
0.0279999,-0.0001305271
0.0289999,-0.0001295155
0.0299999,-0.0001284732
0.0309999,-0.0001274923
0.0319999,-0.0001265726
0.0329999,-0.0001256223
0.0339999,-0.000124672
0.0349999,-0.0001238443
0.03599991,-0.000122894
0.0369999,-0.000122005
0.03799991,-0.0001211467
0.0389999,-0.0001201964
0.03999991,-0.0001193074
0.0409999,-0.0001184797
0.04199991,-0.0001176827
0.0429999,-0.000116855
0.0439999,-0.0001159967
0.0449999,-0.0001152303
0.0459999,-0.000114464
0.04699991,-0.0001136976
0.0479999,-0.0001129312
0.04899991,-0.0001121955
0.0499999,-0.0001114291
0.05099991,-0.0001106934
0.0519999,-0.0001099577
0.05299991,-0.000109222
0.0539999,-0.0001085476
0.0549999,-0.0001078732
0.0559999,-0.0001071988
0.0569999,-0.0001064017
0.05799991,-0.0001057886
0.0589999,-0.0001050836
0.05999991,-0.0001044398
0.0609999,-0.0001037348
0.06199991,-0.0001030604
0.0629999,-0.0001023247
0.06399991,-0.0001017729
0.06499991,-0.0001011598
0.0659999,-0.000100516
0.0669999,-9.996421E-05
0.06799991,-9.92285E-05
0.0689999,-9.870737E-05
0.0699999,-9.812493E-05
0.07099991,-9.745052E-05
0.07199991,-9.689873E-05
0.0729999,-9.63163E-05
0.0739999,-9.57032E-05
0.07499991,-9.518206E-05
0.07599991,-9.456897E-05
0.0769999,-9.404783E-05
0.0779999,-9.346539E-05
0.07899991,-9.291361E-05
0.0799999,-9.236182E-05
0.0809999,-9.184069E-05
0.08199991,-9.122759E-05
0.08299991,-9.073711E-05
0.0839999,-9.012402E-05
0.0849999,-8.960289E-05
0.08599991,-8.908175E-05
0.08699991,-8.856062E-05
0.0879999,-8.800883E-05
0.0889999,-8.751835E-05
0.08999991,-8.696657E-05
0.0909999,-8.650675E-05
0.0919999,-8.592431E-05
0.09299991,-8.546449E-05
0.09399991,-8.500466E-05
0.0949999,-8.448353E-05
0.0959999,-8.40237E-05
0.09699991,-8.353323E-05
0.09799991,-8.30121E-05
0.0989999,-8.261359E-05
0.0999999,-8.212311E-05
0.1009999,-8.169394E-05
0.1019999,-8.117281E-05
0.1029999,-8.071299E-05
0.1039999,-8.025316E-05
0.1049999,-7.976269E-05
0.1059999,-7.924155E-05
0.1069999,-7.887369E-05
0.1079999,-7.832191E-05
0.1089999,-7.777012E-05
0.1099999,-7.734096E-05
0.1109999,-7.688113E-05
0.1119999,-7.648263E-05
0.1129999,-7.605345E-05
0.1139999,-7.553232E-05
0.1149999,-7.510315E-05
0.1159999,-7.467398E-05
0.1169999,-7.421416E-05
0.1179999,-7.381565E-05
0.1189999,-7.329452E-05
0.1199999,-7.292666E-05
0.1209999,-7.252815E-05
0.1219999,-7.203767E-05
0.1229999,-7.170047E-05
0.1239999,-7.12713E-05
0.1249999,-7.081147E-05
0.1259999,-7.041297E-05
0.1269999,-6.995314E-05
0.1279999,-6.958529E-05
0.1289999,-6.912547E-05
0.1299999,-6.866564E-05
0.1309999,-6.826713E-05
0.1319999,-6.78073E-05
0.1329999,-6.737814E-05
0.1339999,-6.694897E-05
0.1349999,-6.645849E-05
0.1359999,-6.605998E-05
0.1369999,-6.572278E-05
0.1379999,-6.52323E-05
0.1389999,-6.483379E-05
0.1399999,-6.434331E-05
0.1409999,-6.397545E-05
0.1419999,-6.357694E-05
0.1429999,-6.311711E-05
0.1439999,-6.27186E-05
0.1449999,-6.228944E-05
0.1459999,-6.186026E-05
0.1469999,-6.14311E-05
0.1479999,-6.090997E-05
0.1489999,-6.051145E-05
0.1499999,-6.011295E-05
0.1509999,-5.965312E-05
0.1519999,-5.928526E-05
0.1529999,-5.88561E-05
0.1539999,-5.842693E-05
0.1549999,-5.796711E-05
0.1559999,-5.753794E-05
0.1569999,-5.704746E-05
0.1579999,-5.671026E-05
0.1589999,-5.621978E-05
0.1599999,-5.579061E-05
0.1609999,-5.533079E-05
0.1619999,-5.490162E-05
0.1629999,-5.447246E-05
0.1639999,-5.401264E-05
0.1649999,-5.352216E-05
0.1659999,-5.312365E-05
0.1669999,-5.263316E-05
0.1679999,-5.2204E-05
0.1689999,-5.171352E-05
0.1699999,-5.119239E-05
0.1709999,-5.079388E-05
0.1719999,-5.021143E-05
0.1729999,-4.972096E-05
0.1739999,-4.926114E-05
0.1749999,-4.877066E-05
0.1759999,-4.834149E-05
0.1769999,-4.791233E-05
0.1779999,-4.739119E-05
0.1789999,-4.696202E-05
0.1799999,-4.641024E-05
0.1809999,-4.598107E-05
0.1819999,-4.55519E-05
0.1829999,-4.503077E-05
0.1839999,-4.457095E-05
0.1849999,-4.404982E-05
0.1859999,-4.355934E-05
0.1869999,-4.313017E-05
0.1879999,-4.251707E-05
0.1889999,-4.196529E-05
0.1899999,-4.147481E-05
0.1909999,-4.095368E-05
0.1919999,-4.04632E-05
0.1929999,-3.997273E-05
0.1939999,-3.929832E-05
0.1949999,-3.886915E-05
0.1959999,-3.828671E-05
0.1969999,-3.767361E-05
0.1979999,-3.712183E-05
0.1989999,-3.650873E-05
0.1999999,-3.592629E-05
0.2009999,-3.53745E-05
0.2019999,-3.473075E-05
0.2029999,-3.4087E-05
0.2039999,-3.341259E-05
0.2049999,-3.273819E-05
0.2059999,-3.212509E-05
0.2069999,-3.142003E-05
0.2079999,-3.08989E-05
0.2089999,-3.025514E-05
0.2099999,-2.955008E-05
0.2109999,-2.896764E-05
0.2119999,-2.817062E-05
0.2129999,-2.761883E-05
0.2139999,-2.697508E-05
0.2149999,-2.617805E-05
0.2159999,-2.550365E-05
0.2169999,-2.476793E-05
0.2179999,-2.403222E-05
0.2189999,-2.335781E-05
0.2199999,-2.262209E-05
0.2209999,-2.179441E-05
0.2219999,-2.102804E-05
0.2229999,-2.020036E-05
0.2239999,-1.940334E-05
0.2249999,-1.8545E-05
0.2259999,-1.75947E-05
0.2269999,-1.682833E-05
0.2279999,-1.587803E-05
0.2289999,-1.508101E-05
0.2299999,-1.428398E-05
0.2309999,-1.324172E-05
0.2319999,-1.238338E-05
0.2329999,-1.143107E-05
0.2339999,-1.059726E-05
0.2349999,-9.772642E-06
0.2359999,-8.598562E-06
0.2369999,-7.596149E-06
0.2379999,-6.743945E-06
0.2389999,-5.545341E-06
0.2399999,-4.52147E-06
0.2409999,-3.522123E-06
0.2419999,-2.39096E-06
0.2429999,-1.364023E-06
0.2439999,-1.562229E-07
0.2449999,1.011726E-06
0.2459999,2.152085E-06
0.2469999,3.454915E-06
0.2479999,4.687239E-06
0.2489999,5.959414E-06
0.2499999,7.372602E-06
0.2509999,8.53442E-06
0.2519999,1.005183E-05
0.2529999,1.132401E-05
0.2539999,1.266362E-05
0.2549999,1.424541E-05
0.2559999,1.563714E-05
0.2569999,1.702274E-05
0.2579999,1.86781E-05
0.2589999,2.008008E-05
0.2599999,2.167413E-05
0.2609999,2.320687E-05
0.2619999,2.477027E-05
0.2629999,2.65789E-05
0.2639999,2.829557E-05
0.2649999,2.988962E-05
0.2659999,3.175957E-05
0.2669999,3.347624E-05
0.2679999,3.556077E-05
0.2689999,3.743071E-05
0.2699999,3.930065E-05
0.2709999,4.147715E-05
0.2719999,4.356167E-05
0.2729999,4.555424E-05
0.2739999,4.779204E-05
0.2749999,4.993788E-05
0.2759999,5.248223E-05
0.2769999,5.468938E-05
0.2779999,5.701914E-05
0.2789999,5.96248E-05
0.2799999,6.21385E-05
0.2809999,6.456023E-05
0.2819999,6.750309E-05
0.2829999,7.010875E-05
0.2839999,7.317423E-05
0.2849999,7.605579E-05
0.2859999,7.887604E-05
0.2869999,8.218676E-05
0.2879999,8.53442E-05
0.2889999,8.856296E-05
0.2899999,9.190433E-05
0.2909999,9.530702E-05
0.2919999,9.923083E-05
0.2929999,0.0001026642
0.2939999,0.000106588
0.2949999,0.000110757
0.2959999,0.0001145276
0.2969999,0.0001187273
0.2979999,0.0001229883
0.2989999,0.0001270041
0.2999999,0.0001320315
0.3009999,0.0001366297
0.3019999,0.0001410747
0.3029999,0.0001465312
0.3039999,0.000151344
0.3049999,0.0001566473
0.3059999,0.0001624717
0.3069999,0.0001684801
0.3079999,0.0001743352
0.3089999,0.0001803435
0.3099999,0.0001865664
0.3109999,0.0001933411
0.3119999,0.0002000546
0.3129999,0.0002070745
0.3139999,0.0002145237
0.3149999,0.0002215436
0.3159999,0.0002298817
0.3169999,0.0002379439
0.3179999,0.0002459755
0.3189999,0.000254988
0.3199999,0.0002641231
0.3209999,0.0002732889
0.3219999,0.000283497
0.3229999,0.0002933065
0.3239999,0.0003077862
0.3249999,0.0003182088
0.3259999,0.0003295511
0.3269999,0.000341813
0.3279999,0.0003540749
0.3289999,0.0003672565
0.3299999,0.0003810512
0.3309999,0.0003948459
0.3319999,0.0004104798
0.3329999,0.0004255007
0.3339999,0.0004414412
0.3349999,0.000459221
0.3359999,0.0004760812
0.3369999,0.0004950871
0.3379999,0.0005150128
0.3389999,0.0005346319
0.3399999,0.0005573165
0.3409999,0.0005793879
0.3419999,0.000602379
0.3429999,0.0006281291
0.3439999,0.000653266
0.3449999,0.0006808554
0.3459999,0.0007105906
0.3469999,0.0007394061
0.3479999,0.0007722068
0.3489999,0.0008050074
0.3499999,0.0008390343
0.3509999,0.0008764332
0.3519999,0.000913832
0.3529999,0.0009536833
0.3539999,0.0009956805
0.3549999,0.001037678
0.3559999,0.001083353
0.3569999,0.001128416
0.3579999,0.001175931
0.3589999,0.001224672
0.3599999,0.001272494
0.3609999,0.001322154
0.3619999,0.001372122
0.3629999,0.001420556
0.3639999,0.001470524
0.3649999,0.001518958
0.3659999,0.001567086
0.3669999,0.001613988
0.3679999,0.001658131
0.3689999,0.001704113
0.3699999,0.001745804
0.3709999,0.001786881
0.3719999,0.001828265
0.3729999,0.001863519
0.3739999,0.001900611
0.3749999,0.001938623
0.3759999,0.001969278
0.3769999,0.002004531
0.3779999,0.002037025
0.3789999,0.002064921
0.3799999,0.002097415
0.3809999,0.002126231
0.3819999,0.002152287
0.3829999,0.002181716
0.3839999,0.002207466
0.3849999,0.002233216
0.3859999,0.002259272
0.3869999,0.002282877
0.3879999,0.00230924
0.3889999,0.002332537
0.3899999,0.002356142
0.3909999,0.002380052
0.3919999,0.002400285
0.3929999,0.002422969
0.3939999,0.002445041
0.3949999,0.00246466
0.3959999,0.002487038
0.3969999,0.002505431
0.3979999,0.002524743
0.3989999,0.002545282
0.3999999,0.002560916
0.4009999,0.002580535
0.4019999,0.002598621
0.4029999,0.002613949
0.4039999,0.002634794
0.4049999,0.002648282
0.4059999,0.002662997
0.4069999,0.002681083
0.4079999,0.002692732
0.4089999,0.002712657
0.4099999,0.002730744
0.4109999,0.00273994
0.4119999,0.002756494
0.4129999,0.00276569
0.4139999,0.00277642
0.4149999,0.002791747
0.4159999,0.002800637
0.4169999,0.002812592
0.4179999,0.002823934
0.4189999,0.002831292
0.4199999,0.002844473
0.4209999,0.002851524
0.4219999,0.00286072
0.4229999,0.002871143
0.4239999,0.002876048
0.4249999,0.002885551
0.4259999,0.002892601
0.4269999,0.002897506
0.4279999,0.002907009
0.4289999,0.00291222
0.4299999,0.002918045
0.4309999,0.002923869
0.4319999,0.002926322
0.4329999,0.002933985
0.4339999,0.002937051
0.4349999,0.002939197
0.4359999,0.00294686
0.4369999,0.00294778
0.4379999,0.002950845
0.4389999,0.002956363
0.4399999,0.002956363
0.4409999,0.002960962
0.4419999,0.00296464
0.4429999,0.002964333
0.4439999,0.002969545
0.4449999,0.002970465
0.4459999,0.002971691
0.4469999,0.002975063
0.4479999,0.002975982
0.4489999,0.002979968
0.4499999,0.003010421
0.4509999,0.003010421
0.4519999,0.003013486
0.4529999,0.003013486
0.4539999,0.003016552
0.4549999,0.003022683
0.4559999,0.003022683
0.4569999,0.003028814
0.4579999,0.003034944
0.4589999,0.003034944
0.4599999,0.003044141
0.4609999,0.003053337
0.4619999,0.003059468
0.4629999,0.003068665
0.4639999,0.003077861
0.4649999,0.003090123
0.4659999,0.00309932
0.4669999,0.003114647
0.4679999,0.00313304
0.4689999,0.003148367
0.4699999,0.003169826
0.4709999,0.003191284
0.4719999,0.003212743
0.4729999,0.003246463
0.4739999,0.003274052
0.4749999,0.003307773
0.4759999,0.003350689
0.4769999,0.003387475
0.4779999,0.003436523
0.4789999,0.00348557
0.4799999,0.003540749
0.4809999,0.003602059
0.4819999,0.003669499
0.4829999,0.003740005
0.4839999,0.003825839
0.4849999,0.003905541
0.4859999,0.003997506
0.4869999,0.004101732
0.4879999,0.004202893
0.4889999,0.004325512
0.4899999,0.004448132
0.4909999,0.004576882
0.4919999,0.004724025
0.4929999,0.004871169
0.4939999,0.005027508
0.4949999,0.00519611
0.4959999,0.005370842
0.4969999,0.005554772
0.4979999,0.005747896
0.4989999,0.005950219
0.4999999,0.006161737
0.5009999,0.006379386
0.5019999,0.006603166
0.5029999,0.006842274
0.5039999,0.007084447
0.5049999,0.007332751
0.5059999,0.007590252
0.5069999,0.007856948
0.5079999,0.008126711
0.5089999,0.008402605
0.5099999,0.008687695
0.5109999,0.008975849
0.5119999,0.009279332
0.5129999,0.00957975
0.5139999,0.009883232
0.5149999,0.01019591
0.5159999,0.01051779
0.5169999,0.01083353
0.5179999,0.01116154
0.5189999,0.01149261
0.5199999,0.01182368
0.5209999,0.01216395
0.5219999,0.01250728
0.5229999,0.01284755
0.5239999,0.01320008
0.5249999,0.01355261
0.5259999,0.01390821
0.5269999,0.01426994
0.5279999,0.0146286
0.5289999,0.01499339
0.5299999,0.01536125
0.5309999,0.01573217
0.5319999,0.01610616
0.5329999,0.01648322
0.5339999,0.01686027
0.5349999,0.01723426
0.5359999,0.01762051
0.5369999,0.01800063
0.5379999,0.01838075
0.5389999,0.01877313
0.5399999,0.01915938
0.5409999,0.01954563
0.5419999,0.01994414
0.5429999,0.02033653
0.5439999,0.02073198
0.5449999,0.02113662
0.5459999,0.02153207
0.5469999,0.02193058
0.5479999,0.02234135
0.5489999,0.02273373
0.5499999,0.02314145
0.5509999,0.02355529
0.5519999,0.02394767
0.5529999,0.02436151
0.5539999,0.02477841
0.5549999,0.02517999
0.5559999,0.02559996
0.5569999,0.02601687
0.5579999,0.02642151
0.5589999,0.02683842
0.5599999,0.02725226
0.5609999,0.02766303
0.5619999,0.0280922
0.5629999,0.02851217
0.5639999,0.02892908
0.5649999,0.02935824
0.5659999,0.02977515
0.5669999,0.03019512
0.5679999,0.03139171
0.5689999,0.03179022
0.5699999,0.03221939
0.5709999,0.03264856
0.5719999,0.03307773
0.5729999,0.03350689
0.5739999,0.03393606
0.5749999,0.03436523
0.5759999,0.0347944
0.5769999,0.03525422
0.5779999,0.03568339
0.5789999,0.03611255
0.5799999,0.03654172
0.5809999,0.03697089
0.5819999,0.03743071
0.5829999,0.03785988
0.5839999,0.03828905
0.5849999,0.03874887
0.5859999,0.03917804
0.5869999,0.0396072
0.5879999,0.04006703
0.5889999,0.04049619
0.5899999,0.04092536
0.5909999,0.04138518
0.5919999,0.04181435
0.5929999,0.04227417
0.5939999,0.04270334
0.5949999,0.04316316
0.5959999,0.04359233
0.5969999,0.04405215
0.5979999,0.04448132
0.5989999,0.04494114
0.5999999,0.04537031
0.6009999,0.04583013
0.6019999,0.0462593
0.6029999,0.04674978
0.6039999,0.04717895
0.6049999,0.04760811
0.6059999,0.04806793
0.6069999,0.04852776
0.6079999,0.04895693
0.6089999,0.04941675
0.6099999,0.04984592
0.6109999,0.05030574
0.6119999,0.05076556
0.6129999,0.05119473
0.6139999,0.05165455
0.6149999,0.05211437
0.6159999,0.05257419
0.6169999,0.05303402
0.6179999,0.05349384
0.6189999,0.05392301
0.6199999,0.05438283
0.6209999,0.05484265
0.6219999,0.05527182
0.6229999,0.0557623
0.6239999,0.05619146
0.6249999,0.05665129
0.6259999,0.05711111
0.6269999,0.05757093
0.6279999,0.0580001
0.6289999,0.05845992
0.6299999,0.05888909
0.6309999,0.05934891
0.6319999,0.05980873
0.6329999,0.06026856
0.6339999,0.06069772
0.6349999,0.06115754
0.6359999,0.06161737
0.6369999,0.06207719
0.6379999,0.06253701
0.6389999,0.06299683
0.6399999,0.06345665
0.6409999,0.06391648
0.6419999,0.06440695
0.6429999,0.06486678
0.6439999,0.0653266
0.6449999,0.06578642
0.6459999,0.0662769
0.6469999,0.06673672
0.6479999,0.06719655
0.6489999,0.06768703
0.6499999,0.06814685
0.6509999,0.06860667
0.6519999,0.06909715
0.6529999,0.06955697
0.6539999,0.07004745
0.6549999,0.07050727
0.6559999,0.07096709
0.6569999,0.07145756
0.6579999,0.07191739
0.6589999,0.07240786
0.6599999,0.07286769
0.6609999,0.07332751
0.6619999,0.07381799
0.6629999,0.07427781
0.6639999,0.07476829
0.6649999,0.07522812
0.6659999,0.07568794
0.6669999,0.07617841
0.6679999,0.07666889
0.6689999,0.07712871
0.6699999,0.07761919
0.6709999,0.07810967
0.6719999,0.07856949
0.6729999,0.07902931
0.6739999,0.07951979
0.6749999,0.07997961
0.6759999,0.08047009
0.6769999,0.08096056
0.6779999,0.08142038
0.6789999,0.0818802
0.6799999,0.08237069
0.6809999,0.08286116
0.6819999,0.08329033
0.6829999,0.08378081
0.6839999,0.08427128
0.6849999,0.08473111
0.6859999,0.08522158
0.6869999,0.08568141
0.6879999,0.08617189
0.6889999,0.08663171
0.6899999,0.08709153
0.6909999,0.08755135
0.6919999,0.08804183
0.6929999,0.08850165
0.6939999,0.08899213
0.6949999,0.08945195
0.6959999,0.08991177
0.6969999,0.09040225
0.6979999,0.09089272
0.6989999,0.09132189
0.6999999,0.09144451
0.6990002,0.09101535
0.6980002,0.09049422
0.6970002,0.09006505
0.6960002,0.08960523
0.6950002,0.08911475
0.6940002,0.08868558
0.6930002,0.08819511
0.6920002,0.08773528
0.6910002,0.08727546
0.6900002,0.08681564
0.6890002,0.08635581
0.6880002,0.08589599
0.6870002,0.08540551
0.6860002,0.08491503
0.6850002,0.08448587
0.6840002,0.08402605
0.6830002,0.08353557
0.6820002,0.0831064
0.6810002,0.08264658
0.6800002,0.08215611
0.6790002,0.08172693
0.6780002,0.08123646
0.6770002,0.08080729
0.6760002,0.08034747
0.6750002,0.07985699
0.6740002,0.07939716
0.6730002,0.078968
0.6720002,0.07847752
0.6710002,0.0780177
0.6700002,0.07758854
0.6690002,0.0770674
0.6680002,0.07663824
0.6670002,0.07617841
0.6660002,0.07568794
0.6650002,0.07525877
0.6640002,0.07479894
0.6630002,0.07433912
0.6620002,0.07387929
0.6610002,0.07341947
0.6600002,0.07299031
0.6590002,0.07249983
0.6580002,0.07207067
0.6570002,0.07158019
0.6560002,0.07112037
0.6550002,0.0706912
0.6540002,0.07020072
0.6530002,0.06977155
0.6520002,0.06931173
0.6510002,0.06882125
0.6500002,0.06839209
0.6490002,0.06793226
0.6480002,0.06747244
0.6470002,0.06701262
0.6460002,0.06658345
0.6450002,0.06609298
0.6440002,0.06566381
0.6430002,0.06520399
0.6420002,0.06474417
0.6410002,0.06428434
0.6400002,0.06385517
0.6390002,0.06339534
0.6380002,0.06293552
0.6370002,0.06250636
0.6360002,0.06204654
0.6350002,0.06158672
0.6340002,0.06115754
0.6330002,0.06069772
0.6320002,0.0602379
0.6310002,0.05977808
0.6300002,0.05934891
0.6290002,0.05888909
0.6280002,0.05842927
0.6270002,0.0580001
0.6260002,0.05754028
0.6250002,0.05711111
0.6240002,0.05665129
0.6230002,0.05619146
0.6220002,0.0557623
0.6210002,0.05533313
0.6200002,0.05487331
0.6190002,0.05444414
0.6180002,0.05398431
0.6170002,0.05352449
0.6160002,0.05309533
0.6150002,0.0526355
0.6140002,0.05217568
0.6130002,0.05174651
0.6120002,0.05128669
0.6110002,0.05085753
0.6100002,0.0503977
0.6090002,0.04996854
0.6080002,0.04953937
0.6070002,0.04907954
0.6060002,0.04865038
0.6050002,0.04819056
0.6040002,0.04776139
0.6030002,0.04733222
0.6020002,0.04690305
0.6010002,0.04647389
0.6000002,0.04601406
0.5990002,0.04558489
0.5980002,0.04512507
0.5970002,0.04469591
0.5960002,0.04426674
0.5950002,0.04383757
0.5940002,0.0434084
0.5930002,0.04297924
0.5920002,0.04251941
0.5910002,0.04209024
0.5900002,0.04166108
0.5890002,0.04123191
0.5880002,0.04080274
0.5870002,0.04037357
0.5860002,0.03994441
0.5850002,0.03951524
0.5840002,0.03908607
0.5830002,0.0386569
0.5820002,0.03822774
0.5810002,0.03779857
0.5800002,0.0373694
0.5790002,0.03694023
0.5780002,0.03651107
0.5770002,0.0360819
0.5760002,0.03568339
0.5750002,0.03525422
0.5740002,0.03482505
0.5730002,0.03439588
0.5720002,0.03396672
0.5710002,0.0335682
0.5700002,0.03313904
0.5690002,0.03270987
0.5680002,0.03231135
0.5670002,0.03191284
0.5660002,0.03148368
0.5650002,0.03108516
0.5640002,0.03065599
0.5630002,0.03022683
0.5620002,0.02982831
0.5610002,0.02939915
0.5600002,0.02900063
0.5590002,0.02857147
0.5580002,0.02817295
0.5570002,0.02777444
0.5560002,0.02737593
0.5550002,0.02697741
0.5540002,0.02654825
0.5530002,0.02614973
0.5520002,0.02575122
0.5510002,0.02535271
0.5500002,0.0249542
0.5490002,0.02455568
0.5480002,0.02415717
0.5470002,0.02375866
0.5460002,0.0233908
0.5450002,0.02299229
0.5440002,0.02259377
0.5430002,0.02219526
0.5420002,0.02179675
0.5410002,0.02142889
0.5400002,0.02103038
0.5390002,0.02066252
0.5380002,0.02026401
0.5370002,0.01989615
0.5360002,0.01952829
0.5350002,0.01912978
0.5340002,0.01876192
0.5330002,0.01839406
0.5320002,0.01802621
0.5310002,0.01765835
0.5300002,0.01729049
0.5290002,0.01692263
0.5280002,0.01655477
0.5270002,0.01618692
0.5260002,0.01584971
0.5250002,0.01548185
0.5240002,0.015114
0.5230002,0.01477679
0.5220002,0.01440894
0.5210002,0.01407173
0.5200002,0.01370388
0.5190002,0.01336667
0.5180002,0.0125502
0.5170002,0.01221606
0.5160002,0.01188193
0.5150002,0.01156005
0.5140002,0.01123204
0.5130002,0.01091017
0.5120002,0.01058523
0.5110002,0.01026642
0.5100002,0.009953739
0.5090002,0.009647191
0.5080002,0.009337576
0.5070002,0.009037159
0.5060002,0.008733677
0.5050002,0.008436324
0.5040002,0.008145104
0.5030002,0.007853882
0.5020002,0.007568793
0.5010002,0.007286769
0.5000002,0.00700781
0.4990002,0.006734982
0.4980002,0.006462154
0.4970002,0.006198522
0.4960002,0.005941022
0.4950002,0.005680456
0.4940002,0.005429087
0.4930002,0.005180782
0.4920002,0.004935544
0.4910002,0.004699502
0.4900002,0.004466525
0.4890002,0.004236614
0.4880002,0.004012833
0.4870002,0.003792119
0.4860002,0.0035806
0.4850002,0.003372148
0.4840002,0.003169826
0.4830002,0.002973635
0.4820002,0.002780509
0.4810002,0.002590449
0.4800002,0.002409586
0.4790002,0.002231788
0.4780002,0.002060121
0.4770002,0.001894585
0.4760002,0.00173518
0.4750002,0.001581906
0.4740002,0.001428632
0.4730002,0.001284554
0.4720002,0.001116154
0.4710002,0.0009821923
0.4700002,0.0008555879
0.4690002,0.0007317424
0.4680002,0.0006124952
0.4670002,0.0005002985
0.4660002,0.0003899411
0.4650002,0.0002869409
0.4640002,0.0001900716
0.4630002,9.166961E-05
0.4620002,4.303349E-06
0.4610002,-8.834604E-05
0.4600002,-0.0001708075
0.4590002,-0.0002439499
0.4580002,-0.000318717
0.4570002,-0.0003902243
0.4560002,-0.0004515339
0.4550002,-0.0005171353
0.4540002,-0.0005759926
0.4530002,-0.0006305581
0.4520002,-0.0006863499
0.4510002,-0.0007357041
0.4500002,-0.0007844454
0.4490002,-0.0008292014
0.4480002,-0.0008730378
0.4470002,-0.0009153415
0.4460002,-0.0009512077
0.4450002,-0.0009873803
0.4440002,-0.001024473
0.4430002,-0.001054208
0.4420002,-0.001087622
0.4410002,-0.001117663
0.4400002,-0.001142187
0.4390002,-0.001172229
0.4380002,-0.00119614
0.4370002,-0.001220051
0.4360002,-0.001245494
0.4350002,-0.00126358
0.4340002,-0.001285345
0.4330002,-0.001306804
0.4320002,-0.001324277
0.4310002,-0.001344816
0.4300002,-0.001361369
0.4290002,-0.001378843
0.4280002,-0.001397542
0.4270002,-0.001410724
0.4260002,-0.001426664
0.4250002,-0.001442605
0.4240002,-0.001455173
0.4230002,-0.00147234
0.4220002,-0.001484295
0.4210002,-0.00149809
0.4200002,-0.001513111
0.4190002,-0.001522307
0.4180002,-0.001537021
0.4170002,-0.001549283
0.4160002,-0.001559399
0.4150002,-0.00157442
0.4140002,-0.001583617
0.4130002,-0.001594653
0.4120002,-0.001608754
0.4110002,-0.001617644
0.4100002,-0.001633891
0.4090002,-0.001649525
0.4080002,-0.001654123
0.4070002,-0.001666078
0.4060002,-0.001675275
0.4050002,-0.001683551
0.4040002,-0.001694587
0.4030002,-0.00170409
0.4020002,-0.001714819
0.4010002,-0.001724629
0.4000002,-0.001732906
0.3990002,-0.001744861
0.3980002,-0.001752218
0.3970002,-0.001764174
0.3960002,-0.001775516
0.3950002,-0.001781647
0.3940002,-0.001792683
0.3930002,-0.001801879
0.3920002,-0.001809236
0.3910002,-0.001822111
0.3900002,-0.001830082
0.3890002,-0.001838052
0.3880002,-0.001849394
0.3870002,-0.001855525
0.3860002,-0.001866254
0.3850002,-0.001875451
0.3840002,-0.001880662
0.3830002,-0.001892617
0.3820002,-0.001899975
0.3810002,-0.001907332
0.3800002,-0.001918061
0.3790002,-0.001924498
0.3780002,-0.001934308
0.3770002,-0.001943198
0.3760002,-0.001948716
0.3750002,-0.001958525
0.3740002,-0.001965882
0.3730002,-0.001972933
0.3720002,-0.00198121
0.3710002,-0.001988567
0.3700002,-0.001997457
0.3690002,-0.002003281
0.3680002,-0.002008493
0.3670002,-0.002017995
0.3660002,-0.002022594
0.3650002,-0.002030258
0.3640002,-0.002038534
0.3630002,-0.002041293
0.3620002,-0.002049264
0.3610002,-0.002055701
0.3600002,-0.002058767
0.3590002,-0.002067656
0.3580002,-0.002073481
0.3570002,-0.00207624
0.3560002,-0.002084517
0.3550002,-0.002087275
0.3540002,-0.002091261
0.3530002,-0.002096165
0.3520002,-0.002099231
0.3510002,-0.002104749
0.3500002,-0.002108121
0.3490002,-0.00211088
0.3480002,-0.002115171
0.3470002,-0.002116397
0.3460002,-0.002121609
0.3450002,-0.002123755
0.3440002,-0.002123142
0.3430002,-0.00212866
0.3420002,-0.002128353
0.3410002,-0.002129273
0.3400002,-0.002132338
0.3390002,-0.002130805
0.3380002,-0.002132338
0.3370002,-0.002132032
0.3360002,-0.002129579
0.3350002,-0.002131725
0.3340002,-0.002128966
0.3330002,-0.002125901
0.3320002,-0.002126207
0.3310002,-0.002120996
0.3300002,-0.00211977
0.3290002,-0.002117624
0.3280002,-0.002111186
0.3270002,-0.002109347
0.3260002,-0.002105055
0.3250002,-0.002099538
0.3240002,-0.002095246
0.3230002,-0.002087889
0.3220002,-0.002081144
0.3210002,-0.002074094
0.3200002,-0.002066124
0.3190002,-0.002059073
0.3180002,-0.00204865
0.3170002,-0.002038534
0.3160002,-0.002030258
0.3150002,-0.002017689
0.3140002,-0.002007573
0.3130002,-0.001995618
0.3120002,-0.001981516
0.3110002,-0.001970174
0.3100002,-0.001954234
0.3090002,-0.001940746
0.3080002,-0.001926644
0.3070002,-0.001911317
0.3060002,-0.00189415
0.3050002,-0.001876677
0.3040002,-0.001856138
0.3030002,-0.001838358
0.3020002,-0.00181782
0.3010002,-0.001797894
0.3000002,-0.001777355
0.2990002,-0.001753751
0.2980002,-0.001731373
0.2970002,-0.001708382
0.2960002,-0.001683245
0.2950002,-0.001660254
0.2940002,-0.001634197
0.2930002,-0.001608141
0.2920002,-0.001583004
0.2910002,-0.001554495
0.2900002,-0.001527212
0.2890002,-0.001499622
0.2880002,-0.001469887
0.2870002,-0.001442298
0.2860002,-0.001412256
0.2850002,-0.001381601
0.2840002,-0.001353399
0.2830002,-0.001322744
0.2820002,-0.001292703
0.2810002,-0.001262967
0.2800002,-0.001232006
0.2790002,-0.001203497
0.2780002,-0.001174681
0.2770002,-0.001145253
0.2760002,-0.001117663
0.2750002,-0.001090074
0.2740002,-0.001062791
0.2730002,-0.001036428
0.2720002,-0.001010371
0.2710002,-0.0009861541
0.2700002,-0.0009619368
0.2690002,-0.0009386392
0.2680002,-0.0009174873
0.2670002,-0.0008957224
0.2660002,-0.0008751836
0.2650002,-0.0008555645
0.2640002,-0.000836252
0.2630002,-0.0008190853
0.2620002,-0.0008019186
0.2610002,-0.0007856716
0.2600002,-0.0007706507
0.2590002,-0.0007553233
0.2580002,-0.0007415286
0.2570002,-0.0007280405
0.2560002,-0.0007151655
0.2550002,-0.0007029035
0.2540002,-0.0006912547
0.2530002,-0.0006796059
0.2520002,-0.0006691832
0.2510002,-0.0006587606
0.2500002,-0.000648951
0.2490002,-0.0006391415
0.2480002,-0.000629945
0.2470002,-0.0006210551
0.2460002,-0.0006127784
0.2450002,-0.0006045015
0.2440002,-0.0005968378
0.2430002,-0.0005894807
0.2420002,-0.0005821235
0.2410002,-0.0005750729
0.2400002,-0.0005683288
0.2390002,-0.0005621978
0.2380002,-0.0005554538
0.2370002,-0.0005493228
0.2360002,-0.000543805
0.2350002,-0.0005379805
0.2340002,-0.0005321561
0.2330002,-0.0005269448
0.2320002,-0.0005217335
0.2310002,-0.0005168287
0.2300002,-0.0005119239
0.2290002,-0.0005073257
0.2280002,-0.0005027275
0.2270002,-0.0004981293
0.2260002,-0.0004941442
0.2250002,-0.0004898525
0.2240002,-0.0004858673
0.2230002,-0.0004818822
0.2220002,-0.0004782036
0.2210002,-0.0004745251
0.2200002,-0.0004708465
0.2190002,-0.0004671679
0.2180002,-0.0004637959
0.2170002,-0.0004604238
0.2160002,-0.0004567453
0.2150002,-0.0004539863
0.2140002,-0.0004506143
0.2130002,-0.0004478553
0.2120002,-0.0004450964
0.2110002,-0.0004420309
0.2100002,-0.000439272
0.2090002,-0.0004368196
0.2080002,-0.0004340607
0.2070002,-0.0004316083
0.2060002,-0.0004291559
0.2050002,-0.0004267035
0.2040002,-0.0004242511
0.2030002,-0.0004221053
0.2020002,-0.0004193464
0.2010002,-0.0004172005
0.2000002,-0.0004150547
0.1990002,-0.0004129088
0.1980002,-0.000410763
0.1970002,-0.0004089237
0.1960002,-0.0004070844
0.1950002,-0.0004049386
0.1940002,-0.0004027928
0.1930002,-0.0004009535
0.1920002,-0.0003991142
0.1910002,-0.0003975815
0.1900002,-0.0003957421
0.1890002,-0.0003939029
0.1880002,-0.0003923701
0.1870002,-0.0003905308
0.1860002,-0.0003889981
0.1850002,-0.0003874653
0.1840002,-0.0003859326
0.1830002,-0.0003843998
0.1820002,-0.0003831737
0.1810002,-0.0003816409
0.1800002,-0.0003804147
0.1790002,-0.000378882
0.1780002,-0.0003776558
0.1770002,-0.0003761231
0.1760002,-0.0003745903
0.1750002,-0.0003733641
0.1740002,-0.0003721379
0.1730002,-0.0003709117
0.1720002,-0.0003699921
0.1710002,-0.0003687659
0.1700002,-0.0003675397
0.1690002,-0.0003666201
0.1680002,-0.0003653939
0.1670002,-0.0003644742
0.1660002,-0.0003632481
0.1650002,-0.0003620218
0.1640002,-0.0003611022
0.1630002,-0.0003601825
0.1620002,-0.0003592629
0.1610002,-0.0003583433
0.1600002,-0.0003574236
0.1590002,-0.000356504
0.1580002,-0.0003555843
0.1570002,-0.0003549712
0.1560002,-0.000353745
0.1550002,-0.0003531319
0.1540002,-0.0003522123
0.1530002,-0.0003512927
0.1520002,-0.000350373
0.1510002,-0.0003497599
0.1500002,-0.0003488403
0.1490002,-0.0003482272
0.1480002,-0.0003476141
0.1470002,-0.0003466944
0.1460002,-0.0003460813
0.1450002,-0.0003451617
0.1440002,-0.000344242
0.1430002,-0.0003436289
0.1420002,-0.0003430158
0.1410002,-0.0003424028
0.1400002,-0.0003417897
0.1390002,-0.0003411766
0.1380002,-0.0003402569
0.1370002,-0.0003399504
0.1360002,-0.0003393373
0.1350002,-0.0003384176
0.1340002,-0.0003378045
0.1330002,-0.0003371914
0.1320002,-0.0003365783
0.1310002,-0.0003359652
0.1300002,-0.0003356587
0.1290002,-0.0003350456
0.1280002,-0.0003344325
0.1270002,-0.0003338194
0.1260002,-0.0003328998
0.1250002,-0.0003322866
0.1240002,-0.0003319801
0.1230002,-0.000331367
0.1220002,-0.0003307539
0.1210002,-0.0003307539
0.1200002,-0.0003298343
0.1190002,-0.0003295277
0.1180002,-0.0003289146
0.1170002,-0.0003283015
0.1160002,-0.000327995
0.1150002,-0.0003273819
0.1140002,-0.0003267688
0.1130002,-0.0003264622
0.1120002,-0.0003255426
0.1110002,-0.000325236
0.1100002,-0.0003246229
0.1090002,-0.0003243164
0.1080002,-0.0003237033
0.1070002,-0.0003230902
0.1060002,-0.0003224771
0.1050002,-0.0003221706
0.1040002,-0.0003215575
0.1030002,-0.0003212509
0.1020002,-0.0003206378
0.1010002,-0.0003200247
0.1000002,-0.0003197182
0.09900019,-0.0003191051
0.09800019,-0.000318492
0.09700019,-0.0003178789
0.09600019,-0.0003175724
0.09500019,-0.0003169593
0.09400019,-0.0003166527
0.09300019,-0.0003160396
0.09200019,-0.0003157331
0.09100019,-0.0003151199
0.09000019,-0.0003145068
0.08900019,-0.0003138937
0.08800019,-0.0003132806
0.08700019,-0.0003129741
0.08600019,-0.000312361
0.08500019,-0.0003117479
0.08400019,-0.0003114414
0.08300019,-0.0003108283
0.08200019,-0.0003102152
0.08100019,-0.0003096021
0.08000019,-0.000308989
0.07900019,-0.0003083759
0.07800019,-0.0003080693
0.07700019,-0.0003071497
0.07600019,-0.0003068431
0.07500019,-0.00030623
0.07400019,-0.000305617
0.07300019,-0.0003050039
0.07200019,-0.0003043908
0.07100019,-0.0003037777
0.07000019,-0.0003031646
0.06900019,-0.0003022449
0.06800019,-0.0003016318
0.06700019,-0.0003007122
0.06600019,-0.0003000991
0.06500019,-0.000299486
0.06400019,-0.0002985664
0.06300019,-0.0002979533
0.06200019,-0.0002970336
0.06100019,-0.000296114
0.06000019,-0.0002951943
0.05900019,-0.0002942747
0.05800019,-0.000293355
0.05700019,-0.0002921289
0.05600019,-0.0002912092
0.05500019,-0.0002902895
0.05400019,-0.0002890633
0.05300019,-0.0002878372
0.05200019,-0.0002869175
0.05100019,-0.0002856913
0.05000019,-0.0002844651
0.04900019,-0.0002832389
0.04800019,-0.0002817062
0.04700019,-0.0002801734
0.04600019,-0.0002789472
0.04500019,-0.000277108
0.04400019,-0.0002755752
0.04300019,-0.0002740425
0.04200019,-0.0002722032
0.04100019,-0.0002706705
0.04000019,-0.0002691377
0.03900019,-0.0002676049
0.03800019,-0.0002657657
0.03700019,-0.0002642329
0.03600019,-0.0002627002
0.03500019,-0.0002608609
0.03400019,-0.0002593282
0.03300019,-0.0002577954
0.03200019,-0.0002562627
0.03100019,-0.0002550365
0.03000019,-0.0002535038
0.02900019,-0.000251971
0.02800019,-0.0002507448
0.02700019,-0.0002492121
0.02600019,-0.0002479859
0.02500019,-0.0002467597
0.02400019,-0.000245227
0.02300019,-0.0002440007
0.02200019,-0.0002427746
0.02100019,-0.0002415484
0.02000019,-0.0002403222
0.01900019,-0.0002394025
0.01800019,-0.0002378698
0.01700019,-0.0002369501
0.01600019,-0.000235724
0.01500019,-0.0002344978
0.01400019,-0.0002335781
0.01300019,-0.0002323519
0.01200019,-0.0002311257
0.01100019,-0.0002298995
0.01000019,-0.0002286733
0.009000191,-0.0002274471
0.00800019,-0.0002262209
0.007000191,-0.0002253013
0.006000191,-0.0002240751
0.005000191,-0.0002225424
0.004000191,-0.0002216227
0.003000191,-0.00022009
0.002000191,-0.0002188638
0.001000191,-0.0002179441
1.907349E-07,-0.0002130394
0.0009998092,-0.0002090542
0.001999809,-0.0002056822
0.002999809,-0.0002029233
0.003999809,-0.0002001643
0.004999809,-0.0001974054
0.005999809,-0.000194953
0.006999809,-0.0001925007
0.007999809,-0.0001903548
0.00899981,-0.0001879024
0.009999809,-0.0001857566
0.01099981,-0.0001836107
0.01199981,-0.0001814649
0.01299981,-0.0001796256
0.01399981,-0.0001774798
0.01499981,-0.0001756405
0.01599981,-0.0001738012
0.01699981,-0.0001719619
0.01799981,-0.0001701226
0.01899981,-0.0001682833
0.01999981,-0.000166444
0.02099981,-0.0001649113
0.02199981,-0.0001633786
0.02299981,-0.0001615393
0.02399981,-0.0001600065
0.02499981,-0.0001584738
0.02599981,-0.0001600783
0.02699981,-0.0001586989
0.02799981,-0.0001572888
0.02899981,-0.0001559706
0.02999981,-0.0001544992
0.03099981,-0.0001531503
0.03199981,-0.0001517402
0.03299981,-0.0001503608
0.03399981,-0.0001491652
0.03499981,-0.0001478777
0.03599981,-0.0001465289
0.03699981,-0.000145364
0.03799981,-0.0001441991
0.03899981,-0.0001430343
0.03999981,-0.0001419
0.04099981,-0.0001407045
0.04199981,-0.0001394783
0.04299981,-0.000138436
0.04399981,-0.0001372712
0.04499981,-0.0001361982
0.04599981,-0.0001352479
0.04699981,-0.0001342057
0.04799981,-0.0001332247
0.04899981,-0.0001321824
0.04999981,-0.0001311708
0.05099981,-0.0001300673
0.05199981,-0.0001290863
0.05299981,-0.000128136
0.05399981,-0.0001273083
0.05499981,-0.000126358
0.05599981,-0.000125469
0.05699981,-0.0001245801
0.05799981,-0.0001236911
0.05899981,-0.0001228634
0.05999981,-0.0001217905
0.06099981,-0.0001209628
0.06199981,-0.0001201658
0.06299981,-0.0001193381
0.06399981,-0.000118541
0.06499981,-0.0001178053
0.06599981,-0.000116947
0.06699981,-0.00011615
0.06799981,-0.000115261
0.06899981,-0.000114464
0.06999981,-0.0001137282
0.07099981,-0.0001129312
0.07199981,-0.0001122568
0.07299981,-0.0001115824
0.07399981,-0.0001108773
0.07499981,-0.000110111
0.07599981,-0.0001093446
0.07699981,-0.0001086089
0.07799981,-0.0001078425
0.07899981,-0.0001072294
0.07999981,-0.0001066163
0.08099981,-0.0001060032
0.08199981,-0.0001052675
0.08299981,-0.0001044705
0.08399981,-0.0001037654
0.08499981,-0.0001031523
0.08599981,-0.0001025699
0.08699981,-0.0001019261
0.08799981,-0.000101313
0.08899981,-0.0001005467
0.08999981,-9.990291E-05
0.09099981,-9.932047E-05
0.09199981,-9.873803E-05
0.09299981,-9.818624E-05
0.09399981,-9.757314E-05
0.09499981,-9.683742E-05
0.09599981,-9.613237E-05
0.09699981,-9.57032E-05
0.09799981,-9.50901E-05
0.09899981,-9.4477E-05
0.09999981,-9.386391E-05
0.1009998,-9.337343E-05
0.1019998,-9.282165E-05
0.1029998,-9.220855E-05
0.1039998,-9.162611E-05
0.1049998,-9.098235E-05
0.1059998,-9.043057E-05
0.1069998,-8.978682E-05
0.1079998,-8.920438E-05
0.1089998,-8.868324E-05
0.1099998,-8.813146E-05
0.1109998,-8.757967E-05
0.1119998,-8.702788E-05
0.1129998,-8.644543E-05
0.1139998,-8.589365E-05
0.1149998,-8.543384E-05
0.1159998,-8.485139E-05
0.1169998,-8.436092E-05
0.1179998,-8.383978E-05
0.1189998,-8.325734E-05
0.1199998,-8.279752E-05
0.1209998,-8.227638E-05
0.1219998,-8.169394E-05
0.1229998,-8.120346E-05
0.1239998,-8.071299E-05
0.1249998,-8.009989E-05
0.1259998,-7.960942E-05
0.1269998,-7.911894E-05
0.1279998,-7.862846E-05
0.1289998,-7.819929E-05
0.1299998,-7.75862E-05
0.1309998,-7.715703E-05
0.1319998,-7.657459E-05
0.1329998,-7.614542E-05
0.1339998,-7.562429E-05
0.1349998,-7.510315E-05
0.1359998,-7.458202E-05
0.1369998,-7.409155E-05
0.1379998,-7.35091E-05
0.1389998,-7.304928E-05
0.1399998,-7.246684E-05
0.1409998,-7.191506E-05
0.1419998,-7.142458E-05
0.1429998,-7.084214E-05
0.1439998,-7.035166E-05
0.1449998,-6.992248E-05
0.1459998,-6.940136E-05
0.1469998,-6.891088E-05
0.1479998,-6.835909E-05
0.1489998,-6.786862E-05
0.1499998,-6.750075E-05
0.1509998,-6.697963E-05
0.1519998,-6.65198E-05
0.1529998,-6.593736E-05
0.1539998,-6.538557E-05
0.1549998,-6.483379E-05
0.1559998,-6.425134E-05
0.1569998,-6.373021E-05
0.1579998,-6.33317E-05
0.1589998,-6.281057E-05
0.1599998,-6.235075E-05
0.1609998,-6.192158E-05
0.1619998,-6.130848E-05
0.1629998,-6.0818E-05
0.1639998,-6.017425E-05
0.1649998,-5.959181E-05
0.1659998,-5.907068E-05
0.1669998,-5.854955E-05
0.1679998,-5.799776E-05
0.1689998,-5.747663E-05
0.1699998,-5.704746E-05
0.1709998,-5.652633E-05
0.1719998,-5.588258E-05
0.1729998,-5.536145E-05
0.1739998,-5.487097E-05
0.1749998,-5.425787E-05
0.1759998,-5.379805E-05
0.1769998,-5.321561E-05
0.1779998,-5.263316E-05
0.1789998,-5.217335E-05
0.1799998,-5.152959E-05
0.1809998,-5.097781E-05
0.1819998,-5.042602E-05
0.1829998,-4.975162E-05
0.1839998,-4.913852E-05
0.1849998,-4.855608E-05
0.1859998,-4.785102E-05
0.1869998,-4.729923E-05
0.1879998,-4.662482E-05
0.1889998,-4.607304E-05
0.1899998,-4.55519E-05
0.1909998,-4.493881E-05
0.1919998,-4.429505E-05
0.1929998,-4.368196E-05
0.1939998,-4.306886E-05
0.1949998,-4.251707E-05
0.1959998,-4.181201E-05
0.1969998,-4.116826E-05
0.1979998,-4.058582E-05
0.1989998,-3.97888E-05
0.1999998,-3.914504E-05
0.2009998,-3.840933E-05
0.2019998,-3.76123E-05
0.2029998,-3.702986E-05
0.2039998,-3.617152E-05
0.2049998,-3.549712E-05
0.2059998,-3.485337E-05
0.2069998,-3.411765E-05
0.2079998,-3.341259E-05
0.2089998,-3.273819E-05
0.2099998,-3.197181E-05
0.2109998,-3.129741E-05
0.2119998,-3.043907E-05
0.2129998,-2.961139E-05
0.2139998,-2.884502E-05
0.2149998,-2.786407E-05
0.2159998,-2.718966E-05
0.2169998,-2.639264E-05
0.2179998,-2.547299E-05
0.2189998,-2.476793E-05
0.2199998,-2.387894E-05
0.2209998,-2.311257E-05
0.2219998,-2.222358E-05
0.2229998,-2.118132E-05
0.2239998,-2.026167E-05
0.2249998,-1.940334E-05
0.2259998,-1.836107E-05
0.2269998,-1.753339E-05
0.2279998,-1.649113E-05
0.2289998,-1.563279E-05
0.2299998,-1.477446E-05
0.2309998,-1.367088E-05
0.2319998,-1.262862E-05
0.2329998,-1.15557E-05
0.2339998,-1.026925E-05
0.2349998,-9.404784E-06
0.2359998,-8.261359E-06
0.2369998,-7.268142E-06
0.2379998,-6.222813E-06
0.2389998,-4.855608E-06
0.2399998,-3.72751E-06
0.2409998,-2.565692E-06
0.2419998,-1.180094E-06
0.2429998,-6.42584E-08
0.2439998,1.232441E-06
0.2449998,2.495419E-06
0.2459998,3.663368E-06
0.2469998,5.113342E-06
0.2479998,6.413106E-06
0.2489998,7.810966E-06
0.2499998,9.475523E-06
0.2509998,1.072011E-05
0.2519998,1.224365E-05
0.2529998,1.367523E-05
0.2539998,1.507616E-05
0.2549998,1.675298E-05
0.2559998,1.827959E-05
0.2569998,1.989615E-05
0.2579998,2.155151E-05
0.2589998,2.323752E-05
0.2599998,2.523009E-05
0.2609998,2.685479E-05
0.2619998,2.857147E-05
0.2629998,3.056403E-05
0.2639998,3.225004E-05
0.2649998,3.415065E-05
0.2659998,3.626582E-05
0.2669998,3.80438E-05
0.2679998,4.040423E-05
0.2689998,4.24581E-05
0.2699998,4.432804E-05
0.2709998,4.678043E-05
0.2719998,4.898758E-05
0.2729998,5.125604E-05
0.2739998,5.373908E-05
0.2749998,5.619146E-05
0.2759998,5.898106E-05
0.2769998,6.14641E-05
0.2779998,6.391648E-05
0.2789998,6.673672E-05
0.2799998,6.937304E-05
0.2809998,7.222393E-05
0.2819998,7.507483E-05
0.2829998,7.789508E-05
0.2839998,8.129777E-05
0.2849998,8.442456E-05
0.2859998,8.7582E-05
0.2869998,9.119927E-05
0.2879998,9.447934E-05
0.2889998,9.812726E-05
0.2899998,0.0001018978
0.2909998,0.0001051779
0.2919998,0.0001094695
0.2929998,0.0001132401
0.2939998,0.0001171639
0.2949998,0.0001217008
0.2959998,0.0001259005
0.2969998,0.0001303455
0.2979998,0.0001353422
0.2989998,0.0001396952
0.2999998,0.0001449372
0.3009998,0.0001499952
0.3019998,0.0001548693
0.3029998,0.0001606018
0.3039998,0.000165997
0.3049998,0.0001715762
0.3059998,0.0001777991
0.3069998,0.0001841447
0.3079998,0.0001906742
0.3089998,0.0001970504
0.3099998,0.0002036718
0.3109998,0.0002110903
0.3119998,0.0002180183
0.3129998,0.0002258046
0.3139998,0.0002340201
0.3149998,0.0002416225
0.3159998,0.0002506657
0.3169998,0.0002592184
0.3179998,0.0002679244
0.3189998,0.0002779485
0.3199998,0.0002875741
0.3209998,0.0003010421
0.3219998,0.0003114647
0.3229998,0.0003218873
0.3239998,0.0003338427
0.3249998,0.0003454916
0.3259998,0.0003577535
0.3269998,0.0003712417
0.3279998,0.0003844232
0.3289998,0.0003985244
0.3299998,0.0004135453
0.3309998,0.0004285662
0.3319998,0.0004454263
0.3329998,0.0004616734
0.3339998,0.0004788401
0.3349998,0.000497846
0.3359998,0.0005165455
0.3369998,0.0005367777
0.3379998,0.0005582361
0.3389998,0.000580001
0.3399998,0.0006042183
0.3409998,0.0006284356
0.3419998,0.0006535726
0.3429998,0.0006814685
0.3439998,0.0007087513
0.3449998,0.000738793
0.3459998,0.0007703675
0.3469998,0.0008022485
0.3479998,0.0008375015
0.3489998,0.0008727546
0.3499998,0.0009095404
0.3509998,0.0009493917
0.3519998,0.0009898561
0.3529998,0.00103216
0.3539998,0.001076609
0.3549998,0.001120139
0.3559998,0.001168267
0.3569998,0.001214862
0.3579998,0.001262684
0.3589998,0.001311732
0.3599998,0.001359553
0.3609998,0.001408294
0.3619998,0.001456422
0.3629998,0.001503018
0.3639998,0.001550839
0.3649998,0.001595289
0.3659998,0.001638819
0.3669998,0.001682042
0.3679998,0.001720974
0.3689998,0.001760518
0.3699998,0.001798224
0.3709998,0.001833477
0.3719998,0.001870569
0.3729998,0.001901837
0.3739998,0.001933412
0.3749998,0.001964986
0.3759998,0.001992269
0.3769998,0.002022004
0.3779998,0.0020499
0.3789998,0.002075037
0.3799998,0.002102933
0.3809998,0.002126537
0.3819998,0.002151367
0.3829998,0.002177118
0.3839998,0.002196737
0.3849998,0.002221567
0.3859998,0.002245171
0.3869998,0.002264177
0.3879998,0.002289008
0.3889998,0.00230832
0.3899998,0.002328552
0.3909998,0.002351237
0.3919998,0.002367791
0.3929998,0.002388329
0.3939998,0.002406722
0.3949998,0.002423582
0.3959998,0.002444121
0.3969998,0.002460368
0.3979998,0.002477228
0.3989998,0.002495315
0.3999998,0.002509722
0.4009998,0.002526583
0.4019998,0.002541297
0.4029998,0.002555091
0.4039998,0.002573178
0.4049998,0.00258452
0.4059998,0.002597702
0.4069998,0.002613029
0.4079998,0.002623145
0.4089998,0.002640005
0.4099998,0.002657172
0.4109998,0.002664836
0.4119998,0.002678324
0.4129998,0.002686601
0.4139998,0.002697024
0.4149998,0.00270714
0.4159998,0.002714497
0.4169998,0.002725839
0.4179998,0.002734116
0.4189998,0.00274086
0.4199998,0.002750976
0.4209998,0.002755574
0.4219998,0.002763544
0.4229998,0.002771515
0.4239998,0.002775193
0.4249998,0.002782244
0.4259998,0.002788068
0.4269998,0.002791134
0.4279998,0.002798184
0.4289998,0.002801556
0.4299998,0.002805848
0.4309998,0.002811366
0.4319998,0.002812592
0.4329998,0.002815964
0.4339998,0.002819643
0.4349998,0.002820869
0.4359998,0.002825161
0.4369998,0.00282608
0.4379998,0.00282792
0.4389998,0.002830679
0.4399998,0.002829453
0.4409998,0.002833437
0.4419998,0.00283497
0.4429998,0.002833744
0.4439998,0.002838649
0.4449998,0.002836503
0.4459998,0.002837423
0.4469998,0.002839569
0.4479998,0.002838649
0.4489998,0.002841408
0.4499998,0.002843247
0.4509998,0.002841714
0.4519998,0.002846926
0.4529998,0.002846006
0.4539998,0.002848458
0.4549998,0.002852137
0.4559998,0.002853363
0.4569998,0.002857961
0.4579998,0.00286072
0.4589998,0.002865012
0.4599998,0.002872369
0.4609998,0.0028785
0.4619998,0.002885857
0.4629998,0.002893827
0.4639998,0.002902717
0.4649998,0.002917125
0.4659998,0.002926935
0.4669998,0.002941649
0.4679998,0.002960655
0.4689998,0.002975063
0.4699998,0.003025748
0.4709998,0.003047206
0.4719998,0.003068665
0.4729998,0.003102385
0.4739998,0.003136105
0.4749998,0.00316676
0.4759998,0.003209677
0.4769998,0.003252594
0.4779998,0.003298576
0.4789998,0.003353755
0.4799998,0.003408933
0.4809998,0.003473309
0.4819998,0.003543815
0.4829998,0.003620452
0.4839998,0.00370322
0.4849998,0.003789053
0.4859998,0.003887149
0.4869998,0.003991375
0.4879998,0.004101732
0.4889998,0.004227417
0.4899998,0.004350036
0.4909998,0.004487983
0.4919998,0.004638192
0.4929998,0.004788401
0.4939998,0.004953937
0.4949998,0.005122538
0.4959998,0.005300336
0.4969998,0.005493461
0.4979998,0.005692718
0.4989998,0.005898105
0.4999998,0.00611882
0.5009998,0.006336469
0.5019998,0.00656638
0.5029998,0.006808553
0.5039998,0.007050727
0.5049998,0.007305162
0.5059998,0.007568793
0.5069998,0.00783549
0.5079998,0.008111384
0.5089998,0.008390343
0.5099998,0.008678498
0.5109998,0.008969719
0.5119998,0.009276267
0.5129998,0.00957975
0.5139998,0.009886298
0.5149998,0.01020204
0.5159998,0.01052392
0.5169998,0.01084273
0.5179998,0.0111738
0.5189998,0.01150794
0.5199998,0.01184208
0.5209998,0.01218234
0.5219998,0.01252568
0.5229998,0.01287208
0.5239998,0.01322767
0.5249998,0.0135802
0.5259998,0.0139358
0.5269998,0.01430059
0.5279998,0.01465619
0.5289998,0.01502405
0.5299998,0.01539497
0.5309998,0.01576589
0.5319998,0.01613682
0.5329998,0.01651387
0.5339998,0.01689092
0.5349998,0.01727411
0.5359998,0.01765729
0.5369998,0.01803435
0.5379998,0.01842367
0.5389998,0.01880992
0.5399998,0.01919617
0.5409998,0.01959161
0.5419998,0.01998706
0.5429998,0.02037638
0.5439998,0.02077183
0.5449998,0.02117647
0.5459998,0.02157192
0.5469998,0.02197656
0.5479998,0.02238121
0.5489998,0.02277359
0.5499998,0.02318743
0.5509998,0.02358901
0.5519998,0.02399058
0.5529998,0.02440749
0.5539998,0.02480907
0.5549998,0.02522291
0.5559998,0.02563981
0.5569998,0.02604446
0.5579998,0.02646749
0.5589998,0.0268844
0.5599998,0.02729211
0.5609998,0.02771821
0.5619998,0.02813512
0.5629998,0.02854589
0.5639998,0.02897812
0.5649998,0.02939809
0.5659998,0.02980887
0.5669998,0.03024723
0.5679998,0.03142237
0.5689998,0.03182088
0.5699998,0.03225004
0.5709998,0.03267921
0.5719998,0.03310838
0.5729998,0.03353755
0.5739998,0.03396672
0.5749998,0.03439588
0.5759998,0.0348557
0.5769998,0.03528487
0.5779998,0.03571404
0.5789998,0.03614321
0.5799998,0.03660303
0.5809998,0.0370322
0.5819998,0.03746137
0.5829998,0.03789053
0.5839998,0.03835035
0.5849998,0.03881018
0.5859998,0.03923934
0.5869998,0.03966851
0.5879998,0.04012834
0.5889998,0.0405575
0.5899998,0.04098667
0.5909998,0.04144649
0.5919998,0.04190632
0.5929998,0.04233548
0.5939998,0.0427953
0.5949998,0.04322447
0.5959998,0.0436843
0.5969998,0.04411346
0.5979998,0.04457328
0.5989998,0.04500245
0.5999998,0.04546228
0.6009998,0.0459221
0.6019998,0.04638192
0.6029998,0.04681109
0.6039998,0.04727091
0.6049998,0.04773073
0.6059998,0.0481599
0.6069998,0.04861972
0.6079998,0.04904889
0.6089998,0.04950871
0.6099998,0.04996854
0.6109998,0.0503977
0.6119998,0.05085753
0.6129998,0.05128669
0.6139998,0.05174651
0.6149998,0.05223699
0.6159998,0.05266616
0.6169998,0.05312598
0.6179998,0.0535858
0.6189998,0.05404563
0.6199998,0.05450545
0.6209998,0.05496527
0.6219998,0.0554251
0.6229998,0.05588492
0.6239998,0.05634474
0.6249998,0.05680456
0.6259998,0.05723373
0.6269998,0.05769355
0.6279998,0.05818403
0.6289998,0.05861319
0.6299998,0.05910368
0.6309998,0.0595635
0.6319998,0.05999266
0.6329998,0.06048314
0.6339998,0.06094296
0.6349998,0.06137213
0.6359998,0.06186261
0.6369998,0.06232243
0.6379998,0.06278225
0.6389998,0.06324207
0.6399998,0.0637019
0.6409998,0.06416172
0.6419998,0.0646522
0.6429998,0.06511202
0.6439998,0.06557184
0.6449998,0.06603166
0.6459998,0.06649148
0.6469998,0.06692065
0.6479998,0.06741113
0.6489998,0.06787095
0.6499998,0.06833078
0.6509998,0.06882125
0.6519998,0.06928107
0.6529998,0.0697409
0.6539998,0.07023137
0.6549998,0.0706912
0.6559998,0.07115102
0.6569998,0.07161084
0.6579998,0.07207067
0.6589998,0.07253049
0.6599998,0.07302096
0.6609998,0.07345013
0.6619998,0.0739406
0.6629998,0.07443108
0.6639998,0.0748909
0.6649998,0.07535073
0.6659998,0.07581055
0.6669998,0.07627037
0.6679998,0.07676085
0.6689998,0.07725133
0.6699998,0.07771116
0.6709998,0.07817098
0.6719998,0.07866146
0.6729998,0.07912128
0.6739998,0.0795811
0.6749998,0.08007158
0.6759998,0.08050074
0.6769998,0.08099122
0.6779998,0.08145104
0.6789998,0.08191086
0.6799998,0.08240134
0.6809998,0.08286116
0.6819998,0.08335164
0.6829998,0.08381146
0.6839998,0.08427128
0.6849998,0.08476176
0.6859998,0.08525224
0.6869998,0.08568141
0.6879998,0.08617189
0.6889998,0.08666236
0.6899998,0.08712219
0.6909998,0.08758201
0.6919998,0.08807249
0.6929998,0.08853231
0.6939998,0.08902278
0.6949998,0.08948261
0.6959998,0.08997308
0.6969998,0.0904329
0.6979998,0.09092338
0.6989998,0.0913832
0.6999998,0.09150583
0.6990003,0.091046
0.6980003,0.09058618
0.6970003,0.09012636
0.6960003,0.08966654
0.6950003,0.08917606
0.6940003,0.08874689
0.6930003,0.08825641
0.6920003,0.08779659
0.6910003,0.08736742
0.6900003,0.08687695
0.6890003,0.08641712
0.6880003,0.0859573
0.6870003,0.08549748
0.6860003,0.085007
0.6850003,0.08457784
0.6840003,0.08408736
0.6830003,0.08362754
0.6820003,0.08319836
0.6810003,0.08270789
0.6800003,0.08224807
0.6790003,0.0818189
0.6780003,0.08135908
0.6770003,0.08089925
0.6760003,0.08043943
0.6750003,0.07997961
0.6740003,0.07948913
0.6730003,0.07905997
0.6720003,0.07856949
0.6710003,0.07810967
0.6700003,0.0776805
0.6690003,0.07719002
0.6680003,0.0767302
0.6670003,0.07630103
0.6660003,0.07581055
0.6650003,0.07535073
0.6640003,0.07492156
0.6630003,0.07443108
0.6620003,0.07400192
0.6610003,0.0735421
0.6600003,0.07308228
0.6590003,0.07262245
0.6580003,0.07213198
0.6570003,0.07167216
0.6560003,0.07124298
0.6550003,0.07078316
0.6540003,0.07032334
0.6530003,0.06986352
0.6520003,0.0694037
0.6510003,0.06894387
0.6500003,0.06848405
0.6490003,0.06802423
0.6480003,0.06759506
0.6470003,0.06713524
0.6460003,0.06664476
0.6450003,0.06618494
0.6440003,0.06575577
0.6430003,0.06529595
0.6420003,0.06483613
0.6410003,0.06440695
0.6400003,0.06394713
0.6390003,0.06348731
0.6380003,0.06305815
0.6370003,0.06259833
0.6360003,0.0621385
0.6350003,0.06167868
0.6340003,0.06121886
0.6330003,0.06075903
0.6320003,0.06032987
0.6310003,0.05987004
0.6300003,0.05944088
0.6290003,0.05898106
0.6280003,0.05855189
0.6270003,0.05809207
0.6260003,0.05766289
0.6250003,0.05720307
0.6240003,0.05674325
0.6230003,0.05628343
0.6220003,0.05585426
0.6210003,0.05539444
0.6200003,0.05493462
0.6190003,0.0545361
0.6180003,0.05404563
0.6170003,0.05361646
0.6160003,0.05315664
0.6150003,0.05269681
0.6140003,0.05226765
0.6130003,0.05180782
0.6120003,0.05137866
0.6110003,0.05098015
0.6100003,0.05052032
0.6090003,0.05009115
0.6080003,0.04966199
0.6070003,0.04920216
0.6060003,0.048773
0.6050003,0.04831317
0.6040003,0.04785335
0.6030003,0.04742418
0.6020003,0.04699502
0.6010003,0.04653519
0.6000003,0.04610603
0.5990003,0.04567686
0.5980003,0.04521704
0.5970003,0.04478787
0.5960003,0.0443587
0.5950003,0.04392953
0.5940003,0.04346971
0.5930003,0.04304054
0.5920003,0.04261138
0.5910003,0.04218221
0.5900003,0.04175304
0.5890003,0.04132387
0.5880003,0.04089471
0.5870003,0.04046554
0.5860003,0.04003637
0.5850003,0.0396072
0.5840003,0.03917804
0.5830003,0.03874887
0.5820003,0.0383197
0.5810003,0.03785988
0.5800003,0.03743071
0.5790003,0.0370322
0.5780003,0.03660303
0.5770003,0.03617386
0.5760003,0.03577535
0.5750003,0.03534618
0.5740003,0.03491702
0.5730003,0.03448785
0.5720003,0.03405868
0.5710003,0.03366017
0.5700003,0.033231
0.5690003,0.03280183
0.5680003,0.03240332
0.5670003,0.03200481
0.5660003,0.03157564
0.5650003,0.03114647
0.5640003,0.03074796
0.5630003,0.03031879
0.5620003,0.02992028
0.5610003,0.02949111
0.5600003,0.0290926
0.5590003,0.02866343
0.5580003,0.02826492
0.5570003,0.02786641
0.5560003,0.02746789
0.5550003,0.02703872
0.5540003,0.02664021
0.5530003,0.0262417
0.5520003,0.02584319
0.5510003,0.02544468
0.5500003,0.02504616
0.5490003,0.02464765
0.5480003,0.02424913
0.5470003,0.02385062
0.5460003,0.02345211
0.5450003,0.02308425
0.5440003,0.02268574
0.5430003,0.02228723
0.5420003,0.02188871
0.5410003,0.02152086
0.5400003,0.02112234
0.5390003,0.02075448
0.5380003,0.02035597
0.5370003,0.01998811
0.5360003,0.01962026
0.5350003,0.01922174
0.5340003,0.01885389
0.5330003,0.01848603
0.5320003,0.01811817
0.5310003,0.01775031
0.5300003,0.01738245
0.5290003,0.0170146
0.5280003,0.01664674
0.5270003,0.01627888
0.5260003,0.01594168
0.5250003,0.01557382
0.5240003,0.01520596
0.5230003,0.01486876
0.5220003,0.0145009
0.5210003,0.0141637
0.5200003,0.01382649
0.5190003,0.01345864
0.5180003,0.01312143
0.5170003,0.01231109
0.5160003,0.01197696
0.5150003,0.01165202
0.5140003,0.01132707
0.5130003,0.01100213
0.5120003,0.01067719
0.5110003,0.01036145
0.5100003,0.0100457
0.5090003,0.009736089
0.5080003,0.009426476
0.5070003,0.009122993
0.5060003,0.008822575
0.5050003,0.008528289
0.5040003,0.008230938
0.5030003,0.007942782
0.5020003,0.007657692
0.5010003,0.007372602
0.5000003,0.007093643
0.4990003,0.006820816
0.4980003,0.006547987
0.4970003,0.006284356
0.4960003,0.00602379
0.4950003,0.005763224
0.4940003,0.005511854
0.4930003,0.005260485
0.4920003,0.005015246
0.4910003,0.004779204
0.4900003,0.004543162
0.4890003,0.004313251
0.4880003,0.00408947
0.4870003,0.003868756
0.4860003,0.003654172
0.4850003,0.003445719
0.4840003,0.003240332
0.4830003,0.003044141
0.4820003,0.00284795
0.4810003,0.002660956
0.4800003,0.002477027
0.4790003,0.002299229
0.4780003,0.002130627
0.4770003,0.001962026
0.4760003,0.001799555
0.4750003,0.001646281
0.4740003,0.001493007
0.4730003,0.001348929
0.4720003,0.001210982
0.4710003,0.001043502
0.4700003,0.0009184303
0.4690003,0.0007942782
0.4680003,0.0006738048
0.4670003,0.0005613015
0.4660003,0.0004512507
0.4650003,0.0003467178
0.4640003,0.0002486223
0.4630003,0.0001517531
0.4620003,6.285407E-05
0.4610003,-3.056169E-05
0.4600003,-0.0001129619
0.4590003,-0.0001865948
0.4580003,-0.0002617604
0.4570003,-0.0003317454
0.4560003,-0.0003957421
0.4550003,-0.0004595042
0.4540003,-0.0005183615
0.4530003,-0.0005741533
0.4520003,-0.0006302515
0.4510003,-0.00067746
0.4500003,-0.0007262012
0.4490003,-0.00077249
0.4480003,-0.000813874
0.4470003,-0.0008567907
0.4460003,-0.0008926569
0.4450003,-0.00092791
0.4440003,-0.0009634696
0.4430003,-0.0009938178
0.4420003,-0.001026619
0.4410003,-0.001056047
0.4400003,-0.001080571
0.4390003,-0.001109693
0.4380003,-0.001132684
0.4370003,-0.001156288
0.4360003,-0.001179893
0.4350003,-0.001197673
0.4340003,-0.00122097
0.4330003,-0.00123967
0.4320003,-0.00125561
0.4310003,-0.001277068
0.4300003,-0.001292396
0.4290003,-0.00130895
0.4280003,-0.001326729
0.4270003,-0.001339298
0.4260003,-0.001354932
0.4250003,-0.001369646
0.4240003,-0.001381295
0.4230003,-0.001397849
0.4220003,-0.001410417
0.4210003,-0.001421146
0.4200003,-0.001434634
0.4190003,-0.001445364
0.4180003,-0.001458545
0.4170003,-0.001469274
0.4160003,-0.00148031
0.4150003,-0.001494411
0.4140003,-0.001502382
0.4130003,-0.001513111
0.4120003,-0.001525066
0.4110003,-0.001532423
0.4100003,-0.00154959
0.4090003,-0.001563078
0.4080003,-0.001567063
0.4070003,-0.001579019
0.4060003,-0.001586376
0.4050003,-0.001594653
0.4040003,-0.001605688
0.4030003,-0.001613965
0.4020003,-0.001623775
0.4010003,-0.001633891
0.4000003,-0.001640635
0.3990003,-0.001651671
0.3980003,-0.001660254
0.3970003,-0.00167037
0.3960003,-0.001680486
0.3950003,-0.001686004
0.3940003,-0.00169704
0.3930003,-0.001705623
0.3920003,-0.001711447
0.3910003,-0.001723096
0.3900003,-0.00173076
0.3890003,-0.001739037
0.3880003,-0.001749153
0.3870003,-0.001754671
0.3860003,-0.00176448
0.3850003,-0.001773983
0.3840003,-0.001778888
0.3830003,-0.001789924
0.3820003,-0.001796361
0.3810003,-0.001803718
0.3800003,-0.001814754
0.3790003,-0.001820885
0.3780003,-0.001829162
0.3770003,-0.001837745
0.3760003,-0.001843876
0.3750003,-0.001853073
0.3740003,-0.001858591
0.3730003,-0.001865335
0.3720003,-0.001874838
0.3710003,-0.001880969
0.3700003,-0.001888632
0.3690003,-0.00189507
0.3680003,-0.001900281
0.3670003,-0.001909171
0.3660003,-0.001914076
0.3650003,-0.00192082
0.3640003,-0.001929097
0.3630003,-0.001932775
0.3620003,-0.001939826
0.3610003,-0.00194657
0.3600003,-0.001949329
0.3590003,-0.001958525
0.3580003,-0.001964656
0.3570003,-0.001967109
0.3560003,-0.001974159
0.3550003,-0.001977838
0.3540003,-0.001982436
0.3530003,-0.001987647
0.3520003,-0.001991019
0.3510003,-0.001996231
0.3500003,-0.00199899
0.3490003,-0.002002668
0.3480003,-0.002007573
0.3470003,-0.002008493
0.3460003,-0.002013397
0.3450003,-0.002016463
0.3440003,-0.002016463
0.3430003,-0.002021674
0.3420003,-0.002021368
0.3410003,-0.002022594
0.3400003,-0.002026579
0.3390003,-0.002025353
0.3380003,-0.002027499
0.3370003,-0.002028418
0.3360003,-0.002025353
0.3350003,-0.002027499
0.3340003,-0.002026272
0.3330003,-0.002023207
0.3320003,-0.00202474
0.3310003,-0.002021061
0.3300003,-0.002018915
0.3290003,-0.002017383
0.3280003,-0.002012784
0.3270003,-0.002011558
0.3260003,-0.00200696
0.3250003,-0.002002055
0.3240003,-0.001998377
0.3230003,-0.001992552
0.3220003,-0.001987954
0.3210003,-0.00198029
0.3200003,-0.001973853
0.3190003,-0.001968641
0.3180003,-0.001958525
0.3170003,-0.001949635
0.3160003,-0.001941972
0.3150003,-0.001930016
0.3140003,-0.001921433
0.3130003,-0.001911317
0.3120003,-0.001897216
0.3110003,-0.001887406
0.3100003,-0.001873611
0.3090003,-0.001860123
0.3080003,-0.001847555
0.3070003,-0.001834373
0.3060003,-0.001818433
0.3050003,-0.001802492
0.3040003,-0.001784406
0.3030003,-0.001768159
0.3020003,-0.001749153
0.3010003,-0.001730147
0.3000003,-0.001712367
0.2990003,-0.001691215
0.2980003,-0.001670983
0.2970003,-0.001650444
0.2960003,-0.00162684
0.2950003,-0.001606301
0.2940003,-0.001583617
0.2930003,-0.001558786
0.2920003,-0.001536102
0.2910003,-0.001510352
0.2900003,-0.001485215
0.2890003,-0.001460384
0.2880003,-0.001434021
0.2870003,-0.001407658
0.2860003,-0.001380682
0.2850003,-0.001354012
0.2840003,-0.001327342
0.2830003,-0.001299447
0.2820003,-0.001272164
0.2810003,-0.001244574
0.2800003,-0.001216678
0.2790003,-0.001190622
0.2780003,-0.001162726
0.2770003,-0.001136056
0.2760003,-0.001110306
0.2750003,-0.001083943
0.2740003,-0.001059113
0.2730003,-0.001034589
0.2720003,-0.001009758
0.2710003,-0.0009867672
0.2700003,-0.0009640827
0.2690003,-0.0009423177
0.2680003,-0.0009214724
0.2670003,-0.0009009338
0.2660003,-0.0008813146
0.2650003,-0.0008629217
0.2640003,-0.0008442223
0.2630003,-0.0008279752
0.2620003,-0.0008114216
0.2610003,-0.0007951746
0.2600003,-0.0007804602
0.2590003,-0.000766359
0.2580003,-0.0007528709
0.2570003,-0.0007399959
0.2560003,-0.0007271208
0.2550003,-0.000715472
0.2540003,-0.0007041298
0.2530003,-0.0006927875
0.2520003,-0.0006823648
0.2510003,-0.0006722487
0.2500003,-0.0006627457
0.2490003,-0.0006538558
0.2480003,-0.0006443528
0.2470003,-0.000636076
0.2460003,-0.0006277992
0.2450003,-0.0006195224
0.2440003,-0.0006121653
0.2430003,-0.000604808
0.2420003,-0.0005977575
0.2410003,-0.0005910134
0.2400003,-0.0005842693
0.2390003,-0.0005778318
0.2380003,-0.0005720074
0.2370003,-0.0005658764
0.2360003,-0.000560052
0.2350003,-0.0005545341
0.2340003,-0.0005493228
0.2330003,-0.0005441115
0.2320003,-0.0005389001
0.2310003,-0.000534302
0.2300003,-0.0005293972
0.2290003,-0.0005247989
0.2280003,-0.0005205073
0.2270003,-0.0005162156
0.2260003,-0.0005119239
0.2250003,-0.0005079389
0.2240003,-0.0005036471
0.2230003,-0.0004999685
0.2220003,-0.00049629
0.2210003,-0.0004923049
0.2200003,-0.0004889328
0.2190003,-0.0004858673
0.2180003,-0.0004821887
0.2170003,-0.0004794298
0.2160003,-0.0004760578
0.2150003,-0.0004729923
0.2140003,-0.0004699268
0.2130003,-0.0004671679
0.2120003,-0.0004644089
0.2110003,-0.00046165
0.2100003,-0.0004588911
0.2090003,-0.0004561322
0.2080003,-0.0004536798
0.2070003,-0.0004512274
0.2060003,-0.000448775
0.2050003,-0.0004463226
0.2040003,-0.0004441768
0.2030003,-0.0004417244
0.2020003,-0.0004398851
0.2010003,-0.0004374327
0.2000003,-0.0004352869
0.1990003,-0.0004334476
0.1980003,-0.0004313017
0.1970003,-0.0004291559
0.1960003,-0.0004276232
0.1950003,-0.0004257839
0.1940003,-0.0004239446
0.1930003,-0.0004221053
0.1920003,-0.000420266
0.1910003,-0.0004187333
0.1900003,-0.000416894
0.1890003,-0.0004150547
0.1880003,-0.0004138285
0.1870003,-0.0004119892
0.1860003,-0.000410763
0.1850003,-0.0004092303
0.1840003,-0.0004076975
0.1830003,-0.0004064713
0.1820003,-0.0004052451
0.1810003,-0.0004037124
0.1800003,-0.0004021796
0.1790003,-0.0004009535
0.1780003,-0.0003994207
0.1770003,-0.0003981945
0.1760003,-0.0003969684
0.1750003,-0.0003957421
0.1740003,-0.0003948225
0.1730003,-0.0003935963
0.1720003,-0.0003923701
0.1710003,-0.0003914505
0.1700003,-0.0003905308
0.1690003,-0.0003896112
0.1680003,-0.000388385
0.1670003,-0.0003874653
0.1660003,-0.0003865457
0.1650003,-0.0003856261
0.1640003,-0.0003847064
0.1630003,-0.0003834802
0.1620003,-0.0003825606
0.1610003,-0.0003819475
0.1600003,-0.0003807213
0.1590003,-0.0003801082
0.1580003,-0.0003794951
0.1570003,-0.0003782689
0.1560003,-0.0003779623
0.1550003,-0.0003773492
0.1540003,-0.0003761231
0.1530003,-0.00037551
0.1520003,-0.0003748969
0.1510003,-0.0003739772
0.1500003,-0.0003733641
0.1490003,-0.000372751
0.1480003,-0.0003721379
0.1470003,-0.0003715248
0.1460003,-0.0003709117
0.1450003,-0.0003699921
0.1440003,-0.000369379
0.1430003,-0.0003690725
0.1420003,-0.0003681528
0.1410003,-0.0003675397
0.1400003,-0.0003672332
0.1390003,-0.0003666201
0.1380003,-0.0003660069
0.1370003,-0.0003657004
0.1360003,-0.0003647808
0.1350003,-0.0003644742
0.1340003,-0.0003638611
0.1330003,-0.0003632481
0.1320003,-0.0003629415
0.1310003,-0.0003623284
0.1300003,-0.0003617153
0.1290003,-0.0003614087
0.1280003,-0.0003607956
0.1270003,-0.0003604891
0.1260003,-0.000359876
0.1250003,-0.0003595694
0.1240003,-0.0003589563
0.1230003,-0.0003586498
0.1220003,-0.0003580367
0.1210003,-0.0003577302
0.1200003,-0.0003574236
0.1190003,-0.0003571171
0.1180003,-0.000356504
0.1170003,-0.0003561974
0.1160003,-0.0003555843
0.1150003,-0.0003552778
0.1140003,-0.0003546647
0.1130003,-0.0003543581
0.1120003,-0.000353745
0.1110003,-0.000353745
0.1100003,-0.0003531319
0.1090003,-0.0003528254
0.1080003,-0.0003525188
0.1070003,-0.0003522123
0.1060003,-0.0003519058
0.1050003,-0.0003515992
0.1040003,-0.0003506796
0.1030003,-0.0003506796
0.1020003,-0.000350373
0.1010003,-0.0003497599
0.1000003,-0.0003494534
0.09900028,-0.0003491468
0.09800029,-0.0003488403
0.09700029,-0.0003485337
0.09600028,-0.0003479206
0.09500029,-0.0003473075
0.09400029,-0.0003473075
0.09300029,-0.0003466944
0.09200028,-0.0003466944
0.09100029,-0.0003463879
0.09000029,-0.0003460813
0.08900028,-0.0003454682
0.08800028,-0.0003451617
0.08700029,-0.0003445486
0.08600029,-0.000344242
0.08500028,-0.0003439355
0.08400029,-0.0003433224
0.08300029,-0.0003430158
0.08200029,-0.0003427093
0.08100028,-0.0003424028
0.08000029,-0.0003417897
0.07900029,-0.0003414831
0.07800028,-0.0003411766
0.07700028,-0.00034087
0.07600029,-0.0003402569
0.07500029,-0.0003399504
0.07400028,-0.0003393373
0.07300029,-0.0003390307
0.07200029,-0.0003381111
0.07100029,-0.0003378045
0.07000028,-0.000337498
0.06900029,-0.0003368849
0.06800029,-0.0003365783
0.06700028,-0.0003359652
0.06600028,-0.0003356587
0.06500029,-0.0003350456
0.06400029,-0.0003344325
0.06300028,-0.0003338194
0.06200029,-0.0003335129
0.06100029,-0.0003325932
0.06000029,-0.0003319801
0.05900029,-0.000331367
0.05800029,-0.0003307539
0.05700029,-0.0003301408
0.05600028,-0.0003295277
0.05500029,-0.0003286081
0.05400028,-0.000327995
0.05300029,-0.0003270753
0.05200029,-0.0003264622
0.05100029,-0.0003255426
0.05000029,-0.0003246229
0.04900029,-0.0003240099
0.04800029,-0.0003230902
0.04700029,-0.000321864
0.04600029,-0.0003209444
0.04500028,-0.0003200247
0.04400029,-0.0003187985
0.04300028,-0.0003175724
0.04200029,-0.0003163462
0.04100028,-0.0003154265
0.04000029,-0.0003138937
0.03900029,-0.0003126676
0.03800029,-0.0003111348
0.03700029,-0.0003096021
0.03600029,-0.0003080693
0.03500029,-0.00030623
0.03400028,-0.0003046973
0.03300029,-0.0003031646
0.03200028,-0.0003010187
0.03100029,-0.0002991795
0.03000029,-0.0002973401
0.02900029,-0.0002951943
0.02800029,-0.000293355
0.02700029,-0.0002912092
0.02600029,-0.0002890633
0.02500029,-0.0002869175
0.02400029,-0.0002850782
0.02300029,-0.0002829324
0.02200029,-0.0002810931
0.02100029,-0.0002789472
0.02000029,-0.000277108
0.01900029,-0.0002752687
0.01800029,-0.0002734294
0.01700029,-0.0002712836
0.01600029,-0.0002697508
0.01500029,-0.0002679115
0.01400029,-0.0002660722
0.01300029,-0.0002645395
0.01200029,-0.0002627002
0.01100029,-0.0002608609
0.01000029,-0.0002596347
0.009000286,-0.0002577954
0.008000286,-0.0002559561
0.007000286,-0.0002541168
0.006000286,-0.0002525841
0.005000286,-0.0002510514
0.004000286,-0.0002495186
0.003000286,-0.0002479859
0.002000286,-0.0002461466
0.001000286,-0.0002443073
2.861023E-07,-0.0002394025
0.0009997139,-0.0002344978
0.001999714,-0.0002308192
0.002999714,-0.0002274471
0.003999714,-0.0002240751
0.004999714,-0.0002210096
0.005999714,-0.0002176376
0.006999714,-0.0002148787
0.007999714,-0.0002121197
0.008999714,-0.0002093608
0.009999714,-0.0002066019
0.01099971,-0.000204456
0.01199971,-0.0002016971
0.01299971,-0.0001992447
0.01399971,-0.0001970989
0.01499971,-0.0001946465
0.01599971,-0.0001925007
0.01699971,-0.0001903548
0.01799971,-0.0001879024
0.01899971,-0.0001860631
0.01999971,-0.0001842238
0.02099971,-0.0001817715
0.02199971,-0.0001799322
0.02299971,-0.0001780929
0.02399971,-0.0001762536
0.02499971,-0.0001747208
0.02599971,-0.0001728816
0.02699971,-0.0001710423
0.02799971,-0.0001695095
0.02899971,-0.0001676702
0.02999971,-0.0001661375
0.03099971,-0.0001642982
0.03199971,-0.000163072
0.03299971,-0.0001615393
0.03399972,-0.0001597
0.03499971,-0.0001615498
0.03599972,-0.0001600783
0.03699971,-0.0001587602
0.03799972,-0.000157442
0.03899971,-0.0001560626
0.03999971,-0.0001547444
0.04099971,-0.0001533649
0.04199971,-0.0001520161
0.04299971,-0.0001507286
0.04399971,-0.0001495331
0.04499971,-0.0001483988
0.04599971,-0.000147142
0.04699972,-0.0001458851
0.04799971,-0.0001447203
0.04899972,-0.0001434941
0.04999971,-0.0001424518
0.05099971,-0.0001413789
0.05199971,-0.000140214
0.05299971,-0.0001390798
0.05399971,-0.0001380375
0.05499971,-0.0001369339
0.05599971,-0.000136045
0.05699971,-0.0001350027
0.05799972,-0.0001337765
0.05899971,-0.0001328875
0.05999972,-0.0001319985
0.06099971,-0.0001310176
0.06199971,-0.0001301592
0.06299971,-0.000129025
0.06399971,-0.000128136
0.06499971,-0.0001271857
0.06599972,-0.0001263887
0.06699971,-0.000125469
0.06799971,-0.0001244574
0.06899972,-0.0001235684
0.06999972,-0.0001228021
0.07099971,-0.0001219744
0.07199971,-0.0001211467
0.07299972,-0.000120319
0.07399971,-0.0001193994
0.07499971,-0.0001186637
0.07599971,-0.000117836
0.07699972,-0.0001171309
0.07799971,-0.0001162419
0.07899971,-0.000115353
0.07999972,-0.0001146479
0.08099972,-0.0001139735
0.08199971,-0.0001132071
0.08299971,-0.000112502
0.08399972,-0.0001115824
0.08499971,-0.000110908
0.08599971,-0.0001102336
0.08699971,-0.0001094979
0.08799972,-0.0001088848
0.08899971,-0.0001081491
0.08999971,-0.0001073214
0.09099972,-0.000106647
0.09199972,-0.0001059419
0.09299971,-0.0001052675
0.09399971,-0.0001047464
0.09499972,-0.0001040107
0.09599971,-0.0001032749
0.09699971,-0.0001025086
0.09799971,-0.0001018955
0.09899972,-0.0001013437
0.09999971,-0.0001006693
0.1009997,-9.999487E-05
0.1019997,-9.95044E-05
0.1029997,-9.879933E-05
0.1039997,-9.806362E-05
0.1049997,-9.745052E-05
0.1059997,-9.680677E-05
0.1069997,-9.622433E-05
0.1079997,-9.561123E-05
0.1089997,-9.496748E-05
0.1099997,-9.4477E-05
0.1109997,-9.383325E-05
0.1119997,-9.328147E-05
0.1129997,-9.263772E-05
0.1139997,-9.202462E-05
0.1149997,-9.141152E-05
0.1159997,-9.067581E-05
0.1169997,-9.015467E-05
0.1179997,-8.966419E-05
0.1189997,-8.90511E-05
0.1199997,-8.8438E-05
0.1209997,-8.785557E-05
0.1219997,-8.733443E-05
0.1229997,-8.687461E-05
0.1239997,-8.62002E-05
0.1249997,-8.561776E-05
0.1259997,-8.497401E-05
0.1269997,-8.426895E-05
0.1279997,-8.377847E-05
0.1289997,-8.325734E-05
0.1299997,-8.267489E-05
0.1309997,-8.218442E-05
0.1319997,-8.163263E-05
0.1329997,-8.108085E-05
0.1339997,-8.052905E-05
0.1349997,-7.997728E-05
0.1359997,-7.936417E-05
0.1369997,-7.890436E-05
0.1379997,-7.822995E-05
0.1389997,-7.761685E-05
0.1399997,-7.700375E-05
0.1409997,-7.648263E-05
0.1419997,-7.599215E-05
0.1429997,-7.534839E-05
0.1439997,-7.482726E-05
0.1449997,-7.433679E-05
0.1459997,-7.375435E-05
0.1469997,-7.323321E-05
0.1479997,-7.268143E-05
0.1489997,-7.219095E-05
0.1499997,-7.166981E-05
0.1509997,-7.108737E-05
0.1519997,-7.050493E-05
0.1529997,-6.995314E-05
0.1539997,-6.93094E-05
0.1549997,-6.87576E-05
0.1559997,-6.811386E-05
0.1569997,-6.756207E-05
0.1579997,-6.704094E-05
0.1589997,-6.630522E-05
0.1599997,-6.578409E-05
0.1609997,-6.529361E-05
0.1619997,-6.458855E-05
0.1629997,-6.412873E-05
0.1639997,-6.354629E-05
0.1649997,-6.296385E-05
0.1659997,-6.235075E-05
0.1669997,-6.182961E-05
0.1679997,-6.130848E-05
0.1689997,-6.075669E-05
0.1699997,-6.008229E-05
0.1709997,-5.956116E-05
0.1719997,-5.882544E-05
0.1729997,-5.821234E-05
0.1739997,-5.75686E-05
0.1749997,-5.692484E-05
0.1759997,-5.631175E-05
0.1769997,-5.563734E-05
0.1779997,-5.505489E-05
0.1789997,-5.453377E-05
0.1799997,-5.37674E-05
0.1809997,-5.324627E-05
0.1819997,-5.263316E-05
0.1829997,-5.192811E-05
0.1839997,-5.131501E-05
0.1849997,-5.070191E-05
0.1859997,-4.999685E-05
0.1869997,-4.929179E-05
0.1879997,-4.855608E-05
0.1889997,-4.782036E-05
0.1899997,-4.720726E-05
0.1909997,-4.65022E-05
0.1919997,-4.570518E-05
0.1929997,-4.512274E-05
0.1939997,-4.447898E-05
0.1949997,-4.374327E-05
0.1959997,-4.303821E-05
0.1969997,-4.242511E-05
0.1979997,-4.172005E-05
0.1989997,-4.086172E-05
0.1999997,-4.009534E-05
0.2009997,-3.926766E-05
0.2019997,-3.85626E-05
0.2029997,-3.785754E-05
0.2039997,-3.699921E-05
0.2049997,-3.620218E-05
0.2059997,-3.558908E-05
0.2069997,-3.466944E-05
0.2079997,-3.38111E-05
0.2089997,-3.298343E-05
0.2099997,-3.212509E-05
0.2109997,-3.148134E-05
0.2119997,-3.056169E-05
0.2129997,-2.970336E-05
0.2139997,-2.878371E-05
0.2149997,-2.780276E-05
0.2159997,-2.706704E-05
0.2169997,-2.611674E-05
0.2179997,-2.516645E-05
0.2189997,-2.446138E-05
0.2199997,-2.344977E-05
0.2209997,-2.240751E-05
0.2219997,-2.145721E-05
0.2229997,-2.038429E-05
0.2239997,-1.952596E-05
0.2249997,-1.8545E-05
0.2259997,-1.750274E-05
0.2269997,-1.661375E-05
0.2279997,-1.544886E-05
0.2289997,-1.431464E-05
0.2299997,-1.330303E-05
0.2309997,-1.210749E-05
0.2319997,-1.104175E-05
0.2329997,-1.003014E-05
0.2339997,-8.828473E-06
0.2349997,-7.761685E-06
0.2359997,-6.486444E-06
0.2369997,-5.413526E-06
0.2379997,-4.260904E-06
0.2389997,-2.863044E-06
0.2399997,-1.636851E-06
0.2409997,-4.259853E-07
0.2419997,1.109821E-06
0.2429997,2.431044E-06
0.2439997,3.930065E-06
0.2449997,5.16852E-06
0.2459997,6.597035E-06
0.2469997,8.086859E-06
0.2479997,9.444869E-06
0.2489997,1.086112E-05
0.2499997,1.24613E-05
0.2509997,1.389595E-05
0.2519997,1.549306E-05
0.2529997,1.711471E-05
0.2539997,1.854015E-05
0.2549997,2.042236E-05
0.2559997,2.219526E-05
0.2569997,2.366669E-05
0.2579997,2.553664E-05
0.2589997,2.7192E-05
0.2599997,2.912325E-05
0.2609997,3.096254E-05
0.2619997,3.292445E-05
0.2629997,3.500898E-05
0.2639997,3.694023E-05
0.2649997,3.905542E-05
0.2659997,4.126256E-05
0.2669997,4.313251E-05
0.2679997,4.549293E-05
0.2689997,4.763876E-05
0.2699997,4.990722E-05
0.2709997,5.226765E-05
0.2719997,5.456676E-05
0.2729997,5.692718E-05
0.2739997,5.953284E-05
0.2749997,6.204653E-05
0.2759997,6.495875E-05
0.2769997,6.75644E-05
0.2779997,7.032333E-05
0.2789997,7.341948E-05
0.2799997,7.605579E-05
0.2809997,7.887604E-05
0.2819997,8.227872E-05
0.2829997,8.503765E-05
0.2839997,8.856296E-05
0.2849997,9.187368E-05
0.2859997,9.500048E-05
0.2869997,9.880167E-05
0.2879997,0.0001024496
0.2889997,0.0001059442
0.2899997,0.000110052
0.2909997,0.0001137612
0.2919997,0.0001181449
0.2929997,0.00012213
0.2939997,0.000126483
0.2949997,0.0001309892
0.2959997,0.0001353729
0.2969997,0.0001399404
0.2979997,0.0001449985
0.2989997,0.0001497193
0.2999997,0.0001550533
0.3009997,0.0001602033
0.3019997,0.0001656598
0.3029997,0.0001715762
0.3039997,0.0001770021
0.3049997,0.0001831024
0.3059997,0.0001894786
0.3069997,0.000196192
0.3079997,0.0002029974
0.3089997,0.0002095269
0.3099997,0.0002164855
0.3109997,0.000224088
0.3119997,0.0002313531
0.3129997,0.000239354
0.3139997,0.0002477535
0.3149997,0.0002558157
0.3159997,0.0002650734
0.3169997,0.000273994
0.3179997,0.0002831905
0.3189997,0.0002935211
0.3199997,0.0003068665
0.3209997,0.0003172891
0.3219997,0.0003283249
0.3229997,0.0003390541
0.3239997,0.0003516225
0.3249997,0.0003635779
0.3259997,0.000376453
0.3269997,0.0003902476
0.3279997,0.0004040423
0.3289997,0.0004187566
0.3299997,0.0004343906
0.3309997,0.000449718
0.3319997,0.0004671912
0.3329997,0.0004843579
0.3339997,0.0005021378
0.3349997,0.0005214503
0.3359997,0.0005413759
0.3369997,0.0005625277
0.3379997,0.0005842927
0.3389997,0.0006072838
0.3399997,0.0006327273
0.3409997,0.0006566381
0.3419997,0.0006833078
0.3429997,0.0007118168
0.3439997,0.0007400193
0.3449997,0.0007712871
0.3459997,0.0008043944
0.3469997,0.0008362754
0.3479997,0.0008730612
0.3489997,0.0009095404
0.3499997,0.0009469393
0.3509997,0.0009880167
0.3519997,0.001029401
0.3529997,0.001072317
0.3539997,0.001117687
0.3549997,0.00116183
0.3559997,0.001209958
0.3569997,0.001256246
0.3579997,0.001304068
0.3589997,0.001353116
0.3599997,0.001400018
0.3609997,0.001447226
0.3619997,0.001493821
0.3629997,0.001538884
0.3639997,0.001584253
0.3649997,0.001626863
0.3659997,0.001667634
0.3669997,0.001707486
0.3679997,0.001743965
0.3689997,0.001781057
0.3699997,0.001816004
0.3709997,0.001849111
0.3719997,0.001882831
0.3729997,0.001911953
0.3739997,0.001941382
0.3749997,0.001970504
0.3759997,0.001995028
0.3769997,0.00202323
0.3779997,0.002048367
0.3789997,0.002071972
0.3799997,0.002098641
0.3809997,0.002118873
0.3819997,0.002141558
0.3829997,0.002166695
0.3839997,0.002184168
0.3849997,0.002207159
0.3859997,0.002229537
0.3869997,0.002247317
0.3879997,0.002269389
0.3889997,0.002288088
0.3899997,0.002305561
0.3909997,0.002326407
0.3919997,0.002342654
0.3929997,0.002360433
0.3939997,0.002378826
0.3949997,0.002394154
0.3959997,0.002411934
0.3969997,0.002428487
0.3979997,0.002444121
0.3989997,0.002459755
0.3999997,0.002474163
0.4009997,0.002489184
0.4019997,0.002502672
0.4029997,0.002517386
0.4039997,0.002532714
0.4049997,0.002541297
0.4059997,0.002556011
0.4069997,0.00256858
0.4079997,0.002576244
0.4089997,0.002594636
0.4099997,0.002608738
0.4109997,0.002615788
0.4119997,0.002629889
0.4129997,0.002635714
0.4139997,0.002643991
0.4149997,0.00265472
0.4159997,0.002661157
0.4169997,0.002669128
0.4179997,0.002678937
0.4189997,0.002682922
0.4199997,0.002692425
0.4209997,0.002697024
0.4219997,0.002703768
0.4229997,0.002711431
0.4239997,0.00271327
0.4249997,0.002719708
0.4259997,0.002725533
0.4269997,0.002727372
0.4279997,0.002733196
0.4289997,0.002736875
0.4299997,0.002739327
0.4309997,0.002744232
0.4319997,0.002744538
0.4329997,0.002746684
0.4339997,0.002750363
0.4349997,0.002750669
0.4359997,0.002754348
0.4369997,0.002754655
0.4379997,0.002756187
0.4389997,0.00275864
0.4399997,0.002756187
0.4409997,0.002761399
0.4419997,0.002761399
0.4429997,0.002760173
0.4439997,0.002765077
0.4449997,0.002760479
0.4459997,0.002761399
0.4469997,0.002764464
0.4479997,0.002762931
0.4489997,0.00276569
0.4499997,0.002766303
0.4509997,0.002764464
0.4519997,0.002770595
0.4529997,0.002769675
0.4539997,0.002770289
0.4549997,0.002775806
0.4559997,0.002775193
0.4569997,0.002779485
0.4579997,0.002784083
0.4589997,0.002787455
0.4599997,0.002794199
0.4609997,0.002801556
0.4619997,0.002807994
0.4629997,0.00281719
0.4639997,0.002825467
0.4649997,0.002837729
0.4659997,0.002849991
0.4669997,0.002864399
0.4679997,0.002881872
0.4689997,0.002898732
0.4699997,0.002920497
0.4709997,0.002944714
0.4719997,0.002968625
0.4729997,0.0030002
0.4739997,0.003062534
0.4749997,0.003093189
0.4759997,0.003136105
0.4769997,0.003175956
0.4779997,0.003225004
0.4789997,0.003280183
0.4799997,0.003338427
0.4809997,0.003402802
0.4819997,0.003473309
0.4829997,0.00354688
0.4839997,0.003632714
0.4849997,0.003721613
0.4859997,0.003816642
0.4869997,0.003923934
0.4879997,0.004034291
0.4889997,0.004156911
0.4899997,0.004285661
0.4909997,0.004423608
0.4919997,0.004570751
0.4929997,0.004727091
0.4939997,0.004889561
0.4949997,0.005061228
0.4959997,0.005242092
0.4969997,0.005432152
0.4979997,0.005631408
0.4989997,0.005839861
0.4999997,0.00605751
0.5009997,0.006278225
0.5019997,0.006511202
0.5029997,0.006750309
0.5039997,0.006992483
0.5049997,0.007256114
0.5059997,0.007513615
0.5069997,0.007780312
0.5079997,0.00805927
0.5089997,0.008335164
0.5099997,0.008626385
0.5109997,0.008920671
0.5119997,0.009221088
0.5129997,0.009530702
0.5139997,0.00983725
0.5149997,0.01014993
0.5159997,0.01047487
0.5169997,0.01079675
0.5179997,0.01112169
0.5189997,0.01145889
0.5199997,0.01179303
0.5209997,0.01213023
0.5219997,0.0124797
0.5229997,0.01281996
0.5239997,0.01316943
0.5249997,0.01353116
0.5259997,0.01388369
0.5269997,0.01424541
0.5279997,0.01460714
0.5289997,0.01497193
0.5299997,0.01534286
0.5309997,0.01571378
0.5319997,0.0160847
0.5329997,0.01646176
0.5339997,0.01683881
0.5349997,0.01721586
0.5359997,0.01759905
0.5369997,0.01798224
0.5379997,0.01836236
0.5389997,0.01875474
0.5399997,0.01914405
0.5409997,0.01953337
0.5419997,0.01993188
0.5429997,0.0203212
0.5439997,0.02071665
0.5449997,0.02111823
0.5459997,0.02150754
0.5469997,0.02191219
0.5479997,0.02232296
0.5489997,0.02271534
0.5499997,0.02312305
0.5509997,0.02353689
0.5519997,0.02393541
0.5529997,0.02434925
0.5539997,0.02476002
0.5549997,0.0251616
0.5559997,0.02558157
0.5569997,0.02599234
0.5579997,0.02639699
0.5589997,0.02682002
0.5599997,0.02723387
0.5609997,0.02764464
0.5619997,0.02807381
0.5629997,0.02849071
0.5639997,0.02890762
0.5649997,0.02933679
0.5659997,0.02975675
0.5669997,0.03017366
0.5679997,0.03136105
0.5689997,0.03175957
0.5699997,0.03218874
0.5709997,0.0326179
0.5719997,0.03304707
0.5729997,0.03347624
0.5739997,0.03390541
0.5749997,0.03433457
0.5759997,0.03476374
0.5769997,0.03522356
0.5779997,0.03565273
0.5789997,0.0360819
0.5799997,0.03654172
0.5809997,0.03694023
0.5819997,0.03740006
0.5829997,0.03782922
0.5839997,0.03825839
0.5849997,0.03871821
0.5859997,0.03917804
0.5869997,0.0396072
0.5879997,0.04003637
0.5889997,0.04046554
0.5899997,0.04092536
0.5909997,0.04135453
0.5919997,0.04181435
0.5929997,0.04224352
0.5939997,0.04270334
0.5949997,0.04313251
0.5959997,0.04359233
0.5969997,0.0440215
0.5979997,0.04448132
0.5989997,0.04491049
0.5999997,0.04537031
0.6009997,0.04583013
0.6019997,0.0462593
0.6029997,0.04671912
0.6039997,0.04717895
0.6049997,0.04760811
0.6059997,0.04806793
0.6069997,0.04852776
0.6079997,0.04895693
0.6089997,0.0494474
0.6099997,0.04987657
0.6109997,0.05030574
0.6119997,0.05079622
0.6129997,0.05122538
0.6139997,0.0516852
0.6149997,0.05214503
0.6159997,0.05260485
0.6169997,0.05306467
0.6179997,0.05352449
0.6189997,0.05398431
0.6199997,0.05444414
0.6209997,0.05490396
0.6219997,0.05536379
0.6229997,0.05579295
0.6239997,0.05628343
0.6249997,0.0567126
0.6259997,0.05717242
0.6269997,0.05763224
0.6279997,0.05809207
0.6289997,0.05855189
0.6299997,0.05901171
0.6309997,0.05947153
0.6319997,0.05993135
0.6329997,0.06039118
0.6339997,0.060851
0.6349997,0.06131082
0.6359997,0.06177064
0.6369997,0.06223046
0.6379997,0.06269029
0.6389997,0.06318077
0.6399997,0.06364059
0.6409997,0.06410041
0.6419997,0.06456023
0.6429997,0.06502005
0.6439997,0.06547987
0.6449997,0.06590905
0.6459997,0.06639952
0.6469997,0.06685934
0.6479997,0.06731917
0.6489997,0.06777899
0.6499997,0.06823882
0.6509997,0.06869864
0.6519997,0.06915846
0.6529997,0.06964894
0.6539997,0.07010876
0.6549997,0.07053792
0.6559997,0.07105906
0.6569997,0.07148822
0.6579997,0.0719787
0.6589997,0.07246917
0.6599997,0.07289835
0.6609997,0.07335817
0.6619997,0.07384864
0.6629997,0.07430847
0.6639997,0.07476829
0.6649997,0.07525877
0.6659997,0.07568794
0.6669997,0.07617841
0.6679997,0.07663824
0.6689997,0.07709806
0.6699997,0.07758854
0.6709997,0.07804836
0.6719997,0.07850818
0.6729997,0.078968
0.6739997,0.07945848
0.6749997,0.0799183
0.6759997,0.08040877
0.6769997,0.08086859
0.6779997,0.08132842
0.6789997,0.0818189
0.6799997,0.08227872
0.6809997,0.08270789
0.6819997,0.08319836
0.6829997,0.08365819
0.6839997,0.08411801
0.6849997,0.08460849
0.6859997,0.08509897
0.6869997,0.08555879
0.6879997,0.08601861
0.6889997,0.08650909
0.6899997,0.08696891
0.6909997,0.08742873
0.6919997,0.08791921
0.6929997,0.08837903
0.6939997,0.0888695
0.6949997,0.08935999
0.6959997,0.08981981
0.6969997,0.09031029
0.6979997,0.09077011
0.6989997,0.09122993
0.6999997,0.0913832
0.6990004,0.09092338
0.6980004,0.0904329
0.6970004,0.08997308
0.6960004,0.08954392
0.6950004,0.08905344
0.6940004,0.08859362
0.6930004,0.0881338
0.6920004,0.08764332
0.6910004,0.08721415
0.6900004,0.08672367
0.6890004,0.08626385
0.6880004,0.08580403
0.6870004,0.0853442
0.6860004,0.08488438
0.6850004,0.08442456
0.6840004,0.08396474
0.6830004,0.08350492
0.6820004,0.08304509
0.6810004,0.08258527
0.6800004,0.08212545
0.6790004,0.08166563
0.6780004,0.08120581
0.6770004,0.08071532
0.6760004,0.08028616
0.6750004,0.07982634
0.6740004,0.07936651
0.6730004,0.07890669
0.6720004,0.07844687
0.6710004,0.07798705
0.6700004,0.07752723
0.6690004,0.0770674
0.6680004,0.07660758
0.6670004,0.07614776
0.6660004,0.07568794
0.6650004,0.07525877
0.6640004,0.07476829
0.6630004,0.07430847
0.6620004,0.07387929
0.6610004,0.07338882
0.6600004,0.07295965
0.6590004,0.07249983
0.6580004,0.07204001
0.6570004,0.07158019
0.6560004,0.07115102
0.6550004,0.07066055
0.6540004,0.07020072
0.6530004,0.06977155
0.6520004,0.06925042
0.6510004,0.06882125
0.6500004,0.06839209
0.6490004,0.0679016
0.6480004,0.06747244
0.6470004,0.06701262
0.6460004,0.0665528
0.6450004,0.06609298
0.6440004,0.06566381
0.6430004,0.06520399
0.6420004,0.06474417
0.6410004,0.06428434
0.6400004,0.06382452
0.6390004,0.06339534
0.6380004,0.06293552
0.6370004,0.06247571
0.6360004,0.06204654
0.6350004,0.06158672
0.6340004,0.06112689
0.6330004,0.06069772
0.6320004,0.0602379
0.6310004,0.05977808
0.6300004,0.05934891
0.6290004,0.05888909
0.6280004,0.05842927
0.6270004,0.0580001
0.6260004,0.05754028
0.6250004,0.05711111
0.6240004,0.05665129
0.6230004,0.05619146
0.6220004,0.0557623
0.6210004,0.05533313
0.6200004,0.05487331
0.6190004,0.05444414
0.6180004,0.05398431
0.6170004,0.05352449
0.6160004,0.05309533
0.6150004,0.0526355
0.6140004,0.05217568
0.6130004,0.05174651
0.6120004,0.05128669
0.6110004,0.05085753
0.6100004,0.05042836
0.6090004,0.04996854
0.6080004,0.04953937
0.6070004,0.0491102
0.6060004,0.04865038
0.6050004,0.04822121
0.6040004,0.04779204
0.6030004,0.04736288
0.6020004,0.04690305
0.6010004,0.04647389
0.6000004,0.04601406
0.5990004,0.04558489
0.5980004,0.04515573
0.5970004,0.04469591
0.5960004,0.04426674
0.5950004,0.04383757
0.5940004,0.0434084
0.5930004,0.04297924
0.5920004,0.04255007
0.5910004,0.0421209
0.5900004,0.04169173
0.5890004,0.04126256
0.5880004,0.04083339
0.5870004,0.04040423
0.5860004,0.03997506
0.5850004,0.03954589
0.5840004,0.03911673
0.5830004,0.03868756
0.5820004,0.03825839
0.5810004,0.03782922
0.5800004,0.03740006
0.5790004,0.03697089
0.5780004,0.03654172
0.5770004,0.03611255
0.5760004,0.03571404
0.5750004,0.03528487
0.5740004,0.0348557
0.5730004,0.03445719
0.5720004,0.03402802
0.5710004,0.03359886
0.5700004,0.03320035
0.5690004,0.03277118
0.5680004,0.03234201
0.5670004,0.0319435
0.5660004,0.03154498
0.5650004,0.03111582
0.5640004,0.03068665
0.5630004,0.03028814
0.5620004,0.02985897
0.5610004,0.02946045
0.5600004,0.02906194
0.5590004,0.02863277
0.5580004,0.02823426
0.5570004,0.02783575
0.5560004,0.02743724
0.5550004,0.02700807
0.5540004,0.02660956
0.5530004,0.02621104
0.5520004,0.02581253
0.5510004,0.02541402
0.5500004,0.02501551
0.5490004,0.02461699
0.5480004,0.02421848
0.5470004,0.02381997
0.5460004,0.02345211
0.5450004,0.0230536
0.5440004,0.02265508
0.5430004,0.02225657
0.5420004,0.02188871
0.5410004,0.0214902
0.5400004,0.02112234
0.5390004,0.02072383
0.5380004,0.02035597
0.5370004,0.01995746
0.5360004,0.0195896
0.5350004,0.01922174
0.5340004,0.01885389
0.5330004,0.01848603
0.5320004,0.01811817
0.5310004,0.01775031
0.5300004,0.01738245
0.5290004,0.0170146
0.5280004,0.01664674
0.5270004,0.01627888
0.5260004,0.01591102
0.5250004,0.01557382
0.5240004,0.01520596
0.5230004,0.01486876
0.5220004,0.0145009
0.5210004,0.0141637
0.5200004,0.01382649
0.5190004,0.01345864
0.5180004,0.01312143
0.5170004,0.01231416
0.5160004,0.01198309
0.5150004,0.01165508
0.5140004,0.01133014
0.5130004,0.01101133
0.5120004,0.01068639
0.5110004,0.01036758
0.5100004,0.01005796
0.5090004,0.009745286
0.5080004,0.009438737
0.5070004,0.009135255
0.5060004,0.008831772
0.5050004,0.008537485
0.5040004,0.008246264
0.5030004,0.007955044
0.5020004,0.007669954
0.5010004,0.00738793
0.5000004,0.007108971
0.4990004,0.006836143
0.4980004,0.006563315
0.4970004,0.006299683
0.4960004,0.006039117
0.4950004,0.005778552
0.4940004,0.005527182
0.4930004,0.005281943
0.4920004,0.005033639
0.4910004,0.004800662
0.4900004,0.00456462
0.4890004,0.004334709
0.4880004,0.004110929
0.4870004,0.00389328
0.4860004,0.003678696
0.4850004,0.003470243
0.4840004,0.003264856
0.4830004,0.003068665
0.4820004,0.002872474
0.4810004,0.002688545
0.4800004,0.002504616
0.4790004,0.002323753
0.4780004,0.002155151
0.4770004,0.001989615
0.4760004,0.001827144
0.4750004,0.00167387
0.4740004,0.001520596
0.4730004,0.001376518
0.4720004,0.001238572
0.4710004,0.001072931
0.4700004,0.0009475524
0.4690004,0.0008246265
0.4680004,0.0007038465
0.4670004,0.0005913433
0.4660004,0.000481599
0.4650004,0.0003782923
0.4640004,0.0002801968
0.4630004,0.0001827144
0.4620004,9.473509E-05
0.4610004,6.449187E-06
0.4600004,-8.065168E-05
0.4590004,-0.0001529051
0.4580004,-0.000229113
0.4570004,-0.0002982703
0.4560004,-0.0003607956
0.4550004,-0.0004260904
0.4540004,-0.0004834149
0.4530004,-0.000537674
0.4520004,-0.0005937723
0.4510004,-0.0006412873
0.4500004,-0.0006891088
0.4490004,-0.000735091
0.4480004,-0.0007767816
0.4470004,-0.0008187788
0.4460004,-0.0008546449
0.4450004,-0.0008895915
0.4440004,-0.000925151
0.4430004,-0.0009545796
0.4420004,-0.0009870738
0.4410004,-0.001015583
0.4400004,-0.001040107
0.4390004,-0.001068616
0.4380004,-0.001090994
0.4370004,-0.001114904
0.4360004,-0.001138509
0.4350004,-0.001155369
0.4340004,-0.00117744
0.4330004,-0.001196446
0.4320004,-0.001212387
0.4310004,-0.001233232
0.4300004,-0.001247946
0.4290004,-0.001264193
0.4280004,-0.001282586
0.4270004,-0.001293316
0.4260004,-0.00130895
0.4250004,-0.001323051
0.4240004,-0.001334393
0.4230004,-0.00134972
0.4220004,-0.001361676
0.4210004,-0.001373325
0.4200004,-0.001386506
0.4190004,-0.001395396
0.4180004,-0.001408271
0.4170004,-0.001419
0.4160004,-0.00142881
0.4150004,-0.001442911
0.4140004,-0.001450575
0.4130004,-0.001460078
0.4120004,-0.001472646
0.4110004,-0.001480617
0.4100004,-0.001496557
0.4090004,-0.001509126
0.4080004,-0.001513724
0.4070004,-0.001524146
0.4060004,-0.00153181
0.4050004,-0.001539474
0.4040004,-0.001549896
0.4030004,-0.00155848
0.4020004,-0.001567983
0.4010004,-0.001576566
0.4000004,-0.001583923
0.3990004,-0.001594346
0.3980004,-0.00160109
0.3970004,-0.001610593
0.3960004,-0.001621322
0.3950004,-0.001626534
0.3940004,-0.00163665
0.3930004,-0.001644926
0.3920004,-0.001650138
0.3910004,-0.001663013
0.3900004,-0.001670063
0.3890004,-0.001675275
0.3880004,-0.001686924
0.3870004,-0.001692441
0.3860004,-0.001701025
0.3850004,-0.001710528
0.3840004,-0.001715433
0.3830004,-0.001725855
0.3820004,-0.001732906
0.3810004,-0.001740569
0.3800004,-0.001750072
0.3790004,-0.001756203
0.3780004,-0.001764787
0.3770004,-0.001772144
0.3760004,-0.001777968
0.3750004,-0.001788085
0.3740004,-0.001791763
0.3730004,-0.001799427
0.3720004,-0.00180801
0.3710004,-0.001813528
0.3700004,-0.001821498
0.3690004,-0.001827629
0.3680004,-0.001831921
0.3670004,-0.001841117
0.3660004,-0.001846329
0.3650004,-0.001852153
0.3640004,-0.001860123
0.3630004,-0.001864108
0.3620004,-0.001870853
0.3610004,-0.001876677
0.3600004,-0.001881275
0.3590004,-0.001888939
0.3580004,-0.00189415
0.3570004,-0.001897829
0.3560004,-0.001904573
0.3550004,-0.001907025
0.3540004,-0.00191285
0.3530004,-0.001917754
0.3520004,-0.00192082
0.3510004,-0.001927564
0.3500004,-0.00192971
0.3490004,-0.001933388
0.3480004,-0.001938906
0.3470004,-0.001939213
0.3460004,-0.001944117
0.3450004,-0.001947183
0.3440004,-0.001947796
0.3430004,-0.001952088
0.3420004,-0.001953314
0.3410004,-0.001954847
0.3400004,-0.001957299
0.3390004,-0.001958219
0.3380004,-0.001959751
0.3370004,-0.001959751
0.3360004,-0.001958832
0.3350004,-0.001961284
0.3340004,-0.001958832
0.3330004,-0.001957606
0.3320004,-0.001958219
0.3310004,-0.001953314
0.3300004,-0.001953927
0.3290004,-0.001952088
0.3280004,-0.001946877
0.3270004,-0.001946263
0.3260004,-0.001943198
0.3250004,-0.001937374
0.3240004,-0.001935534
0.3230004,-0.00192971
0.3220004,-0.001923272
0.3210004,-0.001919594
0.3200004,-0.00191285
0.3190004,-0.001906719
0.3180004,-0.001898442
0.3170004,-0.001891085
0.3160004,-0.001882501
0.3150004,-0.001872079
0.3140004,-0.001864415
0.3130004,-0.001854299
0.3120004,-0.001842343
0.3110004,-0.001833147
0.3100004,-0.001819046
0.3090004,-0.001806784
0.3080004,-0.001795442
0.3070004,-0.001783486
0.3060004,-0.001768772
0.3050004,-0.001753751
0.3040004,-0.001736584
0.3030004,-0.001722177
0.3020004,-0.001704397
0.3010004,-0.00168723
0.3000004,-0.001670676
0.2990004,-0.001650751
0.2980004,-0.001631438
0.2970004,-0.001612739
0.2960004,-0.001590667
0.2950004,-0.001571661
0.2940004,-0.001550509
0.2930004,-0.001527518
0.2920004,-0.001506367
0.2910004,-0.001482762
0.2900004,-0.001459158
0.2890004,-0.00143586
0.2880004,-0.001410724
0.2870004,-0.001387732
0.2860004,-0.001362289
0.2850004,-0.001336539
0.2840004,-0.001312322
0.2830004,-0.001285958
0.2820004,-0.001260208
0.2810004,-0.001234458
0.2800004,-0.001208095
0.2790004,-0.001182652
0.2780004,-0.001158434
0.2770004,-0.001132991
0.2760004,-0.001107854
0.2750004,-0.001083637
0.2740004,-0.001060032
0.2730004,-0.001036428
0.2720004,-0.001013131
0.2710004,-0.0009913654
0.2700004,-0.0009689874
0.2690004,-0.0009487552
0.2680004,-0.0009291361
0.2670004,-0.000908904
0.2660004,-0.0008905111
0.2650004,-0.0008727313
0.2640004,-0.0008546449
0.2630004,-0.0008387044
0.2620004,-0.0008230705
0.2610004,-0.0008074365
0.2600004,-0.0007936418
0.2590004,-0.0007795406
0.2580004,-0.0007660525
0.2570004,-0.0007537905
0.2560004,-0.0007415286
0.2550004,-0.0007298798
0.2540004,-0.000718844
0.2530004,-0.0007084214
0.2520004,-0.0006979987
0.2510004,-0.0006881892
0.2500004,-0.0006789928
0.2490004,-0.0006701029
0.2480004,-0.0006609064
0.2470004,-0.0006532427
0.2460004,-0.0006446594
0.2450004,-0.0006366891
0.2440004,-0.0006296384
0.2430004,-0.0006222813
0.2420004,-0.0006155373
0.2410004,-0.0006090997
0.2400004,-0.0006023557
0.2390004,-0.0005962247
0.2380004,-0.0005907068
0.2370004,-0.0005845759
0.2360004,-0.000579058
0.2350004,-0.0005738467
0.2340004,-0.0005686354
0.2330004,-0.0005637306
0.2320004,-0.0005588258
0.2310004,-0.0005539211
0.2300004,-0.0005493228
0.2290004,-0.0005447246
0.2280004,-0.0005404329
0.2270004,-0.0005364478
0.2260004,-0.0005321561
0.2250004,-0.0005284776
0.2240004,-0.0005244924
0.2230004,-0.0005208139
0.2220004,-0.0005171353
0.2210004,-0.0005134566
0.2200004,-0.0005103912
0.2190004,-0.0005073257
0.2180004,-0.0005039537
0.2170004,-0.0005008882
0.2160004,-0.0004978227
0.2150004,-0.0004950638
0.2140004,-0.0004919983
0.2130004,-0.0004892393
0.2120004,-0.0004861739
0.2110004,-0.0004840281
0.2100004,-0.0004812691
0.2090004,-0.0004788167
0.2080004,-0.0004760578
0.2070004,-0.000473912
0.2060004,-0.0004714596
0.2050004,-0.0004693137
0.2040004,-0.0004671679
0.2030004,-0.0004650221
0.2020004,-0.0004625697
0.2010004,-0.0004607304
0.2000004,-0.0004585845
0.1990004,-0.0004564387
0.1980004,-0.0004545994
0.1970004,-0.0004527601
0.1960004,-0.0004509208
0.1950004,-0.0004490816
0.1940004,-0.0004475488
0.1930004,-0.0004457095
0.1920004,-0.0004444833
0.1910004,-0.000442644
0.1900004,-0.0004414178
0.1890004,-0.0004395786
0.1880004,-0.0004383524
0.1870004,-0.0004368196
0.1860004,-0.0004352869
0.1850004,-0.0004340607
0.1840004,-0.0004325279
0.1830004,-0.0004313017
0.1820004,-0.000429769
0.1810004,-0.0004285428
0.1800004,-0.0004276232
0.1790004,-0.0004260904
0.1780004,-0.0004251708
0.1770004,-0.0004239446
0.1760004,-0.0004227184
0.1750004,-0.0004214922
0.1740004,-0.0004205726
0.1730004,-0.0004193464
0.1720004,-0.0004181202
0.1710004,-0.0004175071
0.1700004,-0.0004162809
0.1690004,-0.0004156678
0.1680004,-0.0004147482
0.1670004,-0.0004138285
0.1660004,-0.0004129088
0.1650004,-0.0004119892
0.1640004,-0.0004110696
0.1630004,-0.0004101499
0.1620004,-0.0004092303
0.1610004,-0.0004083106
0.1600004,-0.000407391
0.1590004,-0.0004067779
0.1580004,-0.0004061648
0.1570004,-0.0004055517
0.1560004,-0.000404632
0.1550004,-0.0004037124
0.1540004,-0.0004034059
0.1530004,-0.0004024862
0.1520004,-0.0004018731
0.1510004,-0.00040126
0.1500004,-0.0004006469
0.1490004,-0.0004003404
0.1480004,-0.0003994207
0.1470004,-0.0003988076
0.1460004,-0.0003981945
0.1450004,-0.000397888
0.1440004,-0.0003969684
0.1430004,-0.0003963552
0.1420004,-0.0003960487
0.1410004,-0.0003954356
0.1400004,-0.0003951291
0.1390004,-0.0003948225
0.1380004,-0.0003942094
0.1370004,-0.0003935963
0.1360004,-0.0003929832
0.1350004,-0.0003926767
0.1340004,-0.0003923701
0.1330004,-0.000391757
0.1320004,-0.0003914505
0.1310004,-0.0003908373
0.1300004,-0.0003902243
0.1290004,-0.0003899177
0.1280004,-0.0003896112
0.1270004,-0.0003893046
0.1260004,-0.0003889981
0.1250004,-0.0003886915
0.1240004,-0.0003880784
0.1230004,-0.0003880784
0.1220004,-0.0003874653
0.1210004,-0.0003868522
0.1200004,-0.0003868522
0.1190004,-0.0003865457
0.1180004,-0.0003859326
0.1170004,-0.0003859326
0.1160004,-0.0003853195
0.1150004,-0.0003850129
0.1140004,-0.0003847064
0.1130004,-0.0003843998
0.1120004,-0.0003837868
0.1110004,-0.0003837868
0.1100004,-0.0003831737
0.1090004,-0.0003828671
0.1080004,-0.0003828671
0.1070004,-0.000382254
0.1060004,-0.0003819475
0.1050004,-0.0003819475
0.1040004,-0.0003813344
0.1030004,-0.0003810278
0.1020004,-0.0003807213
0.1010004,-0.0003804147
0.1000004,-0.0003804147
0.09900038,-0.0003801082
0.09800038,-0.0003798016
0.09700038,-0.0003794951
0.09600038,-0.000378882
0.09500038,-0.000378882
0.09400038,-0.0003785754
0.09300038,-0.0003782689
0.09200038,-0.0003779623
0.09100038,-0.0003776558
0.09000038,-0.0003773492
0.08900038,-0.0003767362
0.08800038,-0.0003764296
0.08700038,-0.0003761231
0.08600038,-0.0003758165
0.08500038,-0.00037551
0.08400038,-0.0003752034
0.08300038,-0.0003748969
0.08200038,-0.0003745903
0.08100038,-0.0003742838
0.08000038,-0.0003736707
0.07900038,-0.0003736707
0.07800038,-0.0003730576
0.07700038,-0.0003724445
0.07600038,-0.0003724445
0.07500038,-0.0003721379
0.07400038,-0.0003715248
0.07300038,-0.0003712183
0.07200038,-0.0003706052
0.07100038,-0.0003702986
0.07000038,-0.0003699921
0.06900038,-0.000369379
0.06800038,-0.0003690725
0.06700038,-0.0003687659
0.06600038,-0.0003681528
0.06500039,-0.0003678463
0.06400038,-0.0003672332
0.06300038,-0.0003663135
0.06200038,-0.0003660069
0.06100038,-0.0003657004
0.06000038,-0.0003647808
0.05900038,-0.0003647808
0.05800038,-0.0003638611
0.05700038,-0.0003635546
0.05600038,-0.0003626349
0.05500038,-0.0003617153
0.05400038,-0.0003611022
0.05300038,-0.0003604891
0.05200038,-0.0003595694
0.05100038,-0.0003589563
0.05000038,-0.0003583433
0.04900038,-0.0003574236
0.04800038,-0.000356504
0.04700038,-0.0003555843
0.04600038,-0.0003543581
0.04500038,-0.000353745
0.04400038,-0.0003528254
0.04300038,-0.0003515992
0.04200038,-0.000350373
0.04100038,-0.0003491468
0.04000038,-0.0003479206
0.03900038,-0.0003463879
0.03800038,-0.0003454682
0.03700038,-0.0003439355
0.03600038,-0.0003427093
0.03500038,-0.00034087
0.03400038,-0.0003396438
0.03300038,-0.000337498
0.03200038,-0.0003356587
0.03100038,-0.0003338194
0.03000038,-0.0003319801
0.02900038,-0.0003295277
0.02800038,-0.0003276884
0.02700038,-0.000325236
0.02600038,-0.0003227837
0.02500038,-0.0003203313
0.02400038,-0.0003178789
0.02300038,-0.0003154265
0.02200038,-0.0003126676
0.02100038,-0.0003102152
0.02000038,-0.0003077628
0.01900038,-0.0003050039
0.01800038,-0.0003025515
0.01700038,-0.0002997925
0.01600038,-0.0002973401
0.01500038,-0.0002948878
0.01400038,-0.0002924354
0.01300038,-0.0002896764
0.01200038,-0.0002875306
0.01100038,-0.0002850782
0.01000038,-0.0002826258
0.009000381,-0.00028048
0.008000381,-0.0002780276
0.007000382,-0.0002758818
0.006000381,-0.0002734294
0.005000381,-0.0002712836
0.004000382,-0.0002691377
0.003000381,-0.0002669919
0.002000381,-0.0002648461
0.001000381,-0.0002627002
3.814697E-07,-0.0002571823
0.0009996186,-0.000251971
0.001999618,-0.0002476793
0.002999618,-0.0002433877
0.003999618,-0.0002397091
0.004999619,-0.000236337
0.005999619,-0.0002326585
0.006999618,-0.000229593
0.007999619,-0.0002265275
0.008999619,-0.000223462
0.009999619,-0.0002203965
0.01099962,-0.0002176376
0.01199962,-0.0002148787
0.01299962,-0.0002124263
0.01399962,-0.0002096674
0.01499962,-0.000207215
0.01599962,-0.0002047626
0.01699962,-0.0002023102
0.01799962,-0.0002001643
0.01899962,-0.0001980185
0.01999962,-0.0001955661
0.02099962,-0.0001934203
0.02199962,-0.0001912744
0.02299962,-0.0001891286
0.02399962,-0.0001872893
0.02499962,-0.00018545
0.02599962,-0.0001833042
0.02699962,-0.0001817715
0.02799962,-0.0001799322
0.02899962,-0.0001780929
0.02999962,-0.0001765601
0.03099962,-0.0001747208
0.03199962,-0.0001728816
0.03299962,-0.0001713488
0.03399962,-0.0001698161
0.03499962,-0.0001682833
0.03599962,-0.0001667506
0.03699962,-0.0001649113
0.03799962,-0.0001636851
0.03899962,-0.0001621524
0.03999962,-0.0001609262
0.04099962,-0.000162592
0.04199962,-0.0001612126
0.04299962,-0.0001598944
0.04399962,-0.0001584843
0.04499962,-0.0001572581
0.04599962,-0.0001559399
0.04699962,-0.0001545911
0.04799962,-0.0001533956
0.04899962,-0.0001522001
0.04999962,-0.0001508512
0.05099962,-0.0001497476
0.05199962,-0.0001485215
0.05299962,-0.0001473872
0.05399962,-0.000146345
0.05499962,-0.0001452108
0.05599962,-0.0001440765
0.05699962,-0.0001430343
0.05799962,-0.000141992
0.05899962,-0.0001409191
0.05999962,-0.0001398768
0.06099962,-0.0001388039
0.06199962,-0.0001380069
0.06299962,-0.0001369033
0.06399962,-0.0001358917
0.06499962,-0.0001349414
0.06599962,-0.0001339911
0.06699962,-0.0001330101
0.06799962,-0.0001320905
0.06899962,-0.0001311095
0.06999962,-0.0001301899
0.07099961,-0.0001292702
0.07199962,-0.0001283506
0.07299962,-0.0001274003
0.07399962,-0.0001265113
0.07499962,-0.0001257756
0.07599962,-0.0001248253
0.07699962,-0.000123967
0.07799962,-0.0001231699
0.07899962,-0.0001222503
0.07999962,-0.0001214533
0.08099962,-0.0001206256
0.08199961,-0.0001198286
0.08299962,-0.0001190622
0.08399962,-0.0001182345
0.08499962,-0.0001174375
0.08599962,-0.0001167018
0.08699962,-0.0001159967
0.08799962,-0.0001151997
0.08899962,-0.0001145253
0.08999962,-0.0001136976
0.09099962,-0.0001129619
0.09199962,-0.0001120729
0.09299962,-0.0001113372
0.09399962,-0.0001106934
0.09499962,-0.0001099577
0.09599962,-0.0001092526
0.09699962,-0.0001086702
0.09799962,-0.0001078732
0.09899962,-0.0001071374
0.09999962,-0.0001064324
0.1009996,-0.000105666
0.1019996,-0.0001050223
0.1029996,-0.0001043172
0.1039996,-0.0001037348
0.1049996,-0.0001029991
0.1059996,-0.0001024166
0.1069996,-0.0001017729
0.1079996,-0.0001010678
0.1089996,-0.0001004547
0.1099996,-9.981095E-05
0.1109996,-9.913654E-05
0.1119996,-9.85541E-05
0.1129996,-9.787969E-05
0.1139996,-9.717463E-05
0.1149996,-9.662284E-05
0.1159996,-9.591779E-05
0.1169996,-9.524338E-05
0.1179996,-9.466094E-05
0.1189996,-9.398653E-05
0.1199996,-9.334277E-05
0.1209996,-9.276033E-05
0.1219996,-9.211658E-05
0.1229996,-9.150348E-05
0.1239996,-9.085974E-05
0.1249996,-9.024664E-05
0.1259996,-8.963354E-05
0.1269996,-8.898979E-05
0.1279996,-8.837669E-05
0.1289996,-8.77636E-05
0.1299996,-8.708919E-05
0.1309996,-8.650675E-05
0.1319996,-8.5863E-05
0.1329996,-8.528055E-05
0.1339996,-8.466746E-05
0.1349996,-8.40237E-05
0.1359996,-8.344126E-05
0.1369996,-8.285882E-05
0.1379996,-8.221508E-05
0.1389996,-8.163263E-05
0.1399996,-8.101953E-05
0.1409996,-8.040644E-05
0.1419996,-7.9824E-05
0.1429996,-7.924155E-05
0.1439996,-7.865911E-05
0.1449996,-7.807667E-05
0.1459996,-7.743292E-05
0.1469996,-7.681982E-05
0.1479996,-7.620673E-05
0.1489996,-7.565494E-05
0.1499996,-7.501119E-05
0.1509996,-7.433679E-05
0.1519996,-7.381565E-05
0.1529996,-7.320255E-05
0.1539996,-7.246684E-05
0.1549996,-7.188439E-05
0.1559996,-7.120999E-05
0.1569996,-7.065821E-05
0.1579996,-7.013707E-05
0.1589996,-6.93707E-05
0.1599996,-6.87576E-05
0.1609996,-6.823648E-05
0.1619996,-6.762338E-05
0.1629996,-6.701028E-05
0.1639996,-6.636653E-05
0.1649996,-6.575343E-05
0.1659996,-6.520165E-05
0.1669996,-6.452724E-05
0.1679996,-6.391414E-05
0.1689996,-6.32704E-05
0.1699996,-6.253467E-05
0.1709996,-6.186026E-05
0.1719996,-6.10939E-05
0.1729996,-6.045015E-05
0.1739996,-5.989836E-05
0.1749996,-5.916264E-05
0.1759996,-5.861086E-05
0.1769996,-5.796711E-05
0.1779996,-5.720073E-05
0.1789996,-5.649568E-05
0.1799996,-5.572931E-05
0.1809996,-5.511621E-05
0.1819996,-5.447246E-05
0.1829996,-5.379805E-05
0.1839996,-5.300103E-05
0.1849996,-5.217335E-05
0.1859996,-5.149894E-05
0.1869996,-5.085519E-05
0.1879996,-5.008882E-05
0.1889996,-4.941441E-05
0.1899996,-4.861738E-05
0.1909996,-4.769774E-05
0.1919996,-4.702334E-05
0.1929996,-4.641024E-05
0.1939996,-4.545994E-05
0.1949996,-4.472422E-05
0.1959996,-4.389654E-05
0.1969996,-4.328345E-05
0.1979996,-4.245577E-05
0.1989996,-4.153612E-05
0.1999996,-4.067778E-05
0.2009996,-4.006469E-05
0.2019996,-3.908373E-05
0.2029996,-3.819475E-05
0.2039996,-3.736707E-05
0.2049996,-3.650873E-05
0.2059996,-3.555843E-05
0.2069996,-3.466944E-05
0.2079996,-3.393372E-05
0.2089996,-3.31367E-05
0.2099996,-3.212509E-05
0.2109996,-3.114414E-05
0.2119996,-3.016318E-05
0.2129996,-2.93355E-05
0.2139996,-2.853847E-05
0.2149996,-2.740424E-05
0.2159996,-2.642329E-05
0.2169996,-2.541168E-05
0.2179996,-2.449204E-05
0.2189996,-2.366436E-05
0.2199996,-2.243817E-05
0.2209996,-2.127328E-05
0.2219996,-2.041495E-05
0.2229996,-1.925006E-05
0.2239996,-1.829976E-05
0.2249996,-1.722684E-05
0.2259996,-1.597E-05
0.2269996,-1.489708E-05
0.2279996,-1.373219E-05
0.2289996,-1.265927E-05
0.2299996,-1.167832E-05
0.2309996,-1.0398E-05
0.2319996,-9.153414E-06
0.2329996,-7.865911E-06
0.2339996,-6.728617E-06
0.2349996,-5.554537E-06
0.2359996,-4.211856E-06
0.2369996,-2.902895E-06
0.2379996,-1.661375E-06
0.2389996,-8.878227E-08
0.2399996,1.223244E-06
0.2409996,2.501551E-06
0.2419996,3.954589E-06
0.2429996,5.257419E-06
0.2439996,6.790161E-06
0.2449996,8.338229E-06
0.2459996,9.67478E-06
0.2469996,1.143437E-05
0.2479996,1.287208E-05
0.2489996,1.448452E-05
0.2499996,1.611536E-05
0.2509996,1.761745E-05
0.2519996,1.950885E-05
0.2529996,2.105692E-05
0.2539996,2.280836E-05
0.2549996,2.455568E-05
0.2559996,2.627235E-05
0.2569996,2.811164E-05
0.2579996,3.019617E-05
0.2589996,3.197415E-05
0.2599996,3.396671E-05
0.2609996,3.598993E-05
0.2619996,3.782922E-05
0.2629996,3.997506E-05
0.2639996,4.196762E-05
0.2649996,4.420543E-05
0.2659996,4.671912E-05
0.2669996,4.868103E-05
0.2679996,5.119473E-05
0.2689996,5.346318E-05
0.2699996,5.570098E-05
0.2709996,5.824534E-05
0.2719996,6.072838E-05
0.2729996,6.345665E-05
0.2739996,6.612363E-05
0.2749996,6.869863E-05
0.2759996,7.154953E-05
0.2769996,7.42165E-05
0.2779996,7.700609E-05
0.2789996,8.028615E-05
0.2799996,8.31677E-05
0.2809996,8.641712E-05
0.2819996,8.960522E-05
0.2829996,9.257874E-05
0.2839996,9.628798E-05
0.2849996,9.95987E-05
0.2859996,0.0001029707
0.2869996,0.0001070785
0.2879996,0.0001106651
0.2889996,0.000114405
0.2899996,0.000118574
0.2909996,0.0001222526
0.2919996,0.0001267282
0.2929996,0.0001310812
0.2939996,0.0001354035
0.2949996,0.0001402776
0.2959996,0.0001448452
0.2969996,0.0001494128
0.2979996,0.0001545015
0.2989996,0.0001594982
0.2999996,0.0001650467
0.3009996,0.0001703807
0.3019996,0.0001761131
0.3029996,0.0001820295
0.3039996,0.0001879152
0.3049996,0.0001939542
0.3059996,0.0002004531
0.3069996,0.0002073811
0.3079996,0.0002143091
0.3089996,0.0002210225
0.3099996,0.0002283183
0.3109996,0.000236074
0.3119996,0.0002436457
0.3129996,0.0002520451
0.3139996,0.0002605059
0.3149996,0.0002688133
0.3159996,0.0002785616
0.3169996,0.0002873901
0.3179996,0.000300429
0.3189996,0.0003105451
0.3199996,0.0003206612
0.3209996,0.0003313904
0.3219996,0.0003430392
0.3229996,0.0003537684
0.3239996,0.0003666434
0.3249996,0.0003792119
0.3259996,0.0003920869
0.3269996,0.0004064947
0.3279996,0.0004205959
0.3289996,0.0004353102
0.3299996,0.0004515573
0.3309996,0.0004668847
0.3319996,0.0004846645
0.3329996,0.0005021378
0.3339996,0.0005205307
0.3349996,0.0005404563
0.3359996,0.0005603819
0.3369996,0.0005818403
0.3379996,0.0006045249
0.3389996,0.000627516
0.3399996,0.0006529595
0.3409996,0.0006777899
0.3419996,0.0007047662
0.3429996,0.0007338882
0.3439996,0.0007627038
0.3449996,0.0007945848
0.3459996,0.0008273855
0.3469996,0.0008604927
0.3479996,0.000897585
0.3489996,0.0009340643
0.3499996,0.0009726894
0.3509996,0.001014073
0.3519996,0.001055457
0.3529996,0.001099294
0.3539996,0.001143743
0.3549996,0.001188193
0.3559996,0.001235708
0.3569996,0.001281383
0.3579996,0.001328592
0.3589996,0.001377027
0.3599996,0.001422396
0.3609996,0.001468991
0.3619996,0.00151436
0.3629996,0.001557277
0.3639996,0.00160142
0.3649996,0.001642191
0.3659996,0.001681736
0.3669996,0.001720974
0.3679996,0.001755
0.3689996,0.001790867
0.3699996,0.001823974
0.3709996,0.001855242
0.3719996,0.001888042
0.3729996,0.001915019
0.3739996,0.001941995
0.3749996,0.001970811
0.3759996,0.001994721
0.3769996,0.002020165
0.3779996,0.002045302
0.3789996,0.002066453
0.3799996,0.002090671
0.3809996,0.002111823
0.3819996,0.002132668
0.3829996,0.002155046
0.3839996,0.002173746
0.3849996,0.002194591
0.3859996,0.00221513
0.3869996,0.002232603
0.3879996,0.002254061
0.3889996,0.002271228
0.3899996,0.002289008
0.3909996,0.002306788
0.3919996,0.002322728
0.3929996,0.002340815
0.3939996,0.002357368
0.3949996,0.002371469
0.3959996,0.002389249
0.3969996,0.002404576
0.3979996,0.002419291
0.3989996,0.002434618
0.3999996,0.00244596
0.4009996,0.002462207
0.4019996,0.002475389
0.4029996,0.002487038
0.4039996,0.002502979
0.4049996,0.002512175
0.4059996,0.002524743
0.4069996,0.002538538
0.4079996,0.002545282
0.4089996,0.002560916
0.4099996,0.002576856
0.4109996,0.002581148
0.4119996,0.002591877
0.4129996,0.002600461
0.4139996,0.002605672
0.4149996,0.002617321
0.4159996,0.002624065
0.4169996,0.002629889
0.4179996,0.002640005
0.4189996,0.002647056
0.4199996,0.002652574
0.4209996,0.002658092
0.4219996,0.002664529
0.4229996,0.002670047
0.4239996,0.002673419
0.4249996,0.002679244
0.4259996,0.002682616
0.4269996,0.002686601
0.4279996,0.002693651
0.4289996,0.002693038
0.4299996,0.00269733
0.4309996,0.002700702
0.4319996,0.002699169
0.4329996,0.002704687
0.4339996,0.002705914
0.4349996,0.002703768
0.4359996,0.002710205
0.4369996,0.002708979
0.4379996,0.002709592
0.4389996,0.00271511
0.4399996,0.002712351
0.4409996,0.002713884
0.4419996,0.002718175
0.4429996,0.00271511
0.4439996,0.002718482
0.4449996,0.002717562
0.4459996,0.002717256
0.4469996,0.002718482
0.4479996,0.002720934
0.4489996,0.002721547
0.4499996,0.00272216
0.4509996,0.002722773
0.4519996,0.002725839
0.4529996,0.002723693
0.4539996,0.002728598
0.4549996,0.002729824
0.4559996,0.002729824
0.4569996,0.002737181
0.4579996,0.002741473
0.4589996,0.002743925
0.4599996,0.002752815
0.4609996,0.002758027
0.4619996,0.002765384
0.4629996,0.00277642
0.4639996,0.00278255
0.4649996,0.002794506
0.4659996,0.002808607
0.4669996,0.002822095
0.4679996,0.002839262
0.4689996,0.002857655
0.4699996,0.002877274
0.4709996,0.002901491
0.4719996,0.002927854
0.4729996,0.002953911
0.4739996,0.00299039
0.4749996,0.003056403
0.4759996,0.003093189
0.4769996,0.003136105
0.4779996,0.003185153
0.4789996,0.003240332
0.4799996,0.003292445
0.4809996,0.003353755
0.4819996,0.003442654
0.4829996,0.003497832
0.4839996,0.003586731
0.4849996,0.003687892
0.4859996,0.00377066
0.4869996,0.003868756
0.4879996,0.00399444
0.4889996,0.004113995
0.4899996,0.004227417
0.4909996,0.004371495
0.4919996,0.004527835
0.4929996,0.004668847
0.4939996,0.004834383
0.4949996,0.005015246
0.4959996,0.005183848
0.4969996,0.005370842
0.4979996,0.005579295
0.4989996,0.005778552
0.4999996,0.005993135
0.5009996,0.00621385
0.5019996,0.006462154
0.5029996,0.006679803
0.5039996,0.006925041
0.5049996,0.007200935
0.5059996,0.007449239
0.5069996,0.007703674
0.5079996,0.007997961
0.5089996,0.008273854
0.5099996,0.008546682
0.5109996,0.0088471
0.5119996,0.009159779
0.5129996,0.009454065
0.5139996,0.009754483
0.5149996,0.01007942
0.5159996,0.01039517
0.5169996,0.01070785
0.5179996,0.01104505
0.5189996,0.01137919
0.5199996,0.01170413
0.5209996,0.01204746
0.5219996,0.01239999
0.5229996,0.0127372
0.5239996,0.01308666
0.5249996,0.01344839
0.5259996,0.01380398
0.5269996,0.01415651
0.5279996,0.01452131
0.5289996,0.01488303
0.5299996,0.01524783
0.5309996,0.01562182
0.5319996,0.0159958
0.5329996,0.01636673
0.5339996,0.01674685
0.5349996,0.01712697
0.5359996,0.01750709
0.5369996,0.01789334
0.5379996,0.01827346
0.5389996,0.01865664
0.5399996,0.01905822
0.5409996,0.01943834
0.5419996,0.01983072
0.5429996,0.02022311
0.5439996,0.02062162
0.5449996,0.021014
0.5459996,0.02140945
0.5469996,0.02182022
0.5479996,0.02220954
0.5489996,0.02262031
0.5499996,0.02302496
0.5509996,0.02343267
0.5519996,0.02383425
0.5529996,0.02425115
0.5539996,0.0246374
0.5549996,0.02502978
0.5559996,0.02546815
0.5569996,0.02588505
0.5579996,0.02628663
0.5589996,0.02670354
0.5599996,0.02715109
0.5609996,0.02754654
0.5619996,0.02795119
0.5629996,0.02840488
0.5639996,0.02881259
0.5649996,0.02921417
0.5659996,0.02964946
0.5669996,0.03006637
0.5679996,0.03123844
0.5689996,0.03163695
0.5699996,0.03206612
0.5709996,0.03252594
0.5719996,0.03292445
0.5729996,0.03335362
0.5739996,0.03384409
0.5749996,0.03424261
0.5759996,0.03461047
0.5769996,0.03507029
0.5779996,0.03549946
0.5789996,0.03592863
0.5799996,0.03635779
0.5809996,0.03681761
0.5819996,0.03724678
0.5829996,0.03770661
0.5839996,0.03813577
0.5849996,0.03859559
0.5859996,0.03902476
0.5869996,0.03945393
0.5879996,0.03994441
0.5889996,0.04034292
0.5899996,0.04080274
0.5909996,0.04123191
0.5919996,0.04166108
0.5929996,0.0421209
0.5939996,0.04258072
0.5949996,0.04304054
0.5959996,0.04346971
0.5969996,0.04392953
0.5979996,0.0443587
0.5989996,0.04478787
0.5999996,0.04524769
0.6009996,0.04570751
0.6019996,0.04613668
0.6029996,0.04656585
0.6039996,0.04705633
0.6049996,0.04748549
0.6059996,0.04794532
0.6069996,0.04840514
0.6079996,0.04886496
0.6089996,0.04932478
0.6099996,0.0497846
0.6109996,0.05024443
0.6119996,0.05067359
0.6129996,0.05110276
0.6139996,0.05156258
0.6149996,0.05202241
0.6159996,0.05245158
0.6169996,0.0529114
0.6179996,0.05337122
0.6189996,0.05383104
0.6199996,0.05432152
0.6209996,0.05475069
0.6219996,0.05521051
0.6229996,0.05570099
0.6239996,0.05613015
0.6249996,0.05658998
0.6259996,0.0570498
0.6269996,0.05747896
0.6279996,0.05793879
0.6289996,0.05839861
0.6299996,0.05885844
0.6309996,0.05931826
0.6319996,0.05977808
0.6329996,0.0602379
0.6339996,0.06069772
0.6349996,0.06115754
0.6359996,0.06161737
0.6369996,0.0621385
0.6379996,0.06256767
0.6389996,0.06302749
0.6399996,0.06351797
0.6409996,0.06400844
0.6419996,0.06440695
0.6429996,0.06486678
0.6439996,0.06538791
0.6449996,0.06578642
0.6459996,0.06618494
0.6469996,0.06673672
0.6479996,0.06713524
0.6489996,0.06756441
0.6499996,0.06811619
0.6509996,0.06857602
0.6519996,0.06900518
0.6529996,0.06949566
0.6539996,0.06998613
0.6549996,0.0704153
0.6559996,0.07087513
0.6569996,0.0713656
0.6579996,0.07179477
0.6589996,0.07225459
0.6599996,0.07274507
0.6609996,0.07323555
0.6619996,0.07369537
0.6629996,0.0741552
0.6639996,0.07461502
0.6649996,0.07507484
0.6659996,0.075504
0.6669996,0.07602514
0.6679996,0.0764543
0.6689996,0.07694478
0.6699996,0.07743526
0.6709996,0.07786443
0.6719996,0.0783549
0.6729996,0.07884538
0.6739996,0.0793052
0.6749996,0.07973437
0.6759996,0.08022485
0.6769996,0.08068467
0.6779996,0.0811445
0.6789996,0.08160432
0.6799996,0.08212545
0.6809996,0.08255462
0.6819996,0.08298378
0.6829996,0.08353557
0.6839996,0.08396474
0.6849996,0.08433259
0.6859996,0.08494569
0.6869996,0.08540551
0.6879996,0.08574272
0.6889996,0.08632516
0.6899996,0.08684629
0.6909996,0.0871835
0.6919996,0.08770462
0.6929996,0.08822576
0.6939996,0.08865493
0.6949996,0.08911475
0.6959996,0.08960523
0.6969996,0.0900957
0.6979996,0.09055553
0.6989996,0.091046
0.6999996,0.09113797
0.6990005,0.09067815
0.6980005,0.09031029
0.6970005,0.08972784
0.6960005,0.08926802
0.6950005,0.08890016
0.6940005,0.08837903
0.6930005,0.08788855
0.6920004,0.08745939
0.6910005,0.08699957
0.6900005,0.08653974
0.6890005,0.08607992
0.6880005,0.0856201
0.6870005,0.08516028
0.6860005,0.0846698
0.6850005,0.08420997
0.6840005,0.08378081
0.6830005,0.08329033
0.6820005,0.08283051
0.6810005,0.08240134
0.6800005,0.08191086
0.6790005,0.08142038
0.6780005,0.08102188
0.6770005,0.0805314
0.6760005,0.08007158
0.6750005,0.07967306
0.6740005,0.07915193
0.6730005,0.07872277
0.6720005,0.07829359
0.6710005,0.07780312
0.6700005,0.07731264
0.6690005,0.07688347
0.6680005,0.07642365
0.6670005,0.07596382
0.6660005,0.075504
0.6650005,0.07504418
0.6640005,0.07458436
0.6630005,0.0741552
0.6620005,0.07369537
0.6610005,0.0732049
0.6600005,0.07277572
0.6590005,0.0723159
0.6580005,0.07185608
0.6570005,0.07139625
0.6560005,0.07093643
0.6550004,0.07050727
0.6540005,0.07001679
0.6530005,0.06958763
0.6520005,0.0691278
0.6510005,0.06866798
0.6500005,0.06820816
0.6490005,0.06777899
0.6480005,0.06728851
0.6470005,0.06682869
0.6460005,0.06639952
0.6450005,0.0659397
0.6440005,0.06547987
0.6430005,0.06508137
0.6420005,0.06459089
0.6410004,0.06413107
0.6400005,0.0637019
0.6390005,0.06324207
0.6380005,0.06281291
0.6370005,0.06238374
0.6360005,0.06189326
0.6350005,0.06143344
0.6340005,0.06100427
0.6330005,0.06054445
0.6320005,0.06008463
0.6310005,0.0596248
0.6300005,0.05919564
0.6290005,0.05873581
0.6280005,0.05830665
0.6270005,0.05784683
0.6260005,0.05741766
0.6250005,0.05698849
0.6240005,0.05652867
0.6230005,0.0560995
0.6220005,0.05563968
0.6210005,0.05517985
0.6200005,0.05475069
0.6190005,0.05429087
0.6180004,0.05383104
0.6170005,0.05340188
0.6160005,0.0529727
0.6150005,0.05248223
0.6140005,0.05208372
0.6130005,0.05162389
0.6120005,0.05116407
0.6110005,0.05073491
0.6100005,0.05030574
0.6090005,0.04984592
0.6080005,0.04941675
0.6070005,0.04898758
0.6060005,0.04852776
0.6050005,0.04809859
0.6040004,0.04766942
0.6030005,0.04724025
0.6020005,0.04678043
0.6010005,0.04635127
0.6000005,0.0459221
0.5990005,0.04546228
0.5980005,0.04503311
0.5970005,0.04460394
0.5960005,0.04417477
0.5950005,0.0437456
0.5940005,0.04331644
0.5930005,0.04288727
0.5920005,0.0424581
0.5910005,0.04202893
0.5900005,0.04159977
0.5890005,0.0411706
0.5880005,0.04074143
0.5870005,0.04031226
0.5860005,0.0398831
0.5850005,0.03945393
0.5840005,0.03902476
0.5830005,0.03859559
0.5820005,0.03816643
0.5810004,0.03773726
0.5800005,0.03730809
0.5790005,0.03687892
0.5780005,0.03644976
0.5770005,0.03605124
0.5760005,0.03562208
0.5750005,0.03519291
0.5740005,0.0347944
0.5730005,0.03433457
0.5720005,0.03393606
0.5710005,0.03350689
0.5700005,0.03310838
0.5690005,0.03267921
0.5680005,0.0322807
0.5670004,0.03185153
0.5660005,0.03145302
0.5650005,0.03105451
0.5640005,0.03062534
0.5630005,0.03019617
0.5620005,0.02979766
0.5610005,0.02939915
0.5600005,0.02896998
0.5590005,0.02857147
0.5580005,0.02817295
0.5570005,0.02774378
0.5560005,0.02734527
0.5550005,0.02694676
0.5540005,0.02654825
0.5530005,0.02614973
0.5520005,0.02575122
0.5510005,0.02535271
0.5500005,0.0249542
0.5490005,0.02455568
0.5480005,0.02415717
0.5470005,0.02378931
0.5460005,0.0233908
0.5450005,0.02299229
0.5440005,0.02259377
0.5430005,0.02219526
0.5420005,0.02182741
0.5410005,0.02142889
0.5400005,0.02106103
0.5390005,0.02066252
0.5380005,0.02029466
0.5370005,0.01989615
0.5360005,0.01952829
0.5350005,0.01916043
0.5340005,0.01879258
0.5330005,0.01842472
0.5320005,0.01805686
0.5310005,0.017689
0.5300004,0.01732115
0.5290005,0.01695329
0.5280005,0.01658543
0.5270005,0.01624822
0.5260005,0.01588037
0.5250005,0.01551251
0.5240005,0.01517531
0.5230005,0.0148381
0.5220005,0.01447024
0.5210005,0.01410239
0.5200005,0.01376519
0.5190005,0.01342798
0.5180005,0.01309078
0.5170005,0.01228044
0.5160004,0.0119463
0.5150005,0.01162443
0.5140005,0.01129948
0.5130005,0.01097761
0.5120005,0.01065573
0.5110005,0.01033692
0.5100005,0.01002731
0.5090005,0.009720762
0.5080005,0.009414214
0.5070005,0.009110731
0.5060005,0.008810313
0.5050005,0.008516028
0.5040005,0.008224807
0.5030005,0.007936651
0.5020005,0.007654627
0.5010005,0.007369536
0.5000005,0.007093643
0.4990005,0.006820816
0.4980005,0.006551053
0.4970005,0.006284356
0.4960005,0.006026856
0.4950005,0.005769355
0.4940005,0.005521051
0.4930005,0.005272747
0.4920005,0.005027508
0.4910005,0.004791466
0.4900005,0.004558489
0.4890005,0.004328578
0.4880005,0.004107863
0.4870005,0.003890214
0.4860005,0.00367563
0.4850005,0.003467177
0.4840005,0.003264856
0.4830005,0.003068665
0.4820005,0.002875539
0.4810005,0.002688545
0.4800005,0.002507681
0.4790005,0.002332949
0.4780005,0.002161282
0.4770005,0.001995746
0.4760005,0.001836341
0.4750005,0.001683067
0.4740005,0.001532858
0.4730005,0.001385715
0.4720005,0.001250834
0.4710005,0.001085806
0.4700005,0.0009604275
0.4690005,0.0008387277
0.4680005,0.0007194805
0.4670005,0.0006072838
0.4660005,0.000497846
0.4650005,0.0003954589
0.4640005,0.0002982832
0.4630005,0.0002017204
0.4620005,0.0001140476
0.4610005,2.698792E-05
0.4600005,-6.011295E-05
0.4590005,-0.0001312322
0.4580005,-0.0002071948
0.4570005,-0.0002754631
0.4560005,-0.000337498
0.4550005,-0.0004024862
0.4540005,-0.0004598107
0.4530005,-0.0005140697
0.4520005,-0.0005689419
0.4510005,-0.0006158438
0.4500005,-0.0006639719
0.4490005,-0.000709341
0.4480005,-0.0007498054
0.4470005,-0.000791496
0.4460005,-0.0008270555
0.4450005,-0.0008623086
0.4440005,-0.0008975617
0.4430005,-0.0009266838
0.4420005,-0.0009585648
0.4410005,-0.0009870738
0.4400005,-0.001011598
0.4390005,-0.001038881
0.4380005,-0.001060952
0.4370005,-0.001083943
0.4360005,-0.001107241
0.4350005,-0.001123794
0.4340005,-0.001146172
0.4330005,-0.001165485
0.4320005,-0.001180506
0.4310005,-0.001201045
0.4300005,-0.001215759
0.4290005,-0.001231086
0.4280005,-0.001248866
0.4270005,-0.001260515
0.4260005,-0.001276149
0.4250005,-0.001289637
0.4240005,-0.001300673
0.4230005,-0.001315387
0.4220005,-0.001327956
0.4210005,-0.001338991
0.4200005,-0.00135156
0.4190005,-0.00136045
0.4180005,-0.001373325
0.4170005,-0.001383747
0.4160005,-0.001392637
0.4150005,-0.001405819
0.4140005,-0.001413176
0.4130005,-0.001423905
0.4120005,-0.001435554
0.4110005,-0.001442298
0.4100005,-0.001457932
0.4090005,-0.00147142
0.4080005,-0.001474792
0.4070005,-0.001484602
0.4060005,-0.001491959
0.4050005,-0.001500236
0.4040005,-0.001510658
0.4030005,-0.001518322
0.4020005,-0.001527212
0.4010005,-0.001535795
0.4000005,-0.001542846
0.3990005,-0.001553575
0.3980005,-0.001559399
0.3970005,-0.001569822
0.3960005,-0.001579632
0.3950005,-0.001584843
0.3940005,-0.001594653
0.3930005,-0.001602929
0.3920005,-0.001608447
0.3910005,-0.001619789
0.3900005,-0.001626534
0.3890005,-0.001632664
0.3880005,-0.001644007
0.3870005,-0.001649525
0.3860005,-0.001657495
0.3850005,-0.001666691
0.3840005,-0.001672209
0.3830005,-0.001682019
0.3820005,-0.001688456
0.3810005,-0.001695507
0.3800005,-0.00170409
0.3790005,-0.001709608
0.3780005,-0.001719111
0.3770005,-0.001726468
0.3760005,-0.001731373
0.3750005,-0.001741796
0.3740005,-0.001747007
0.3730005,-0.001753445
0.3720005,-0.001762028
0.3710005,-0.001767852
0.3700005,-0.001774903
0.3690005,-0.001781953
0.3680005,-0.001785632
0.3670005,-0.001794828
0.3660005,-0.00180004
0.3650005,-0.001806171
0.3640005,-0.001814141
0.3630005,-0.001818126
0.3620005,-0.001824257
0.3610005,-0.001830388
0.3600005,-0.00183468
0.3590005,-0.001842037
0.3580005,-0.001848168
0.3570005,-0.001851847
0.3560005,-0.001857364
0.3550005,-0.001860123
0.3540005,-0.001866561
0.3530005,-0.001870853
0.3520005,-0.001873611
0.3510005,-0.001880355
0.3500005,-0.001883114
0.3490005,-0.001885567
0.3480005,-0.001891391
0.3470005,-0.001892617
0.3460005,-0.001896909
0.3450005,-0.001901507
0.3440005,-0.001901814
0.3430005,-0.001905799
0.3420005,-0.001907025
0.3410005,-0.001908251
0.3400005,-0.001910397
0.3390005,-0.001911317
0.3380005,-0.001913463
0.3370005,-0.001913463
0.3360005,-0.001913463
0.3350005,-0.001917141
0.3340005,-0.001913156
0.3330005,-0.001913156
0.3320005,-0.001915609
0.3310005,-0.001909784
0.3300005,-0.001908864
0.3290005,-0.001907638
0.3280005,-0.00190304
0.3270005,-0.001902734
0.3260005,-0.001899975
0.3250005,-0.001894763
0.3240005,-0.001892617
0.3230005,-0.00188618
0.3220005,-0.001881582
0.3210005,-0.001876677
0.3200005,-0.001870853
0.3190005,-0.001864415
0.3180005,-0.001857671
0.3170005,-0.001850314
0.3160005,-0.001842957
0.3150005,-0.00183376
0.3140005,-0.001827629
0.3130005,-0.001816593
0.3120005,-0.001804638
0.3110005,-0.001797587
0.3100005,-0.001784099
0.3090005,-0.001772144
0.3080005,-0.001761721
0.3070005,-0.001750072
0.3060005,-0.001736584
0.3050005,-0.001722177
0.3040005,-0.001706236
0.3030005,-0.001692441
0.3020005,-0.001676194
0.3010005,-0.001659641
0.3000005,-0.0016437
0.2990005,-0.001626227
0.2980005,-0.001606301
0.2970005,-0.001589441
0.2960005,-0.001571048
0.2950005,-0.001550816
0.2940005,-0.00153181
0.2930005,-0.001510965
0.2920005,-0.001489813
0.2910005,-0.001467435
0.2900005,-0.001445977
0.2890005,-0.001422679
0.2880005,-0.001399994
0.2870005,-0.001377923
0.2860005,-0.001354625
0.2850005,-0.001330101
0.2840005,-0.00130711
0.2830005,-0.00128136
0.2820005,-0.00125745
0.2810005,-0.001234152
0.2800005,-0.001208708
0.2790005,-0.001185411
0.2780005,-0.0011615
0.2770005,-0.001137589
0.2760005,-0.001114598
0.2750005,-0.001090994
0.2740005,-0.001068003
0.2730005,-0.001046238
0.2720005,-0.00102386
0.2710005,-0.001003014
0.2700005,-0.0009824756
0.2690005,-0.0009625499
0.2680005,-0.0009435439
0.2670005,-0.0009245379
0.2660005,-0.0009064515
0.2650005,-0.0008892849
0.2640005,-0.0008724247
0.2630005,-0.0008567907
0.2620005,-0.0008414634
0.2610005,-0.000826749
0.2600005,-0.0008132609
0.2590005,-0.0007997728
0.2580005,-0.0007865912
0.2570005,-0.0007746358
0.2560005,-0.0007626804
0.2550005,-0.0007519512
0.2540005,-0.000740609
0.2530005,-0.0007301863
0.2520005,-0.0007209898
0.2510005,-0.0007108737
0.2500005,-0.0007019839
0.2490005,-0.0006937071
0.2480005,-0.0006851237
0.2470005,-0.0006768469
0.2460005,-0.0006694898
0.2450005,-0.000661213
0.2440005,-0.0006547754
0.2430005,-0.0006474183
0.2420005,-0.0006406742
0.2410005,-0.0006342367
0.2400005,-0.0006277992
0.2390005,-0.0006225879
0.2380005,-0.0006164569
0.2370005,-0.0006106325
0.2360005,-0.0006054211
0.2350005,-0.0006002099
0.2340005,-0.0005949985
0.2330005,-0.0005900938
0.2320005,-0.0005854955
0.2310005,-0.0005808973
0.2300005,-0.0005762991
0.2290005,-0.0005720074
0.2280005,-0.0005677157
0.2270005,-0.0005637306
0.2260005,-0.0005606651
0.2250005,-0.0005563734
0.2240005,-0.0005520818
0.2230005,-0.0005490163
0.2220005,-0.0005453377
0.2210005,-0.0005413526
0.2200005,-0.0005385936
0.2190005,-0.0005352216
0.2180005,-0.0005321561
0.2170005,-0.0005290906
0.2160005,-0.0005260251
0.2150005,-0.0005235728
0.2140005,-0.0005205073
0.2130005,-0.0005180549
0.2120005,-0.0005156025
0.2110005,-0.0005131501
0.2100005,-0.0005103912
0.2090005,-0.0005079389
0.2080005,-0.0005054864
0.2070005,-0.000503034
0.2060005,-0.0005011947
0.2050005,-0.0004990489
0.2040005,-0.0004969031
0.2030005,-0.0004950638
0.2020005,-0.0004926114
0.2010005,-0.0004904656
0.2000005,-0.0004883197
0.1990005,-0.0004864805
0.1980005,-0.0004846411
0.1970005,-0.0004831084
0.1960005,-0.0004809626
0.1950005,-0.0004794298
0.1940005,-0.0004785102
0.1930005,-0.0004766709
0.1920005,-0.0004748316
0.1910005,-0.0004742185
0.1900005,-0.0004723792
0.1890005,-0.0004705399
0.1880005,-0.0004693137
0.1870005,-0.0004674745
0.1860005,-0.0004680876
0.1850005,-0.0004665548
0.1840005,-0.0004628762
0.1830005,-0.0004634893
0.1820005,-0.0004631828
0.1810005,-0.0004604238
0.1800005,-0.0004619566
0.1790005,-0.0004613435
0.1780005,-0.0004576649
0.1770005,-0.0004570518
0.1760005,-0.0004564387
0.1750005,-0.0004542929
0.1740005,-0.0004533732
0.1730005,-0.0004527601
0.1720005,-0.0004515339
0.1710005,-0.0004512274
0.1700005,-0.0004506143
0.1690005,-0.0004500012
0.1680005,-0.000448775
0.1670005,-0.0004481619
0.1660005,-0.0004472423
0.1650005,-0.000445403
0.1640005,-0.0004447899
0.1630005,-0.0004450964
0.1620005,-0.0004441768
0.1610005,-0.000445403
0.1600005,-0.0004478553
0.1590005,-0.0004512274
0.1580005,-0.0004496947
0.1570005,-0.0004493881
0.1560005,-0.0004484684
0.1550005,-0.0004444833
0.1540005,-0.0004444833
0.1530005,-0.0004438702
0.1520005,-0.0004408048
0.1510005,-0.0004398851
0.1500005,-0.0004395786
0.1490005,-0.0004389654
0.1480005,-0.0004371261
0.1470005,-0.0004368196
0.1460005,-0.000436513
0.1450005,-0.0004362065
0.1440005,-0.0004346738
0.1430005,-0.0004343672
0.1420005,-0.000433141
0.1410005,-0.0004340607
0.1400005,-0.0004349803
0.1390005,-0.0004368196
0.1380005,-0.0004377393
0.1370005,-0.0004408048
0.1360005,-0.0004395786
0.1350005,-0.0004389654
0.1340005,-0.0004371261
0.1330005,-0.0004374327
0.1320005,-0.0004374327
0.1310005,-0.0004377393
0.1300005,-0.0004383524
0.1290005,-0.0004368196
0.1280005,-0.0004457095
0.1270005,-0.0004496947
0.1260005,-0.0004368196
0.1250005,-0.0004355934
0.1240005,-0.0004371261
0.1230005,-0.0004306886
0.1220005,-0.0004319148
0.1210005,-0.0004325279
0.1200005,-0.0004276232
0.1190005,-0.0004270101
0.1180005,-0.0004313017
0.1170005,-0.0004270101
0.1160005,-0.000426397
0.1150005,-0.0004245577
0.1140005,-0.0004254773
0.1130005,-0.0004248642
0.1120005,-0.0004260904
0.1110005,-0.0004279297
0.1100005,-0.0004267035
0.1090005,-0.000426397
0.1080005,-0.0004239446
0.1070005,-0.0004227184
0.1060005,-0.0004227184
0.1050005,-0.0004233315
0.1040005,-0.0004267035
0.1030005,-0.0004276232
0.1020005,-0.0004242511
0.1010005,-0.0004251708
0.1000005,-0.0004257839
0.09900048,-0.0004227184
0.09800047,-0.0004224119
0.09700048,-0.0004214922
0.09600048,-0.0004190398
0.09500048,-0.0004193464
0.09400047,-0.0004184267
0.09300048,-0.000416894
0.09200048,-0.0004162809
0.09100047,-0.0004175071
0.09000048,-0.0004156678
0.08900048,-0.0004153613
0.08800048,-0.0004141351
0.08700047,-0.0004147482
0.08600048,-0.0004181202
0.08500048,-0.0004187333
0.08400048,-0.0004184267
0.08300047,-0.0004190398
0.08200048,-0.0004175071
0.08100048,-0.0004172005
0.08000048,-0.0004172005
0.07900048,-0.0004147482
0.07800048,-0.0004156678
0.07700048,-0.0004162809
0.07600047,-0.0004153613
0.07500048,-0.0004132154
0.07400048,-0.0004129088
0.07300048,-0.0004132154
0.07200047,-0.0004132154
0.07100048,-0.0004178136
0.07000048,-0.0004122957
0.06900048,-0.0004153613
0.06800048,-0.0004199595
0.06700048,-0.0004172005
0.06600048,-0.0004132154
0.06500047,-0.0004141351
0.06400048,-0.0004110696
0.06300048,-0.0004083106
0.06200048,-0.0004098434
0.06100048,-0.0004070844
0.06000048,-0.000404632
0.05900048,-0.0004052451
0.05800048,-0.0004034059
0.05700048,-0.0004024862
0.05600048,-0.0004009535
0.05500048,-0.0004003404
0.05400048,-0.0004009535
0.05300048,-0.0003988076
0.05200048,-0.0003966618
0.05100048,-0.0003981945
0.05000048,-0.000397888
0.04900048,-0.0003994207
0.04800048,-0.0003963552
0.04700048,-0.0003926767
0.04600048,-0.000391757
0.04500048,-0.0003932898
0.04400048,-0.0003911439
0.04300048,-0.0003871588
0.04200048,-0.0003868522
0.04100048,-0.0003840933
0.04000048,-0.0003831737
0.03900048,-0.0003831737
0.03800048,-0.0003801082
0.03700048,-0.0003770427
0.03600048,-0.0003761231
0.03500048,-0.000372751
0.03400048,-0.0003696856
0.03300048,-0.0003681528
0.03200048,-0.0003644742
0.03100048,-0.0003620218
0.03000048,-0.0003592629
0.02900048,-0.000356504
0.02800048,-0.0003531319
0.02700048,-0.000353745
0.02600048,-0.0003497599
0.02500048,-0.0003451617
0.02400048,-0.0003433224
0.02300048,-0.0003399504
0.02200048,-0.0003387242
0.02100048,-0.0003390307
0.02000048,-0.0003310605
0.01900048,-0.0003276884
0.01800048,-0.0003233968
0.01700048,-0.000318492
0.01600048,-0.0003166527
0.01500048,-0.0003129741
0.01400048,-0.0003086824
0.01300048,-0.00030623
0.01200048,-0.0003034711
0.01100048,-0.0003000991
0.01000048,-0.0002970336
0.009000476,-0.0002936616
0.008000477,-0.0002918223
0.007000477,-0.0002887568
0.006000477,-0.0002863044
0.005000477,-0.0002844651
0.004000477,-0.0002820127
0.003000477,-0.0002786407
0.002000477,-0.0002774145
0.001000477,-0.0002749621
