EXPID. 1301
[电化学]: i-t : @ 0(V) X 600(sec)
起始电位 (V),0
静置时间 (秒),0
运行时间 (秒),600
记录间隔,0.1
电解液 信息:
HNO3,0.4
0.1,-0.0004990317
0.2,-0.0004626159
0.3,-0.000434445
0.4,-0.0004124791
0.5,-0.0003937367
0.6,-0.0003782697
0.7,-0.0003653953
0.8000001,-0.0003537989
0.9000001,-0.0003436724
1,-0.0003349774
1.1,-0.0003268493
1.2,-0.0003195773
1.3,-0.0003131368
1.4,-0.0003072161
1.5,-0.0003016448
1.6,-0.0002966772
1.7,-0.0002919412
1.8,-0.0002874831
1.9,-0.0002836003
2,-0.0002797194
2.1,-0.0002760561
2.2,-0.0002726498
2.3,-0.0002692832
2.4,-0.0002662508
2.5,-0.0002636017
2.6,-0.0002608283
2.7,-0.0002581867
2.799999,-0.0002557364
2.899999,-0.0002533745
2.999999,-0.0002511143
3.099999,-0.0002488825
3.199999,-0.0002467117
3.299999,-0.0002445731
3.399999,-0.0002425446
3.499999,-0.0002408109
3.599999,-0.0002388992
3.699999,-0.0002370967
3.799999,-0.0002355315
3.899998,-0.000233762
3.999998,-0.0002321658
4.099998,-0.0002306044
4.199998,-0.0002292097
4.299998,-0.0002277152
4.399998,-0.0002262611
4.499998,-0.0002250152
4.599998,-0.0002237005
4.699998,-0.0002223689
4.799998,-0.0002212106
4.899998,-0.0002201606
4.999998,-0.0002189439
5.099998,-0.0002176386
5.199997,-0.0002164982
5.299997,-0.0002153625
5.399997,-0.0002142616
5.499997,-0.0002131767
5.599997,-0.0002121521
5.699997,-0.0002111209
5.799997,-0.0002101292
5.899997,-0.0002090877
5.999997,-0.0002081168
6.099997,-0.0002072504
6.199996,-0.0002063774
6.299996,-0.000205511
6.399996,-0.0002046258
6.499996,-0.0002037462
6.599996,-0.0002029533
6.699996,-0.00020215
6.799996,-0.0002013749
6.899996,-0.000200678
6.999996,-0.0001997636
7.099996,-0.0001990055
7.199996,-0.0001983143
7.299995,-0.0001974903
7.399995,-0.0001967802
7.499995,-0.0001961116
7.599995,-0.0001954015
7.699995,-0.0001947611
7.799995,-0.0001940803
7.899995,-0.0001934371
7.999995,-0.0001927449
8.099995,-0.0001922119
8.199995,-0.0001915489
8.299995,-0.0001909584
8.399996,-0.0001903586
8.499996,-0.0001896918
8.599997,-0.0001891635
8.699997,-0.0001885033
8.799997,-0.0001879609
8.899998,-0.0001874128
8.999998,-0.0001868176
9.099998,-0.0001862159
9.199999,-0.0001856659
9.299999,-0.0001851216
9.4,-0.0001845481
9.5,-0.0001840546
9.6,-0.0001835545
9.700001,-0.0001830027
9.800001,-0.0001827428
9.900002,-0.000182189
10,-0.0001816334
10.1,-0.0001810834
10.2,-0.0001805636
10.3,-0.0001800795
10.4,-0.0001796058
10.5,-0.0001791265
10.6,-0.0001786453
10.7,-0.0001781641
10.8,-0.0001776979
10.90001,-0.0001772496
11.00001,-0.0001768513
11.10001,-0.0001763851
11.20001,-0.0001759585
11.30001,-0.0001755046
11.40001,-0.0001750837
11.50001,-0.0001747089
11.60001,-0.0001742493
11.70001,-0.0001738095
11.80001,-0.0001733631
11.90001,-0.0001731032
12.00001,-0.0001728254
12.10001,-0.0001723988
12.20001,-0.0001719637
12.30001,-0.0001715314
12.40001,-0.0001711218
12.50001,-0.0001707385
12.60001,-0.0001703449
12.70001,-0.0001699164
12.80001,-0.0001695887
12.90001,-0.0001691649
13.00001,-0.0001688306
13.10001,-0.0001684718
13.20001,-0.0001680753
13.30001,-0.0001676383
13.40001,-0.0001672833
13.50002,-0.0001668991
13.60002,-0.0001666024
13.70002,-0.0001662031
13.80002,-0.0001659536
13.90002,-0.0001657238
14.00002,-0.0001653358
14.10002,-0.0001649186
14.20002,-0.0001645805
14.30002,-0.0001642387
14.40002,-0.0001638949
14.50002,-0.0001635964
14.60002,-0.0001633431
14.70002,-0.00016294
14.80002,-0.000162634
14.90002,-0.0001623034
15.00002,-0.0001619766
15.10002,-0.0001616932
15.20002,-0.0001614201
15.30002,-0.0001611121
15.40002,-0.0001608305
15.50002,-0.0001605857
15.60002,-0.0001602617
15.70002,-0.0001599736
15.80002,-0.0001596204
15.90002,-0.0001593464
16.00002,-0.0001590488
16.10003,-0.000158819
16.20003,-0.0001584536
16.30003,-0.000158221
16.40003,-0.0001579441
16.50003,-0.0001576437
16.60003,-0.0001573801
16.70003,-0.0001570947
16.80003,-0.0001568244
16.90003,-0.0001565626
17.00003,-0.0001562745
17.10003,-0.0001560456
17.20003,-0.0001557932
17.30003,-0.0001556124
17.40003,-0.0001553817
17.50003,-0.0001550747
17.60003,-0.0001548016
17.70003,-0.0001545925
17.80003,-0.0001542987
17.90003,-0.0001540426
18.00003,-0.0001537902
18.10003,-0.0001535406
18.20003,-0.000153356
18.30003,-0.0001530462
18.40003,-0.0001528484
18.50003,-0.0001527571
18.60003,-0.0001524378
18.70004,-0.0001521224
18.80004,-0.0001519726
18.90004,-0.0001517127
19.00004,-0.0001514434
19.10004,-0.0001512117
19.20004,-0.0001509047
19.30004,-0.0001506373
19.40004,-0.0001504207
19.50004,-0.0001501805
19.60004,-0.0001499112
19.70004,-0.0001497219
19.80004,-0.0001494968
19.90004,-0.0001492539
20.00004,-0.0001490043
20.10004,-0.0001488159
20.20004,-0.0001485626
20.30004,-0.0001483912
20.40004,-0.0001481379
20.50004,-0.0001479373
20.60004,-0.0001477085
20.70004,-0.0001475258
20.80004,-0.0001472677
20.90004,-0.0001472884
21.00004,-0.0001470803
21.10004,-0.0001467969
21.20004,-0.0001465209
21.30005,-0.0001463467
21.40005,-0.0001461104
21.50005,-0.0001458928
21.60005,-0.0001457101
21.70005,-0.0001454521
21.80005,-0.0001452223
21.90005,-0.000145066
22.00005,-0.0001448559
22.10005,-0.0001446667
22.20005,-0.000144499
22.30005,-0.0001442825
22.40005,-0.0001440489
22.50005,-0.0001438907
22.60005,-0.000143707
22.70005,-0.0001434641
22.80005,-0.0001432626
22.90005,-0.0001430836
23.00005,-0.0001428378
23.10005,-0.0001426674
23.20005,-0.0001424611
23.30005,-0.0001422681
23.40005,-0.0001421457
23.50005,-0.0001419752
23.60005,-0.0001416955
23.70005,-0.0001415006
23.80005,-0.0001414139
23.90005,-0.0001411729
24.00006,-0.0001410165
24.10006,-0.0001408395
24.20006,-0.0001406653
24.30006,-0.0001405071
24.40006,-0.0001403168
24.50006,-0.0001401341
24.60006,-0.0001399816
24.70006,-0.0001398215
24.80006,-0.0001396877
24.90006,-0.0001395926
25.00006,-0.0001394288
25.10006,-0.0001392235
25.20006,-0.0001391246
25.30006,-0.0001388967
25.40006,-0.0001387008
25.50006,-0.0001385699
25.60006,-0.0001383787
25.70006,-0.0001382083
25.80006,-0.0001380717
25.90006,-0.0001378758
26.00006,-0.0001376903
26.10006,-0.000137438
26.20006,-0.0001372986
26.30006,-0.0001371874
26.40006,-0.0001370236
26.50006,-0.0001368786
26.60007,-0.0001367147
26.70007,-0.0001364925
26.80007,-0.0001363926
26.90007,-0.0001362288
27.00007,-0.0001360706
27.10007,-0.0001358973
27.20007,-0.0001357551
27.30007,-0.0001355639
27.40007,-0.0001354113
27.50007,-0.0001352776
27.60007,-0.0001350742
27.70007,-0.0001349951
27.80007,-0.0001348576
27.90007,-0.0001346486
28.00007,-0.0001345148
28.10007,-0.000134382
28.20007,-0.0001342135
28.30007,-0.0001340995
28.40007,-0.0001339319
28.50007,-0.0001337379
28.60007,-0.0001336136
28.70007,-0.0001334808
28.80007,-0.0001333047
28.90007,-0.0001332011
29.00007,-0.0001330325
29.10007,-0.0001328489
29.20008,-0.0001327387
29.30008,-0.0001326172
29.40008,-0.000132476
29.50008,-0.0001322857
29.60008,-0.0001321642
29.70008,-0.00013212
29.80008,-0.0001319015
29.90008,-0.0001317791
30.00008,-0.0001316209
30.10008,-0.0001314485
30.20008,-0.0001313468
30.30008,-0.0001312027
30.40008,-0.000131037
30.50008,-0.000130941
30.60008,-0.0001308082
30.70008,-0.0001307319
30.80008,-0.0001307309
30.90008,-0.0001304974
31.00008,-0.0001303326
31.10008,-0.0001302233
31.20008,-0.0001301047
31.30008,-0.0001299389
31.40008,-0.0001298259
31.50008,-0.0001296611
31.60008,-0.000129502
31.70008,-0.0001293259
31.80009,-0.0001291733
31.90009,-0.0001290142
32.00008,-0.0001288823
32.10008,-0.0001287542
32.20008,-0.000128565
32.30008,-0.0001284341
32.40008,-0.0001283568
32.50008,-0.0001282269
32.60007,-0.0001281195
32.70007,-0.0001280545
32.80007,-0.0001278907
32.90007,-0.0001277381
33.00007,-0.0001276449
33.10007,-0.0001275215
33.20007,-0.0001273784
33.30006,-0.0001273332
33.40006,-0.0001272004
33.50006,-0.0001270911
33.60006,-0.0001269546
33.70006,-0.0001268246
33.80006,-0.0001267201
33.90005,-0.0001266551
34.00005,-0.0001265365
34.10005,-0.0001264065
34.20005,-0.0001262765
34.30005,-0.0001261381
34.40005,-0.0001259733
34.50005,-0.0001258801
34.60004,-0.0001258085
34.70004,-0.0001256456
34.80004,-0.0001255542
34.90004,-0.0001253894
35.00004,-0.0001253
35.10004,-0.0001252811
35.20004,-0.0001251493
35.30003,-0.0001249694
35.40003,-0.0001248545
35.50003,-0.0001247519
35.60003,-0.0001246615
35.70003,-0.0001245532
35.80003,-0.0001244534
35.90002,-0.0001243074
36.00002,-0.0001241774
36.10002,-0.000124072
36.20002,-0.0001239156
36.30002,-0.0001237715
36.40002,-0.0001236727
36.50002,-0.0001235747
36.60001,-0.0001233798
36.70001,-0.0001233176
36.80001,-0.0001232178
36.90001,-0.0001230982
37.00001,-0.0001230125
37.10001,-0.0001228694
37.2,-0.0001227159
37.3,-0.0001225859
37.4,-0.000122487
37.5,-0.0001223043
37.6,-0.0001222902
37.7,-0.0001221687
37.8,-0.0001220265
37.89999,-0.0001219267
37.99999,-0.0001218749
38.09999,-0.000121696
38.19999,-0.0001216291
38.29999,-0.0001215151
38.39999,-0.0001213795
38.49998,-0.0001213127
38.59998,-0.0001212006
38.69998,-0.0001210688
38.79998,-0.0001210481
38.89998,-0.0001208795
38.99998,-0.0001207731
39.09998,-0.0001206874
39.19997,-0.0001205941
39.29997,-0.0001204567
39.39997,-0.0001203672
39.49997,-0.0001202843
39.59997,-0.0001201694
39.69997,-0.0001200508
39.79996,-0.0001199811
39.89996,-0.0001198935
39.99996,-0.0001198276
40.09996,-0.0001197579
40.19996,-0.000119594
40.29996,-0.0001194292
40.39996,-0.0001193576
40.49995,-0.0001192522
40.59995,-0.0001191071
40.69995,-0.0001190111
40.79995,-0.0001189226
40.89995,-0.000118802
40.99995,-0.0001186796
41.09995,-0.00011856
41.19994,-0.0001184592
41.29994,-0.0001183604
41.39994,-0.0001182652
41.49994,-0.0001181598
41.59994,-0.0001181598
41.69994,-0.0001180402
41.79993,-0.000117913
41.89993,-0.0001178019
41.99993,-0.0001177153
42.09993,-0.0001175853
42.19993,-0.0001175363
42.29993,-0.0001174233
42.39993,-0.0001172595
42.49992,-0.0001171907
42.59992,-0.0001170994
42.69992,-0.0001170344
42.79992,-0.0001169543
42.89992,-0.000116766
42.99992,-0.0001167293
43.09991,-0.0001166888
43.19991,-0.0001165428
43.29991,-0.0001163987
43.39991,-0.0001163074
43.49991,-0.0001162198
43.59991,-0.0001161219
43.69991,-0.0001160164
43.7999,-0.0001158855
43.8999,-0.0001157668
43.9999,-0.0001156849
44.0999,-0.0001155794
44.1999,-0.0001154278
44.2999,-0.0001153638
44.39989,-0.0001153054
44.49989,-0.0001151782
44.59989,-0.0001150963
44.69989,-0.0001150483
44.79989,-0.0001149193
44.89989,-0.0001148458
44.99989,-0.0001147159
45.09988,-0.0001146339
45.19988,-0.0001146047
45.29988,-0.000114535
45.39988,-0.0001143693
45.49988,-0.0001142704
45.59988,-0.0001141668
45.69987,-0.0001141226
45.79987,-0.0001140623
45.89987,-0.0001139888
45.99987,-0.0001138909
46.09987,-0.0001137958
46.19987,-0.0001137204
46.29987,-0.0001135707
46.39986,-0.0001134379
46.49986,-0.0001133645
46.59986,-0.0001133051
46.69986,-0.0001131931
46.79986,-0.0001130923
46.89986,-0.0001129548
46.99986,-0.0001128842
47.09985,-0.0001128531
47.19985,-0.0001127279
47.29985,-0.0001125951
47.39985,-0.0001125244
47.49985,-0.0001124378
47.59985,-0.0001123596
47.69984,-0.0001123088
47.79984,-0.0001121864
47.89984,-0.0001120602
47.99984,-0.0001120168
48.09984,-0.000111949
48.19984,-0.000111852
48.29984,-0.0001117645
48.39983,-0.0001116599
48.49983,-0.0001115432
48.59983,-0.0001114998
48.69983,-0.0001114094
48.79983,-0.0001113068
48.89983,-0.0001112418
48.99982,-0.0001111194
49.09982,-0.000111044
49.19982,-0.0001109979
49.29982,-0.0001108962
49.39982,-0.0001107917
49.49982,-0.0001107295
49.59982,-0.0001106485
49.69981,-0.0001105939
49.79981,-0.0001104621
49.89981,-0.0001103538
49.99981,-0.0001102699
50.09981,-0.0001102285
50.19981,-0.0001101042
50.2998,-0.0001100967
50.3998,-0.0001100854
50.4998,-0.0001099667
50.5998,-0.0001098113
50.6998,-0.0001097369
50.7998,-0.0001096672
50.8998,-0.0001095759
50.99979,-0.0001095071
51.09979,-0.0001094026
51.19979,-0.0001092971
51.29979,-0.0001092444
51.39979,-0.0001091606
51.49979,-0.0001090739
51.59978,-0.0001090297
51.69978,-0.000108943
51.79978,-0.000108847
51.89978,-0.0001087566
51.99978,-0.000108702
52.09978,-0.0001086605
52.19978,-0.0001085871
52.29977,-0.0001084806
52.39977,-0.0001083959
52.49977,-0.0001083676
52.59977,-0.0001082452
52.69977,-0.0001081482
52.79977,-0.0001080974
52.89977,-0.0001080343
52.99976,-0.0001079608
53.09976,-0.0001078356
53.19976,-0.0001077847
53.29976,-0.0001077169
53.39976,-0.0001076387
53.49976,-0.0001075719
53.59975,-0.0001074579
53.69975,-0.000107393
53.79975,-0.0001073393
53.89975,-0.0001072253
53.99975,-0.0001071867
54.09975,-0.0001071792
54.19975,-0.0001070973
54.29974,-0.0001069758
54.39974,-0.0001068901
54.49974,-0.0001068317
54.59974,-0.0001067337
54.69974,-0.0001066895
54.79974,-0.0001065482
54.89973,-0.000106439
54.99973,-0.0001064136
55.09973,-0.0001063279
55.19973,-0.0001062252
55.29973,-0.0001061979
55.39973,-0.0001061753
55.49973,-0.0001060331
55.59972,-0.0001059606
55.69972,-0.0001058551
55.79972,-0.0001057572
55.89972,-0.0001057732
55.99972,-0.0001056912
56.09972,-0.0001055632
56.19971,-0.0001055472
56.29971,-0.0001054652
56.39971,-0.0001053748
56.49971,-0.0001053739
56.59971,-0.0001052477
56.69971,-0.0001051601
56.79971,-0.0001050735
56.8997,-0.000105001
56.9997,-0.0001048964
57.0997,-0.0001048559
57.1997,-0.0001047778
57.2997,-0.0001046742
57.3997,-0.0001046233
57.49969,-0.0001045273
57.59969,-0.0001045273
57.69969,-0.0001045141
57.79969,-0.0001044397
57.89969,-0.0001043446
57.99969,-0.0001042673
58.09969,-0.0001042165
58.19968,-0.0001041044
58.29968,-0.0001040281
58.39968,-0.000103933
58.49968,-0.0001038455
58.59968,-0.0001038003
58.69968,-0.00010374
58.79967,-0.0001036336
58.89967,-0.0001035921
58.99967,-0.0001035036
59.09967,-0.0001034669
59.19967,-0.0001033539
59.29967,-0.0001033228
59.39967,-0.0001032258
59.49966,-0.0001031523
59.59966,-0.0001031279
59.69966,-0.0001030723
59.79966,-0.0001029565
59.89966,-0.0001029461
59.99966,-0.0001028444
60.09966,-0.0001027455
60.19965,-0.0001027248
60.29965,-0.0001026438
60.39965,-0.000102512
60.49965,-0.0001025054
60.59965,-0.0001024404
60.69965,-0.000102446
60.79964,-0.0001024234
60.89964,-0.0001023679
60.99964,-0.0001023161
61.09964,-0.0001022445
61.19964,-0.0001020957
61.29964,-0.0001019978
61.39964,-0.0001019771
61.49963,-0.0001019535
61.59963,-0.0001018518
61.69963,-0.0001018019
61.79963,-0.0001017049
61.89963,-0.0001015909
61.99963,-0.0001015429
62.09962,-0.0001014591
62.19962,-0.0001013932
62.29962,-0.0001013668
62.39962,-0.0001012613
62.49962,-0.0001012124
62.59962,-0.0001011464
62.69962,-0.0001010984
62.79961,-0.0001009798
62.89961,-0.0001009402
62.99961,-0.0001008781
63.09961,-0.0001008018
63.19961,-0.00010075
63.29961,-0.0001007085
63.3996,-0.0001006068
63.4996,-0.0001005588
63.5996,-0.0001004816
63.6996,-0.0001003865
63.7996,-0.0001003318
63.8996,-0.0001003064
63.9996,-0.0001002066
64.09959,-0.00010012
64.19959,-0.0001000559
64.29959,-0.0001000051
64.39959,-9.996458E-05
64.49959,-9.98996E-05
64.59959,-9.982614E-05
64.69958,-9.975551E-05
64.79958,-9.969995E-05
64.89958,-9.962743E-05
64.99958,-9.952478E-05
65.09958,-9.948146E-05
65.19958,-9.938353E-05
65.29958,-9.936752E-05
65.39957,-9.933738E-05
65.49957,-9.92498E-05
65.59957,-9.922343E-05
65.69957,-9.92385E-05
65.79957,-9.915845E-05
65.89957,-9.902567E-05
65.99957,-9.897765E-05
66.09956,-9.888723E-05
66.19956,-9.878364E-05
66.29956,-9.877329E-05
66.39956,-9.872714E-05
66.49956,-9.863861E-05
66.59956,-9.860565E-05
66.69955,-9.849453E-05
66.79955,-9.845027E-05
66.89955,-9.844556E-05
66.99955,-9.836834E-05
67.09955,-9.830242E-05
67.19955,-9.823838E-05
67.29955,-9.81687E-05
67.39954,-9.808111E-05
67.49954,-9.802273E-05
67.59954,-9.795587E-05
67.69954,-9.787111E-05
67.79954,-9.782967E-05
67.89954,-9.776187E-05
67.99953,-9.770536E-05
68.09953,-9.766675E-05
68.19953,-9.756129E-05
68.29953,-9.753208E-05
68.39953,-9.750007E-05
68.49953,-9.740495E-05
68.59953,-9.730701E-05
68.69952,-9.72571E-05
68.79952,-9.721283E-05
68.89952,-9.715539E-05
68.99952,-9.712996E-05
69.09952,-9.704897E-05
69.19952,-9.699153E-05
69.29951,-9.692749E-05
69.39951,-9.688794E-05
69.49951,-9.673632E-05
69.59951,-9.667511E-05
69.69951,-9.667982E-05
69.79951,-9.659882E-05
69.89951,-9.65508E-05
69.9995,-9.657905E-05
70.0995,-9.647358E-05
70.1995,-9.639542E-05
70.2995,-9.632761E-05
70.3995,-9.623532E-05
70.4995,-9.61468E-05
70.59949,-9.61468E-05
70.69949,-9.608464E-05
70.79949,-9.599612E-05
70.89949,-9.596033E-05
70.99949,-9.591608E-05
71.09949,-9.582284E-05
71.19949,-9.581436E-05
71.29948,-9.576257E-05
71.39948,-9.564297E-05
71.49948,-9.564673E-05
71.59948,-9.560342E-05
71.69948,-9.553938E-05
71.79948,-9.547346E-05
71.89948,-9.53774E-05
71.99947,-9.535292E-05
72.09947,-9.532089E-05
72.19947,-9.526722E-05
72.29947,-9.517587E-05
72.39947,-9.515421E-05
72.49947,-9.505909E-05
72.59946,-9.503838E-05
72.69946,-9.498564E-05
72.79946,-9.494044E-05
72.89946,-9.483496E-05
72.99946,-9.477846E-05
73.09946,-9.466733E-05
73.19946,-9.47229E-05
73.29945,-9.472007E-05
73.39945,-9.465886E-05
73.49945,-9.457316E-05
73.59945,-9.44611E-05
73.69945,-9.440365E-05
73.79945,-9.432925E-05
73.89944,-9.425297E-05
73.99944,-9.418798E-05
74.09944,-9.413055E-05
74.19944,-9.409759E-05
74.29944,-9.407875E-05
74.39944,-9.40053E-05
74.49944,-9.394786E-05
74.59943,-9.38744E-05
74.69943,-9.387911E-05
74.79943,-9.378681E-05
74.89943,-9.373879E-05
74.99943,-9.365968E-05
75.09943,-9.360601E-05
75.19942,-9.359187E-05
75.29942,-9.353537E-05
75.39942,-9.343838E-05
75.49942,-9.339977E-05
75.59942,-9.332537E-05
75.69942,-9.327922E-05
75.79942,-9.327263E-05
75.89941,-9.321801E-05
75.99941,-9.314549E-05
76.09941,-9.310501E-05
76.19941,-9.302401E-05
76.29941,-9.294679E-05
76.39941,-9.292984E-05
76.4994,-9.285357E-05
76.5994,-9.276975E-05
76.6994,-9.272549E-05
76.7994,-9.268405E-05
76.8994,-9.266804E-05
76.9994,-9.261059E-05
77.0994,-9.25588E-05
77.19939,-9.248911E-05
77.29939,-9.243355E-05
77.39939,-9.238834E-05
77.49939,-9.228664E-05
77.59939,-9.223202E-05
77.69939,-9.218681E-05
77.79939,-9.216892E-05
77.89938,-9.214444E-05
77.99938,-9.210112E-05
78.09938,-9.202201E-05
78.19938,-9.192313E-05
78.29938,-9.186757E-05
78.39938,-9.183838E-05
78.49937,-9.174137E-05
78.59937,-9.168957E-05
78.69937,-9.162178E-05
78.79937,-9.156433E-05
78.89937,-9.15502E-05
78.99937,-9.150312E-05
79.09937,-9.142778E-05
79.19936,-9.145321E-05
79.29936,-9.139199E-05
79.39936,-9.128087E-05
79.49936,-9.124792E-05
79.59936,-9.11867E-05
79.69936,-9.114431E-05
79.79935,-9.109252E-05
79.89935,-9.105298E-05
79.99935,-9.098893E-05
80.09935,-9.094467E-05
80.19935,-9.088346E-05
80.29935,-9.08166E-05
80.39935,-9.078458E-05
80.49934,-9.07535E-05
80.59934,-9.067722E-05
80.69934,-9.064331E-05
80.79934,-9.060188E-05
80.89934,-9.056986E-05
80.99934,-9.051807E-05
81.09933,-9.044084E-05
81.19933,-9.039941E-05
81.29933,-9.039565E-05
81.39933,-9.031277E-05
81.49933,-9.026663E-05
81.59933,-9.018752E-05
81.69933,-9.014513E-05
81.79932,-9.006792E-05
81.89932,-9.00067E-05
81.99932,-8.995492E-05
82.09932,-8.994926E-05
82.19932,-8.991253E-05
82.29932,-8.98306E-05
82.39931,-8.986262E-05
82.49931,-8.983531E-05
82.59931,-8.977692E-05
82.69931,-8.971477E-05
82.79931,-8.965356E-05
82.89931,-8.9598E-05
82.99931,-8.950476E-05
83.0993,-8.948593E-05
83.1993,-8.940682E-05
83.2993,-8.936539E-05
83.3993,-8.934091E-05
83.4993,-8.927497E-05
83.5993,-8.921376E-05
83.6993,-8.919965E-05
83.79929,-8.912619E-05
83.89929,-8.903955E-05
83.99929,-8.902448E-05
84.09929,-8.898586E-05
84.19929,-8.896986E-05
84.29929,-8.89143E-05
84.39928,-8.878433E-05
84.49928,-8.874385E-05
84.59928,-8.87721E-05
84.69928,-8.869582E-05
84.79928,-8.86572E-05
84.89928,-8.857528E-05
84.99928,-8.857151E-05
85.09927,-8.847922E-05
85.19927,-8.843779E-05
85.29927,-8.83907E-05
85.39927,-8.835115E-05
85.49927,-8.832194E-05
85.59927,-8.826543E-05
85.69926,-8.817127E-05
85.79926,-8.816751E-05
85.89926,-8.810723E-05
85.99926,-8.801495E-05
86.09926,-8.799988E-05
86.19926,-8.795845E-05
86.29926,-8.78897E-05
86.39925,-8.79057E-05
86.49925,-8.783131E-05
86.59925,-8.774843E-05
86.69925,-8.771453E-05
86.79925,-8.763355E-05
86.89925,-8.757421E-05
86.99924,-8.758363E-05
87.09924,-8.751771E-05
87.19924,-8.744143E-05
87.29924,-8.743578E-05
87.39924,-8.738775E-05
87.49924,-8.730488E-05
87.59924,-8.731053E-05
87.69923,-8.725308E-05
87.79923,-8.719657E-05
87.89923,-8.715232E-05
87.99923,-8.709487E-05
88.09923,-8.701577E-05
88.19923,-8.702424E-05
88.29922,-8.695549E-05
88.39922,-8.690276E-05
88.49922,-8.685379E-05
88.59922,-8.678787E-05
88.69922,-8.67163E-05
88.79922,-8.671064E-05
88.89922,-8.664943E-05
88.99921,-8.661836E-05
89.09921,-8.658822E-05
89.19921,-8.652041E-05
89.29921,-8.644979E-05
89.39921,-8.64479E-05
89.49921,-8.63801E-05
89.59921,-8.631794E-05
89.6992,-8.632077E-05
89.7992,-8.621247E-05
89.8992,-8.619081E-05
89.9992,-8.61522E-05
90.0992,-8.604579E-05
90.1992,-8.610135E-05
90.29919,-8.609099E-05
90.39919,-8.600529E-05
90.49919,-8.5929E-05
90.59919,-8.592712E-05
90.69919,-8.589511E-05
90.79919,-8.581411E-05
90.89919,-8.57934E-05
90.99918,-8.570676E-05
91.09918,-8.563237E-05
91.19918,-8.56625E-05
91.29918,-8.557586E-05
91.39918,-8.549864E-05
91.49918,-8.550711E-05
91.59917,-8.548828E-05
91.69917,-8.541953E-05
91.79917,-8.537622E-05
91.89917,-8.532159E-05
91.99917,-8.525002E-05
92.09917,-8.527451E-05
92.19917,-8.520859E-05
92.29916,-8.511629E-05
92.39916,-8.510782E-05
92.49916,-8.505132E-05
92.59916,-8.498822E-05
92.69916,-8.501271E-05
92.79916,-8.491759E-05
92.89915,-8.488934E-05
92.99915,-8.488463E-05
93.09915,-8.486014E-05
93.19915,-8.478857E-05
93.29915,-8.476598E-05
93.39915,-8.469628E-05
93.49915,-8.462094E-05
93.59914,-8.461813E-05
93.69914,-8.456538E-05
93.79914,-8.449004E-05
93.89914,-8.450794E-05
93.99914,-8.444955E-05
94.09914,-8.43356E-05
94.19913,-8.434031E-05
94.29913,-8.430547E-05
94.39913,-8.43083E-05
94.49913,-8.426968E-05
94.59913,-8.420658E-05
94.69913,-8.41369E-05
94.79913,-8.407474E-05
94.89912,-8.405685E-05
94.99912,-8.398527E-05
95.09912,-8.393348E-05
95.19912,-8.393631E-05
95.29912,-8.386379E-05
95.39912,-8.379316E-05
95.49911,-8.37941E-05
95.59911,-8.374137E-05
95.69911,-8.373007E-05
95.79911,-8.369805E-05
95.89911,-8.360765E-05
95.99911,-8.355208E-05
96.09911,-8.355585E-05
96.1991,-8.347298E-05
96.2991,-8.342683E-05
96.3991,-8.343907E-05
96.4991,-8.341177E-05
96.5991,-8.335809E-05
96.6991,-8.32997E-05
96.7991,-8.325637E-05
96.89909,-8.322624E-05
96.99909,-8.318198E-05
97.09909,-8.313301E-05
97.19909,-8.308121E-05
97.29909,-8.307181E-05
97.39909,-8.302565E-05
97.49908,-8.29569E-05
97.59908,-8.292488E-05
97.69908,-8.286744E-05
97.79908,-8.284767E-05
97.89908,-8.281565E-05
97.99908,-8.276008E-05
98.09908,-8.2713E-05
98.19907,-8.270735E-05
98.29907,-8.266214E-05
98.39907,-8.25868E-05
98.49907,-8.258963E-05
98.59907,-8.253218E-05
98.69907,-8.247097E-05
98.79906,-8.246533E-05
98.89906,-8.243707E-05
98.99906,-8.235891E-05
99.09906,-8.237209E-05
99.19906,-8.234101E-05
99.29906,-8.231371E-05
99.39906,-8.227886E-05
99.49905,-8.220729E-05
99.59905,-8.212913E-05
99.69905,-8.2131E-05
99.79905,-8.206227E-05
99.89905,-8.200482E-05
99.99905,-8.206038E-05
100.099,-8.208109E-05
100.199,-8.202082E-05
100.299,-8.192665E-05
100.399,-8.18937E-05
100.499,-8.182212E-05
100.599,-8.180988E-05
100.699,-8.17449E-05
100.799,-8.165355E-05
100.899,-8.169593E-05
100.999,-8.161212E-05
101.099,-8.154901E-05
101.199,-8.154337E-05
101.299,-8.152265E-05
101.399,-8.145296E-05
101.499,-8.142753E-05
101.599,-8.135125E-05
101.699,-8.132112E-05
101.799,-8.135879E-05
101.899,-8.133148E-05
101.999,-8.129192E-05
102.099,-8.121093E-05
102.199,-8.118174E-05
102.299,-8.115066E-05
102.399,-8.10725E-05
102.499,-8.107062E-05
102.599,-8.100658E-05
102.699,-8.098021E-05
102.799,-8.092465E-05
102.899,-8.0935E-05
102.999,-8.091335E-05
103.099,-8.083801E-05
103.199,-8.081258E-05
103.299,-8.073442E-05
103.399,-8.071181E-05
103.499,-8.069016E-05
103.599,-8.064778E-05
103.699,-8.059316E-05
103.799,-8.054702E-05
103.899,-8.051877E-05
103.999,-8.048486E-05
104.099,-8.044342E-05
104.199,-8.040576E-05
104.299,-8.034925E-05
104.399,-8.033795E-05
104.499,-8.031441E-05
104.599,-8.027579E-05
104.699,-8.023813E-05
104.799,-8.021553E-05
104.899,-8.015149E-05
104.999,-8.011852E-05
105.099,-8.010535E-05
105.199,-8.002812E-05
105.299,-7.99961E-05
105.399,-7.995938E-05
105.499,-7.993866E-05
105.599,-7.989722E-05
105.699,-7.990852E-05
105.799,-7.986143E-05
105.899,-7.977479E-05
105.999,-7.97682E-05
106.099,-7.973524E-05
106.199,-7.971735E-05
106.299,-7.969003E-05
106.3989,-7.959116E-05
106.4989,-7.960622E-05
106.5989,-7.964201E-05
106.6989,-7.957515E-05
106.7989,-7.951394E-05
106.8989,-7.943859E-05
106.9989,-7.939528E-05
107.0989,-7.935855E-05
107.1989,-7.935855E-05
107.2989,-7.930581E-05
107.3989,-7.925308E-05
107.4989,-7.923048E-05
107.5989,-7.915984E-05
107.6989,-7.910898E-05
107.7989,-7.907697E-05
107.8989,-7.904119E-05
107.9989,-7.899976E-05
108.0989,-7.897998E-05
108.1989,-7.89489E-05
108.2989,-7.889522E-05
108.3989,-7.886414E-05
108.4989,-7.882177E-05
108.5989,-7.881517E-05
108.6989,-7.882365E-05
108.7989,-7.877467E-05
108.8989,-7.869086E-05
108.9989,-7.868144E-05
109.0989,-7.862494E-05
109.1989,-7.857691E-05
109.2989,-7.856467E-05
109.3989,-7.850252E-05
109.4989,-7.844319E-05
109.5989,-7.849781E-05
109.6989,-7.843E-05
109.7989,-7.839987E-05
109.8989,-7.83848E-05
109.9989,-7.831982E-05
110.0989,-7.822659E-05
110.1989,-7.823601E-05
110.2989,-7.821529E-05
110.3989,-7.814278E-05
110.4989,-7.813054E-05
110.5989,-7.806649E-05
110.6989,-7.800057E-05
110.7989,-7.800433E-05
110.8989,-7.794501E-05
110.9989,-7.792429E-05
111.0989,-7.789415E-05
111.1989,-7.785555E-05
111.2989,-7.78273E-05
111.3989,-7.780281E-05
111.4989,-7.778397E-05
111.5989,-7.771146E-05
111.6989,-7.767567E-05
111.7989,-7.765025E-05
111.8989,-7.763612E-05
111.9989,-7.763141E-05
112.0989,-7.759468E-05
112.1989,-7.752688E-05
112.2989,-7.747603E-05
112.3989,-7.746943E-05
112.4989,-7.739786E-05
112.5989,-7.734136E-05
112.6989,-7.732347E-05
112.7989,-7.730369E-05
112.8988,-7.728014E-05
112.9988,-7.724718E-05
113.0988,-7.723401E-05
113.1988,-7.718975E-05
113.2988,-7.715019E-05
113.3988,-7.710122E-05
113.4988,-7.708426E-05
113.5988,-7.703435E-05
113.6988,-7.700422E-05
113.7988,-7.692324E-05
113.8988,-7.691287E-05
113.9988,-7.68639E-05
114.0988,-7.683094E-05
114.1988,-7.680929E-05
114.2988,-7.68074E-05
114.3988,-7.676408E-05
114.4988,-7.677726E-05
114.5988,-7.672548E-05
114.6988,-7.665296E-05
114.7988,-7.664072E-05
114.8988,-7.658704E-05
114.9988,-7.651075E-05
115.0988,-7.651264E-05
115.1988,-7.644294E-05
115.2988,-7.644766E-05
115.3988,-7.644107E-05
115.4988,-7.638644E-05
115.5988,-7.633371E-05
115.6988,-7.632146E-05
115.7988,-7.630735E-05
115.8988,-7.623483E-05
115.9988,-7.623859E-05
116.0988,-7.621976E-05
116.1988,-7.616985E-05
116.2988,-7.617644E-05
116.3988,-7.609545E-05
116.4988,-7.605684E-05
116.5988,-7.604648E-05
116.6988,-7.603141E-05
116.7988,-7.597962E-05
116.8988,-7.596738E-05
116.9988,-7.596926E-05
117.0988,-7.590898E-05
117.1988,-7.590239E-05
117.2988,-7.584118E-05
117.3988,-7.580822E-05
117.4988,-7.577715E-05
117.5988,-7.57423E-05
117.6988,-7.565849E-05
117.7988,-7.569615E-05
117.8988,-7.571781E-05
117.9988,-7.563683E-05
118.0988,-7.559351E-05
118.1988,-7.554077E-05
118.2988,-7.550498E-05
118.3988,-7.550028E-05
118.4988,-7.546449E-05
118.5988,-7.539857E-05
118.6988,-7.537314E-05
118.7988,-7.532982E-05
118.8988,-7.530252E-05
118.9988,-7.528745E-05
119.0988,-7.525354E-05
119.1988,-7.520834E-05
119.2988,-7.521494E-05
119.3988,-7.516219E-05
119.4987,-7.511134E-05
119.5987,-7.506237E-05
119.6987,-7.506237E-05
119.7987,-7.503223E-05
119.8987,-7.50313E-05
119.9987,-7.494748E-05
120.0987,-7.491734E-05
120.1987,-7.494842E-05
120.2987,-7.486743E-05
120.3987,-7.483729E-05
120.4987,-7.49164E-05
120.5987,-7.489286E-05
120.6987,-7.479963E-05
120.7987,-7.47224E-05
120.8987,-7.46951E-05
120.9987,-7.463105E-05
121.0987,-7.463483E-05
121.1987,-7.458209E-05
121.2987,-7.449357E-05
121.3987,-7.451146E-05
121.4987,-7.448791E-05
121.5987,-7.445119E-05
121.6987,-7.445966E-05
121.7987,-7.440316E-05
121.8987,-7.438433E-05
121.9987,-7.437397E-05
122.0987,-7.435136E-05
122.1987,-7.430898E-05
122.2987,-7.430051E-05
122.3987,-7.422894E-05
122.4987,-7.420446E-05
122.5987,-7.417056E-05
122.6987,-7.411499E-05
122.7987,-7.406037E-05
122.8987,-7.40905E-05
122.9987,-7.405189E-05
123.0987,-7.396055E-05
123.1987,-7.395866E-05
123.2987,-7.393982E-05
123.3987,-7.392759E-05
123.4987,-7.392947E-05
123.5987,-7.3937E-05
123.6987,-7.387767E-05
123.7987,-7.381552E-05
123.8987,-7.373547E-05
123.9987,-7.372888E-05
124.0987,-7.371381E-05
124.1987,-7.371757E-05
124.2987,-7.364695E-05
124.3987,-7.360456E-05
124.4987,-7.359704E-05
124.5987,-7.352923E-05
124.6987,-7.35151E-05
124.7987,-7.346331E-05
124.8987,-7.3436E-05
124.9987,-7.340869E-05
125.0987,-7.33795E-05
125.1987,-7.338137E-05
125.2987,-7.33051E-05
125.3987,-7.331546E-05
125.4987,-7.330699E-05
125.5987,-7.32486E-05
125.6987,-7.323918E-05
125.7987,-7.319869E-05
125.8987,-7.313182E-05
125.9986,-7.311487E-05
126.0986,-7.306966E-05
126.1986,-7.304989E-05
126.2986,-7.304896E-05
126.3986,-7.30141E-05
126.4986,-7.293971E-05
126.5986,-7.293877E-05
126.6986,-7.291805E-05
126.7986,-7.285966E-05
126.8986,-7.283989E-05
126.9986,-7.280316E-05
127.0986,-7.277208E-05
127.1986,-7.275325E-05
127.2986,-7.272876E-05
127.3986,-7.268168E-05
127.4986,-7.266096E-05
127.5986,-7.259127E-05
127.6986,-7.267508E-05
127.7986,-7.267791E-05
127.8986,-7.261387E-05
127.9986,-7.249898E-05
128.0986,-7.248956E-05
128.1986,-7.247073E-05
128.2986,-7.241988E-05
128.3986,-7.238503E-05
128.4986,-7.233041E-05
128.5986,-7.22984E-05
128.6987,-7.229933E-05
128.7987,-7.226261E-05
128.8987,-7.220139E-05
128.9987,-7.221364E-05
129.0987,-7.216749E-05
129.1987,-7.213264E-05
129.2987,-7.214583E-05
129.3987,-7.212417E-05
129.4987,-7.210345E-05
129.5987,-7.206955E-05
129.6987,-7.20526E-05
129.7987,-7.200269E-05
129.8987,-7.198386E-05
129.9987,-7.195937E-05
130.0987,-7.192735E-05
130.1987,-7.188968E-05
130.2988,-7.184353E-05
130.3988,-7.182093E-05
130.4988,-7.179362E-05
130.5988,-7.176631E-05
130.6988,-7.172676E-05
130.7988,-7.170039E-05
130.8988,-7.165424E-05
130.9988,-7.163353E-05
131.0988,-7.163258E-05
131.1988,-7.158833E-05
131.2988,-7.15516E-05
131.3988,-7.152617E-05
131.4988,-7.148567E-05
131.5988,-7.144801E-05
131.6988,-7.147249E-05
131.7988,-7.141222E-05
131.8988,-7.140939E-05
131.9989,-7.141034E-05
132.0989,-7.137549E-05
132.1989,-7.135478E-05
132.2989,-7.134348E-05
132.3989,-7.128038E-05
132.4989,-7.122765E-05
132.5989,-7.122011E-05
132.6989,-7.120598E-05
132.7989,-7.116078E-05
132.8989,-7.114476E-05
132.9989,-7.109768E-05
133.0989,-7.113347E-05
133.1989,-7.109863E-05
133.2989,-7.106567E-05
133.3989,-7.101857E-05
133.4989,-7.099503E-05
133.599,-7.096396E-05
133.699,-7.09423E-05
133.799,-7.092911E-05
133.899,-7.090839E-05
133.999,-7.088014E-05
134.099,-7.085377E-05
134.199,-7.084718E-05
134.299,-7.079162E-05
134.399,-7.074077E-05
134.499,-7.07144E-05
134.599,-7.068144E-05
134.699,-7.063624E-05
134.799,-7.061929E-05
134.899,-7.059763E-05
134.999,-7.060233E-05
135.099,-7.059291E-05
135.1991,-7.0543E-05
135.2991,-7.050722E-05
135.3991,-7.050439E-05
135.4991,-7.048179E-05
135.5991,-7.04121E-05
135.6991,-7.042717E-05
135.7991,-7.044318E-05
135.8991,-7.039327E-05
135.9991,-7.037631E-05
136.0991,-7.034053E-05
136.1991,-7.029721E-05
136.2991,-7.032546E-05
136.3991,-7.02699E-05
136.4991,-7.021904E-05
136.5991,-7.018608E-05
136.6991,-7.015878E-05
136.7991,-7.011828E-05
136.8992,-7.011546E-05
136.9992,-7.007496E-05
137.0992,-7.007308E-05
137.1992,-7.016537E-05
137.2992,-7.007214E-05
137.3992,-7.002599E-05
137.4992,-6.996102E-05
137.5992,-6.991675E-05
137.6992,-6.989697E-05
137.7992,-6.98659E-05
137.8992,-6.982635E-05
137.9992,-6.979339E-05
138.0992,-6.978962E-05
138.1992,-6.975665E-05
138.2992,-6.971617E-05
138.3992,-6.97397E-05
138.4993,-6.972652E-05
138.5993,-6.968791E-05
138.6993,-6.967944E-05
138.7993,-6.964365E-05
138.8993,-6.95928E-05
138.9993,-6.95815E-05
139.0993,-6.957302E-05
139.1993,-6.950615E-05
139.2993,-6.948073E-05
139.3993,-6.947884E-05
139.4993,-6.944588E-05
139.5993,-6.942612E-05
139.6993,-6.936678E-05
139.7993,-6.933382E-05
139.8993,-6.930839E-05
139.9993,-6.929521E-05
140.0993,-6.923588E-05
140.1994,-6.922081E-05
140.2994,-6.918126E-05
140.3994,-6.916996E-05
140.4994,-6.914924E-05
140.5994,-6.911063E-05
140.6994,-6.912758E-05
140.7994,-6.914264E-05
140.8994,-6.912193E-05
140.9994,-6.910309E-05
141.0994,-6.906167E-05
141.1994,-6.903435E-05
141.2994,-6.898632E-05
141.3994,-6.895713E-05
141.4994,-6.893829E-05
141.5994,-6.88978E-05
141.6994,-6.886296E-05
141.7995,-6.888273E-05
141.8995,-6.884224E-05
141.9995,-6.885071E-05
142.0995,-6.885165E-05
142.1995,-6.888649E-05
142.2995,-6.878291E-05
142.3995,-6.875277E-05
142.4995,-6.869721E-05
142.5995,-6.867744E-05
142.6995,-6.868403E-05
142.7995,-6.863788E-05
142.8995,-6.860303E-05
142.9995,-6.858986E-05
143.0995,-6.857573E-05
143.1995,-6.852392E-05
143.2995,-6.849003E-05
143.3996,-6.845989E-05
143.4996,-6.841186E-05
143.5996,-6.843164E-05
143.6996,-6.838644E-05
143.7996,-6.836667E-05
143.8996,-6.837137E-05
143.9996,-6.832522E-05
144.0996,-6.827532E-05
144.1996,-6.830733E-05
144.2996,-6.828379E-05
144.3996,-6.821693E-05
144.4996,-6.819527E-05
144.5996,-6.816231E-05
144.6996,-6.815195E-05
144.7996,-6.814818E-05
144.8996,-6.809356E-05
144.9996,-6.807755E-05
145.0997,-6.808132E-05
145.1997,-6.803611E-05
145.2997,-6.799751E-05
145.3997,-6.799468E-05
145.4997,-6.796455E-05
145.5997,-6.792969E-05
145.6997,-6.791275E-05
145.7997,-6.78845E-05
145.8997,-6.785813E-05
145.9997,-6.78619E-05
146.0997,-6.782799E-05
146.1997,-6.776867E-05
146.2997,-6.779598E-05
146.3997,-6.776395E-05
146.4997,-6.77131E-05
146.5997,-6.769239E-05
146.6998,-6.764435E-05
146.7998,-6.760104E-05
146.8998,-6.761234E-05
146.9998,-6.757749E-05
147.0998,-6.755489E-05
147.1998,-6.752852E-05
147.2998,-6.749838E-05
147.3998,-6.747484E-05
147.4998,-6.744188E-05
147.5998,-6.740233E-05
147.6998,-6.738161E-05
147.7998,-6.734394E-05
147.8998,-6.735713E-05
147.9998,-6.729309E-05
148.0998,-6.726202E-05
148.1998,-6.725824E-05
148.2999,-6.720833E-05
148.3999,-6.720927E-05
148.4999,-6.715371E-05
148.5999,-6.712734E-05
148.6999,-6.712546E-05
148.7999,-6.708496E-05
148.8999,-6.715183E-05
148.9999,-6.717726E-05
149.0999,-6.712734E-05
149.1999,-6.70181E-05
149.2999,-6.703317E-05
149.3999,-6.698327E-05
149.4999,-6.691734E-05
149.5999,-6.69051E-05
149.6999,-6.690039E-05
149.7999,-6.686083E-05
149.8999,-6.688626E-05
150,-6.686177E-05
150.1,-6.681469E-05
150.2,-6.685519E-05
150.3,-6.688814E-05
150.4,-6.679585E-05
150.5,-6.674688E-05
150.6,-6.671769E-05
150.7,-6.66772E-05
150.8,-6.669886E-05
150.9,-6.665366E-05
151,-6.658208E-05
151.1,-6.658396E-05
151.2,-6.655759E-05
151.3,-6.653123E-05
151.4,-6.654347E-05
151.5,-6.648508E-05
151.6001,-6.649262E-05
151.7001,-6.645966E-05
151.8001,-6.642481E-05
151.9001,-6.637585E-05
152.0001,-6.640692E-05
152.1001,-6.639751E-05
152.2001,-6.632404E-05
152.3001,-6.63118E-05
152.4001,-6.627413E-05
152.5001,-6.622988E-05
152.6001,-6.626472E-05
152.7001,-6.623647E-05
152.8001,-6.620822E-05
152.9001,-6.617996E-05
153.0001,-6.614041E-05
153.1001,-6.610368E-05
153.2001,-6.612346E-05
153.3002,-6.610744E-05
153.4002,-6.603965E-05
153.5002,-6.605282E-05
153.6002,-6.601045E-05
153.7002,-6.602551E-05
153.8002,-6.60387E-05
153.9002,-6.599162E-05
154.0002,-6.599255E-05
154.1002,-6.594924E-05
154.2002,-6.587766E-05
154.3002,-6.583246E-05
154.4002,-6.58739E-05
154.5002,-6.583152E-05
154.6002,-6.578255E-05
154.7002,-6.575994E-05
154.8002,-6.574111E-05
154.9003,-6.570439E-05
155.0003,-6.571474E-05
155.1003,-6.567613E-05
155.2003,-6.561304E-05
155.3003,-6.564883E-05
155.4003,-6.558197E-05
155.5003,-6.555654E-05
155.6003,-6.557348E-05
155.7003,-6.551698E-05
155.8003,-6.548308E-05
155.9003,-6.549439E-05
156.0003,-6.544447E-05
156.1003,-6.541528E-05
156.2003,-6.544447E-05
156.3003,-6.542564E-05
156.4003,-6.534747E-05
156.5004,-6.534747E-05
156.6004,-6.530227E-05
156.7004,-6.529945E-05
156.8004,-6.529285E-05
156.9004,-6.524859E-05
157.0004,-6.522505E-05
157.1004,-6.520998E-05
157.2004,-6.517702E-05
157.3004,-6.514593E-05
157.4004,-6.515819E-05
157.5004,-6.513841E-05
157.6004,-6.511674E-05
157.7004,-6.512051E-05
157.8004,-6.509226E-05
157.9004,-6.506025E-05
158.0004,-6.501598E-05
158.1004,-6.500656E-05
158.2005,-6.499621E-05
158.3005,-6.498867E-05
158.4005,-6.49444E-05
158.5005,-6.491898E-05
158.6005,-6.491522E-05
158.7005,-6.489449E-05
158.8005,-6.483893E-05
158.9005,-6.478902E-05
159.0005,-6.476077E-05
159.1005,-6.471651E-05
159.2005,-6.4741E-05
159.3005,-6.471369E-05
159.4005,-6.465059E-05
159.5005,-6.466189E-05
159.6005,-6.464493E-05
159.7005,-6.461009E-05
159.8006,-6.459032E-05
159.9006,-6.455924E-05
160.0006,-6.455359E-05
160.1006,-6.457525E-05
160.2006,-6.456112E-05
160.3006,-6.449991E-05
160.4006,-6.450462E-05
160.5006,-6.448956E-05
160.6006,-6.44726E-05
160.7006,-6.444623E-05
160.8006,-6.436901E-05
160.9006,-6.435583E-05
161.0006,-6.435865E-05
161.1006,-6.432004E-05
161.2006,-6.42965E-05
161.3006,-6.431439E-05
161.4007,-6.429556E-05
161.5007,-6.427483E-05
161.6007,-6.424753E-05
161.7007,-6.418349E-05
161.8007,-6.418349E-05
161.9007,-6.41995E-05
162.0007,-6.414489E-05
162.1007,-6.40912E-05
162.2007,-6.409214E-05
162.3007,-6.407614E-05
162.4007,-6.405824E-05
162.5007,-6.404977E-05
162.6007,-6.401022E-05
162.7007,-6.396877E-05
162.8007,-6.396218E-05
162.9007,-6.396313E-05
163.0007,-6.395936E-05
163.1008,-6.395653E-05
163.2008,-6.389438E-05
163.3008,-6.389627E-05
163.4008,-6.387837E-05
163.5008,-6.38699E-05
163.6008,-6.381904E-05
163.7008,-6.379926E-05
163.8008,-6.380114E-05
163.9008,-6.376253E-05
164.0008,-6.376819E-05
164.1008,-6.372393E-05
164.2008,-6.372298E-05
164.3008,-6.373334E-05
164.4008,-6.370886E-05
164.5008,-6.36759E-05
164.6008,-6.364482E-05
164.7009,-6.360715E-05
164.8009,-6.358455E-05
164.9009,-6.360715E-05
165.0009,-6.356195E-05
165.1009,-6.352428E-05
165.2009,-6.35045E-05
165.3009,-6.351109E-05
165.4009,-6.345836E-05
165.5009,-6.343387E-05
165.6009,-6.34367E-05
165.7009,-6.34207E-05
165.8009,-6.338207E-05
165.9009,-6.338019E-05
166.0009,-6.33849E-05
166.1009,-6.33576E-05
166.2009,-6.332275E-05
166.3009,-6.328508E-05
166.401,-6.327567E-05
166.501,-6.325777E-05
166.601,-6.324647E-05
166.701,-6.322857E-05
166.801,-6.321728E-05
166.901,-6.320597E-05
167.001,-6.315229E-05
167.101,-6.312686E-05
167.201,-6.308637E-05
167.301,-6.30939E-05
167.401,-6.308355E-05
167.501,-6.304117E-05
167.601,-6.298748E-05
167.701,-6.297337E-05
167.801,-6.295736E-05
167.901,-6.295547E-05
168.0011,-6.29291E-05
168.1011,-6.287166E-05
168.2011,-6.286883E-05
168.3011,-6.285847E-05
168.4011,-6.281327E-05
168.5011,-6.282458E-05
168.6011,-6.278031E-05
168.7011,-6.274641E-05
168.8011,-6.273887E-05
168.9011,-6.272851E-05
169.0011,-6.270214E-05
169.1011,-6.267578E-05
169.2011,-6.264658E-05
169.3011,-6.261833E-05
169.4011,-6.262681E-05
169.5011,-6.257408E-05
169.6012,-6.252793E-05
169.7012,-6.254583E-05
169.8012,-6.254394E-05
169.9012,-6.250532E-05
170.0012,-6.250156E-05
170.1012,-6.247236E-05
170.2012,-6.245824E-05
170.3012,-6.246578E-05
170.4012,-6.242246E-05
170.5012,-6.238196E-05
170.6012,-6.238855E-05
170.7012,-6.235841E-05
170.8012,-6.233016E-05
170.9012,-6.233581E-05
171.0012,-6.228402E-05
171.1012,-6.222752E-05
171.2012,-6.223599E-05
171.3013,-6.223128E-05
171.4013,-6.218231E-05
171.5013,-6.217572E-05
171.6013,-6.217195E-05
171.7013,-6.217477E-05
171.8013,-6.213522E-05
171.9013,-6.210792E-05
172.0013,-6.210039E-05
172.1013,-6.206836E-05
172.2013,-6.202881E-05
172.3013,-6.200903E-05
172.4013,-6.197231E-05
172.5013,-6.195442E-05
172.6013,-6.193652E-05
172.7013,-6.194123E-05
172.8013,-6.193464E-05
172.9014,-6.191015E-05
173.0014,-6.186118E-05
173.1014,-6.186495E-05
173.2014,-6.185082E-05
173.3014,-6.180751E-05
173.4014,-6.177642E-05
173.5014,-6.179055E-05
173.6014,-6.173687E-05
173.7014,-6.172934E-05
173.8014,-6.16879E-05
173.9014,-6.167095E-05
174.0014,-6.166624E-05
174.1014,-6.163705E-05
174.2014,-6.158902E-05
174.3014,-6.158242E-05
174.4014,-6.161351E-05
174.5014,-6.155794E-05
174.6015,-6.157113E-05
174.7015,-6.150238E-05
174.8015,-6.148072E-05
174.9015,-6.149485E-05
175.0015,-6.149767E-05
175.1015,-6.144494E-05
175.2015,-6.13922E-05
175.3015,-6.139031E-05
175.4015,-6.137525E-05
175.5015,-6.136112E-05
175.6015,-6.132816E-05
175.7015,-6.13131E-05
175.8015,-6.131498E-05
175.9015,-6.12726E-05
176.0015,-6.125942E-05
176.1015,-6.124341E-05
176.2016,-6.124717E-05
176.3016,-6.123776E-05
176.4016,-6.124058E-05
176.5016,-6.120009E-05
176.6016,-6.116054E-05
176.7016,-6.117843E-05
176.8016,-6.113134E-05
176.9016,-6.109555E-05
177.0016,-6.107013E-05
177.1016,-6.109367E-05
177.2016,-6.10673E-05
177.3016,-6.101551E-05
177.4016,-6.100986E-05
177.5016,-6.099102E-05
177.6016,-6.099008E-05
177.7016,-6.096842E-05
177.8017,-6.091945E-05
177.9017,-6.087896E-05
178.0017,-6.088743E-05
178.1017,-6.085541E-05
178.2017,-6.081962E-05
178.3017,-6.082999E-05
178.4017,-6.079232E-05
178.5017,-6.079891E-05
178.6017,-6.075935E-05
178.7017,-6.072169E-05
178.8017,-6.072357E-05
178.9017,-6.067554E-05
179.0017,-6.065859E-05
179.1017,-6.070944E-05
179.2017,-6.069061E-05
179.3017,-6.063787E-05
179.4017,-6.059267E-05
179.5018,-6.055783E-05
179.6018,-6.057101E-05
179.7018,-6.058984E-05
179.8018,-6.056348E-05
179.9018,-6.056253E-05
180.0018,-6.051921E-05
180.1018,-6.049096E-05
180.2018,-6.045989E-05
180.3018,-6.044482E-05
180.4018,-6.043446E-05
180.5018,-6.039773E-05
180.6018,-6.040903E-05
180.7018,-6.037042E-05
180.8018,-6.035629E-05
180.9018,-6.036289E-05
181.0018,-6.032145E-05
181.1019,-6.029037E-05
181.2019,-6.030544E-05
181.3019,-6.029508E-05
181.4019,-6.027719E-05
181.5019,-6.025459E-05
181.6019,-6.023104E-05
181.7019,-6.02301E-05
181.8019,-6.02414E-05
181.9019,-6.017266E-05
182.0019,-6.015194E-05
182.1019,-6.015947E-05
182.2019,-6.013687E-05
182.3019,-6.00879E-05
182.4019,-6.010485E-05
182.5019,-6.010862E-05
182.6019,-6.006436E-05
182.702,-6.004552E-05
182.802,-5.99909E-05
182.902,-5.99796E-05
183.002,-6.00314E-05
183.102,-5.993157E-05
183.202,-5.995982E-05
183.302,-6.001162E-05
183.402,-5.999561E-05
183.502,-5.994758E-05
183.602,-5.992216E-05
183.702,-5.987319E-05
183.802,-5.982987E-05
183.902,-5.982987E-05
184.002,-5.979784E-05
184.102,-5.976677E-05
184.202,-5.976583E-05
184.302,-5.972439E-05
184.4021,-5.97112E-05
184.5021,-5.971592E-05
184.6021,-5.971309E-05
184.7021,-5.967071E-05
184.8021,-5.96726E-05
184.9021,-5.966412E-05
185.0021,-5.96095E-05
185.1021,-5.959067E-05
185.2021,-5.957277E-05
185.3021,-5.9553E-05
185.4021,-5.954546E-05
185.5021,-5.953793E-05
185.6021,-5.952192E-05
185.7021,-5.949084E-05
185.8021,-5.945223E-05
185.9021,-5.946824E-05
186.0022,-5.950779E-05
186.1022,-5.947013E-05
186.2022,-5.943434E-05
186.3022,-5.939761E-05
186.4022,-5.937689E-05
186.5022,-5.935806E-05
186.6022,-5.935712E-05
186.7022,-5.932322E-05
186.8022,-5.92799E-05
186.9022,-5.927707E-05
187.0022,-5.926859E-05
187.1022,-5.923658E-05
187.2022,-5.924129E-05
187.3022,-5.922621E-05
187.4022,-5.918666E-05
187.5022,-5.917913E-05
187.6022,-5.917442E-05
187.7023,-5.914335E-05
187.8023,-5.912451E-05
187.9023,-5.909814E-05
188.0023,-5.907366E-05
188.1023,-5.910473E-05
188.2023,-5.911038E-05
188.3023,-5.905859E-05
188.4023,-5.904352E-05
188.5023,-5.90228E-05
188.6023,-5.901245E-05
188.7023,-5.901621E-05
188.8023,-5.896159E-05
188.9023,-5.895971E-05
189.0023,-5.899361E-05
189.1023,-5.897383E-05
189.2023,-5.894558E-05
189.3024,-5.894464E-05
189.4024,-5.890791E-05
189.5024,-5.88919E-05
189.6024,-5.885706E-05
189.7024,-5.884859E-05
189.8024,-5.881845E-05
189.9024,-5.882881E-05
190.0024,-5.877607E-05
190.1024,-5.874028E-05
190.2024,-5.873934E-05
190.3024,-5.875441E-05
190.4024,-5.873746E-05
190.5024,-5.87271E-05
190.6024,-5.868284E-05
190.7024,-5.86819E-05
190.8024,-5.866306E-05
190.9025,-5.865364E-05
191.0025,-5.863858E-05
191.1025,-5.857737E-05
191.2025,-5.855476E-05
191.3025,-5.854063E-05
191.4025,-5.852933E-05
191.5025,-5.851897E-05
191.6025,-5.852368E-05
191.7025,-5.852557E-05
191.8025,-5.850391E-05
191.9025,-5.847565E-05
192.0025,-5.844364E-05
192.1025,-5.843045E-05
192.2025,-5.840879E-05
192.3025,-5.838148E-05
192.4025,-5.839844E-05
192.5025,-5.839749E-05
192.6026,-5.832969E-05
192.7026,-5.834382E-05
192.8026,-5.833817E-05
192.9026,-5.830521E-05
193.0026,-5.829484E-05
193.1026,-5.825812E-05
193.2026,-5.825435E-05
193.3026,-5.82534E-05
193.4026,-5.821009E-05
193.5026,-5.829108E-05
193.6026,-5.830426E-05
193.7026,-5.826848E-05
193.8026,-5.822327E-05
193.9026,-5.818372E-05
194.0026,-5.813851E-05
194.1026,-5.816771E-05
194.2027,-5.816583E-05
194.3027,-5.812156E-05
194.4027,-5.811591E-05
194.5027,-5.811215E-05
194.6027,-5.808484E-05
194.7027,-5.806977E-05
194.8027,-5.804623E-05
194.9027,-5.796712E-05
195.0027,-5.798972E-05
195.1027,-5.798501E-05
195.2027,-5.797277E-05
195.3027,-5.793134E-05
195.4027,-5.79577E-05
195.5027,-5.792757E-05
195.6027,-5.791909E-05
195.7027,-5.789838E-05
195.8027,-5.789838E-05
195.9028,-5.793134E-05
196.0028,-5.790026E-05
196.1028,-5.78607E-05
196.2028,-5.783998E-05
196.3028,-5.781644E-05
196.4028,-5.782869E-05
196.5028,-5.779855E-05
196.6028,-5.782115E-05
196.7028,-5.779855E-05
196.8028,-5.774958E-05
196.9028,-5.773922E-05
197.0028,-5.77185E-05
197.1028,-5.770721E-05
197.2028,-5.769967E-05
197.3028,-5.766954E-05
197.4028,-5.765447E-05
197.5029,-5.764129E-05
197.6029,-5.761303E-05
197.7029,-5.759231E-05
197.8029,-5.758101E-05
197.9029,-5.756783E-05
198.0029,-5.754617E-05
198.1029,-5.755087E-05
198.2029,-5.750285E-05
198.3029,-5.74859E-05
198.4029,-5.749626E-05
198.5029,-5.748496E-05
198.6029,-5.747271E-05
198.7029,-5.747083E-05
198.8029,-5.74228E-05
198.9029,-5.741338E-05
199.0029,-5.737571E-05
199.103,-5.7355E-05
199.203,-5.73437E-05
199.303,-5.732015E-05
199.403,-5.731356E-05
199.503,-5.727495E-05
199.603,-5.725611E-05
199.703,-5.723257E-05
199.803,-5.720809E-05
199.903,-5.721185E-05
200.003,-5.722315E-05
200.103,-5.71789E-05
200.203,-5.713652E-05
200.303,-5.716948E-05
200.403,-5.711862E-05
200.503,-5.709979E-05
200.603,-5.713652E-05
200.703,-5.713087E-05
200.8031,-5.707907E-05
200.9031,-5.708943E-05
201.0031,-5.704611E-05
201.1031,-5.702539E-05
201.2031,-5.70301E-05
201.3031,-5.700656E-05
201.4031,-5.698772E-05
201.5031,-5.696041E-05
201.6031,-5.693593E-05
201.7031,-5.693121E-05
201.8031,-5.694911E-05
201.9031,-5.688225E-05
202.0031,-5.684646E-05
202.1031,-5.684552E-05
202.2031,-5.684081E-05
202.3031,-5.683987E-05
202.4032,-5.683328E-05
202.5032,-5.677771E-05
202.6032,-5.67504E-05
202.7032,-5.677583E-05
202.8032,-5.6757E-05
202.9032,-5.674099E-05
203.0032,-5.673628E-05
203.1032,-5.671368E-05
203.2032,-5.671744E-05
203.3032,-5.670897E-05
203.4032,-5.667413E-05
203.5032,-5.66487E-05
203.6032,-5.666E-05
203.7032,-5.664681E-05
203.8032,-5.661102E-05
203.9032,-5.657054E-05
204.0033,-5.654699E-05
204.1033,-5.653757E-05
204.2033,-5.652533E-05
204.3033,-5.651026E-05
204.4033,-5.652156E-05
204.5033,-5.649802E-05
204.6033,-5.649613E-05
204.7033,-5.646035E-05
204.8033,-5.64726E-05
204.9033,-5.644057E-05
205.0033,-5.641138E-05
205.1033,-5.643963E-05
205.2033,-5.641892E-05
205.3033,-5.638313E-05
205.4033,-5.636995E-05
205.5033,-5.634829E-05
205.6033,-5.632663E-05
205.7034,-5.630402E-05
205.8034,-5.630026E-05
205.9034,-5.627672E-05
206.0034,-5.625317E-05
206.1034,-5.62334E-05
206.2034,-5.623528E-05
206.3034,-5.621268E-05
206.4034,-5.617784E-05
206.5034,-5.614864E-05
206.6034,-5.615994E-05
206.7034,-5.617406E-05
206.8034,-5.612604E-05
206.9034,-5.615711E-05
207.0034,-5.615241E-05
207.1034,-5.610909E-05
207.2034,-5.615241E-05
207.3035,-5.611474E-05
207.4035,-5.607142E-05
207.5035,-5.604317E-05
207.6035,-5.602716E-05
207.7035,-5.600456E-05
207.8035,-5.601209E-05
207.9035,-5.601586E-05
208.0035,-5.597818E-05
208.1035,-5.598478E-05
208.2035,-5.595558E-05
208.3035,-5.591509E-05
208.4035,-5.594993E-05
208.5035,-5.594146E-05
208.6035,-5.595558E-05
208.7035,-5.59311E-05
208.8035,-5.590002E-05
208.9035,-5.587553E-05
209.0036,-5.584446E-05
209.1036,-5.583881E-05
209.2036,-5.582939E-05
209.3036,-5.583033E-05
209.4036,-5.579549E-05
209.5036,-5.576724E-05
209.6036,-5.578513E-05
209.7036,-5.576912E-05
209.8036,-5.573239E-05
209.9036,-5.572015E-05
210.0036,-5.571356E-05
210.1036,-5.570414E-05
210.2036,-5.568719E-05
210.3036,-5.567118E-05
210.4036,-5.568154E-05
210.5036,-5.566082E-05
210.6037,-5.567589E-05
210.7037,-5.56514E-05
210.8037,-5.56062E-05
210.9037,-5.560997E-05
211.0037,-5.558737E-05
211.1037,-5.555723E-05
211.2037,-5.555723E-05
211.3037,-5.553463E-05
211.4037,-5.552239E-05
211.5037,-5.552615E-05
211.6037,-5.547436E-05
211.7037,-5.555252E-05
211.8037,-5.555158E-05
211.9037,-5.549131E-05
212.0037,-5.544988E-05
212.1037,-5.547907E-05
212.2038,-5.544328E-05
212.3038,-5.54301E-05
212.4038,-5.540467E-05
212.5038,-5.536606E-05
212.6038,-5.532274E-05
212.7038,-5.535476E-05
212.8038,-5.530014E-05
212.9038,-5.528883E-05
213.0038,-5.529072E-05
213.1038,-5.526059E-05
213.2038,-5.522857E-05
213.3038,-5.524834E-05
213.4038,-5.521162E-05
213.5038,-5.523327E-05
213.6038,-5.522574E-05
213.7038,-5.518901E-05
213.8038,-5.513722E-05
213.9039,-5.515135E-05
214.0039,-5.51278E-05
214.1039,-5.51165E-05
214.2039,-5.510237E-05
214.3039,-5.507506E-05
214.4039,-5.506471E-05
214.5039,-5.508731E-05
214.6039,-5.503363E-05
214.7039,-5.50195E-05
214.8039,-5.502045E-05
214.9039,-5.498937E-05
215.0039,-5.495264E-05
215.1039,-5.496676E-05
215.2039,-5.492439E-05
215.3039,-5.492722E-05
215.4039,-5.494134E-05
215.504,-5.489331E-05
215.604,-5.486506E-05
215.704,-5.48773E-05
215.804,-5.485847E-05
215.904,-5.486035E-05
216.004,-5.48839E-05
216.104,-5.486223E-05
216.204,-5.481703E-05
216.304,-5.48547E-05
216.404,-5.482362E-05
216.504,-5.476618E-05
216.604,-5.475299E-05
216.704,-5.473604E-05
216.804,-5.470497E-05
216.904,-5.471061E-05
217.004,-5.469931E-05
217.104,-5.464846E-05
217.2041,-5.465317E-05
217.3041,-5.465505E-05
217.4041,-5.46381E-05
217.5041,-5.466823E-05
217.6041,-5.466259E-05
217.7041,-5.465788E-05
217.8041,-5.465505E-05
217.9041,-5.457124E-05
218.0041,-5.45637E-05
218.1041,-5.455899E-05
218.2041,-5.45637E-05
218.3041,-5.449967E-05
218.4041,-5.448366E-05
218.5041,-5.449778E-05
218.6041,-5.447142E-05
218.7041,-5.446388E-05
218.8042,-5.444882E-05
218.9042,-5.445823E-05
219.0042,-5.444882E-05
219.1042,-5.4462E-05
219.2042,-5.44394E-05
219.3042,-5.437065E-05
219.4042,-5.4365E-05
219.5042,-5.434993E-05
219.6042,-5.432262E-05
219.7042,-5.431038E-05
219.8042,-5.425199E-05
219.9042,-5.426141E-05
220.0042,-5.427177E-05
220.1042,-5.423598E-05
220.2042,-5.424258E-05
220.3042,-5.427836E-05
220.4043,-5.426611E-05
220.5043,-5.423598E-05
220.6043,-5.420773E-05
220.7043,-5.418701E-05
220.8043,-5.414652E-05
220.9043,-5.417571E-05
221.0043,-5.413239E-05
221.1043,-5.411168E-05
221.2043,-5.413051E-05
221.3043,-5.407965E-05
221.4043,-5.406835E-05
221.5043,-5.410791E-05
221.6043,-5.40693E-05
221.7043,-5.404387E-05
221.8043,-5.405894E-05
221.9043,-5.40401E-05
222.0043,-5.403163E-05
222.1044,-5.402409E-05
222.2044,-5.40062E-05
222.3044,-5.398737E-05
222.4044,-5.398737E-05
222.5044,-5.393933E-05
222.6044,-5.392898E-05
222.7044,-5.395441E-05
222.8044,-5.393463E-05
222.9044,-5.387247E-05
223.0044,-5.386776E-05
223.1044,-5.386682E-05
223.2044,-5.386117E-05
223.3044,-5.384516E-05
223.4044,-5.382915E-05
223.5044,-5.385552E-05
223.6044,-5.386871E-05
223.7045,-5.382915E-05
223.8045,-5.380561E-05
223.9045,-5.379996E-05
224.0045,-5.377642E-05
224.1045,-5.374628E-05
224.2045,-5.374157E-05
224.3045,-5.372839E-05
224.4045,-5.369166E-05
224.5045,-5.371332E-05
224.6045,-5.368695E-05
224.7045,-5.367377E-05
224.8045,-5.368507E-05
224.9045,-5.363892E-05
225.0045,-5.361915E-05
225.1045,-5.36474E-05
225.2045,-5.36295E-05
225.3046,-5.361444E-05
225.4046,-5.359937E-05
225.5046,-5.357112E-05
225.6046,-5.357771E-05
225.7046,-5.353345E-05
225.8046,-5.353157E-05
225.9046,-5.357677E-05
226.0046,-5.359278E-05
226.1046,-5.35683E-05
226.2046,-5.350331E-05
226.3046,-5.348165E-05
226.4046,-5.346188E-05
226.5046,-5.344211E-05
226.6046,-5.343551E-05
226.7046,-5.340161E-05
226.8046,-5.337618E-05
226.9046,-5.338748E-05
227.0047,-5.339785E-05
227.1047,-5.335829E-05
227.2047,-5.333474E-05
227.3047,-5.333192E-05
227.4047,-5.329896E-05
227.5047,-5.330932E-05
227.6047,-5.331309E-05
227.7047,-5.324152E-05
227.8047,-5.325093E-05
227.9047,-5.324434E-05
228.0047,-5.320949E-05
228.1047,-5.322833E-05
228.2047,-5.319254E-05
228.3047,-5.315393E-05
228.4047,-5.315488E-05
228.5047,-5.315958E-05
228.6048,-5.315581E-05
228.7048,-5.31464E-05
228.8048,-5.310873E-05
228.9048,-5.309084E-05
229.0048,-5.311061E-05
229.1048,-5.312285E-05
229.2048,-5.306541E-05
229.3048,-5.303622E-05
229.4048,-5.304658E-05
229.5048,-5.304187E-05
229.6048,-5.304187E-05
229.7048,-5.300043E-05
229.8048,-5.296653E-05
229.9048,-5.301079E-05
230.0048,-5.297124E-05
230.1048,-5.296277E-05
230.2048,-5.293451E-05
230.3049,-5.293827E-05
230.4049,-5.293074E-05
230.5049,-5.289873E-05
230.6049,-5.287613E-05
230.7049,-5.284504E-05
230.8049,-5.28554E-05
230.9049,-5.285823E-05
231.0049,-5.281209E-05
231.1049,-5.280644E-05
231.2049,-5.280832E-05
231.3049,-5.276971E-05
231.4049,-5.274993E-05
231.5049,-5.273769E-05
231.6049,-5.27245E-05
231.7049,-5.27085E-05
231.8049,-5.268872E-05
231.905,-5.269531E-05
232.005,-5.266423E-05
232.105,-5.266423E-05
232.205,-5.264351E-05
232.305,-5.261432E-05
232.405,-5.26049E-05
232.505,-5.260396E-05
232.605,-5.260302E-05
232.705,-5.257759E-05
232.805,-5.253145E-05
232.905,-5.256253E-05
233.005,-5.254934E-05
233.105,-5.253333E-05
233.205,-5.249472E-05
233.305,-5.254934E-05
233.405,-5.254557E-05
233.5051,-5.250131E-05
233.6051,-5.2474E-05
233.7051,-5.246741E-05
233.8051,-5.243727E-05
233.9051,-5.245328E-05
234.0051,-5.244858E-05
234.1051,-5.242127E-05
234.2051,-5.239301E-05
234.3051,-5.236947E-05
234.4051,-5.238831E-05
234.5051,-5.238548E-05
234.6051,-5.235911E-05
234.7051,-5.233651E-05
234.8051,-5.232803E-05
234.9051,-5.230167E-05
235.0051,-5.229131E-05
235.1051,-5.229601E-05
235.2052,-5.227153E-05
235.3052,-5.222068E-05
235.4052,-5.223198E-05
235.5052,-5.222633E-05
235.6052,-5.221596E-05
235.7052,-5.221691E-05
235.8052,-5.215382E-05
235.9052,-5.218772E-05
236.0052,-5.220373E-05
236.1052,-5.215382E-05
236.2052,-5.211991E-05
236.3052,-5.212462E-05
236.4052,-5.211897E-05
236.5052,-5.209919E-05
236.6052,-5.208224E-05
236.7052,-5.203798E-05
236.8053,-5.201915E-05
236.9053,-5.203422E-05
237.0053,-5.201255E-05
237.1053,-5.201726E-05
237.2053,-5.202009E-05
237.3053,-5.197206E-05
237.4053,-5.194758E-05
237.5053,-5.195228E-05
237.6053,-5.19391E-05
237.7053,-5.19165E-05
237.8053,-5.190708E-05
237.9053,-5.186188E-05
238.0053,-5.186941E-05
238.1053,-5.188824E-05
238.2053,-5.185529E-05
238.3053,-5.183928E-05
238.4053,-5.187318E-05
238.5054,-5.184398E-05
238.6054,-5.181573E-05
238.7054,-5.178936E-05
238.8054,-5.178466E-05
238.9054,-5.179219E-05
239.0054,-5.178371E-05
239.1054,-5.176582E-05
239.2054,-5.172062E-05
239.3054,-5.17451E-05
239.4054,-5.17225E-05
239.5054,-5.17112E-05
239.6054,-5.166977E-05
239.7054,-5.1666E-05
239.8054,-5.167071E-05
239.9054,-5.165658E-05
240.0054,-5.162645E-05
240.1055,-5.16368E-05
240.2055,-5.166883E-05
240.3055,-5.16434E-05
240.4055,-5.161797E-05
240.5055,-5.161232E-05
240.6055,-5.158783E-05
240.7055,-5.155864E-05
240.8055,-5.156052E-05
240.9055,-5.15464E-05
241.0055,-5.151815E-05
241.1055,-5.151626E-05
241.2055,-5.15059E-05
241.3055,-5.152568E-05
241.4055,-5.15238E-05
241.5055,-5.149366E-05
241.6055,-5.144563E-05
241.7056,-5.146824E-05
241.8056,-5.143621E-05
241.9056,-5.140325E-05
242.0056,-5.141455E-05
242.1056,-5.140043E-05
242.2056,-5.137312E-05
242.3056,-5.136088E-05
242.4056,-5.135899E-05
242.5056,-5.135617E-05
242.6056,-5.134016E-05
242.7056,-5.131285E-05
242.8056,-5.128554E-05
242.9056,-5.135523E-05
243.0056,-5.13185E-05
243.1056,-5.125446E-05
243.2056,-5.126482E-05
243.3056,-5.123657E-05
243.4057,-5.121585E-05
243.5057,-5.122997E-05
243.6057,-5.12102E-05
243.7057,-5.120549E-05
243.8057,-5.122244E-05
243.9057,-5.118195E-05
244.0057,-5.11763E-05
244.1057,-5.1165E-05
244.2057,-5.114993E-05
244.3057,-5.113298E-05
244.4057,-5.114522E-05
244.5057,-5.112262E-05
244.6057,-5.109248E-05
244.7057,-5.110661E-05
244.8057,-5.111132E-05
244.9057,-5.104728E-05
245.0058,-5.105105E-05
245.1058,-5.105575E-05
245.2058,-5.103881E-05
245.3058,-5.102562E-05
245.4058,-5.099266E-05
245.5058,-5.098418E-05
245.6058,-5.098136E-05
245.7058,-5.098889E-05
245.8058,-5.093427E-05
245.9058,-5.096629E-05
246.0058,-5.097571E-05
246.1058,-5.096252E-05
246.2058,-5.091167E-05
246.3058,-5.093145E-05
246.4058,-5.091638E-05
246.5058,-5.090884E-05
246.6059,-5.090037E-05
246.7059,-5.086929E-05
246.8059,-5.085328E-05
246.9059,-5.086364E-05
247.0059,-5.082786E-05
247.1059,-5.085328E-05
247.2059,-5.084763E-05
247.3059,-5.079584E-05
247.4059,-5.078642E-05
247.5059,-5.07883E-05
247.6059,-5.074593E-05
247.7059,-5.074687E-05
247.8059,-5.074498E-05
247.9059,-5.075723E-05
248.0059,-5.069319E-05
248.1059,-5.070072E-05
248.2059,-5.069037E-05
248.306,-5.065646E-05
248.406,-5.065646E-05
248.506,-5.063292E-05
248.606,-5.063574E-05
248.706,-5.064327E-05
248.806,-5.060561E-05
248.906,-5.06122E-05
249.006,-5.062162E-05
249.106,-5.059054E-05
249.206,-5.058301E-05
249.306,-5.056794E-05
249.406,-5.053121E-05
249.506,-5.053969E-05
249.606,-5.057548E-05
249.706,-5.051144E-05
249.806,-5.052932E-05
249.9061,-5.054722E-05
250.0061,-5.052462E-05
250.1061,-5.047188E-05
250.2061,-5.047376E-05
250.3061,-5.048507E-05
250.4061,-5.044928E-05
250.5061,-5.045493E-05
250.6061,-5.042574E-05
250.7061,-5.040502E-05
250.8061,-5.040031E-05
250.9061,-5.039184E-05
251.0061,-5.037017E-05
251.1061,-5.037112E-05
251.2061,-5.035511E-05
251.3061,-5.034381E-05
251.4061,-5.032968E-05
251.5061,-5.031367E-05
251.6062,-5.031179E-05
251.7062,-5.031744E-05
251.8062,-5.027412E-05
251.9062,-5.026564E-05
252.0062,-5.029955E-05
252.1062,-5.029672E-05
252.2062,-5.025811E-05
252.3062,-5.024398E-05
252.4062,-5.024022E-05
252.5062,-5.022703E-05
252.6062,-5.021856E-05
252.7062,-5.020819E-05
252.8062,-5.020631E-05
252.9062,-5.019313E-05
253.0062,-5.016111E-05
253.1062,-5.014698E-05
253.2063,-5.013662E-05
253.3063,-5.012721E-05
253.4063,-5.012627E-05
253.5063,-5.012438E-05
253.6063,-5.010931E-05
253.7063,-5.007259E-05
253.8063,-5.009236E-05
253.9063,-5.006223E-05
254.0063,-5.00594E-05
254.1063,-5.006599E-05
254.2063,-5.003304E-05
254.3063,-4.999725E-05
254.4063,-5.003021E-05
254.5063,-4.999819E-05
254.6063,-4.996617E-05
254.7063,-4.996806E-05
254.8064,-4.996429E-05
254.9064,-4.99577E-05
255.0064,-4.993321E-05
255.1064,-4.990496E-05
255.2064,-4.992474E-05
255.3064,-4.992285E-05
255.4064,-4.992379E-05
255.5064,-4.988801E-05
255.6064,-4.987105E-05
255.7064,-4.987859E-05
255.8064,-4.985693E-05
255.9064,-4.987953E-05
256.0064,-4.98607E-05
256.1064,-4.982114E-05
256.2064,-4.982774E-05
256.3064,-4.982021E-05
256.4064,-4.98042E-05
256.5064,-4.979383E-05
256.6064,-4.98155E-05
256.7065,-4.976464E-05
256.8065,-4.976088E-05
256.9065,-4.97298E-05
257.0065,-4.973733E-05
257.1065,-4.974675E-05
257.2065,-4.974298E-05
257.3065,-4.969684E-05
257.4065,-4.971002E-05
257.5065,-4.967706E-05
257.6065,-4.968459E-05
257.7065,-4.966576E-05
257.8065,-4.964598E-05
257.9065,-4.960925E-05
258.0065,-4.96441E-05
258.1065,-4.962997E-05
258.2065,-4.959702E-05
258.3065,-4.961397E-05
258.4066,-4.960172E-05
258.5066,-4.95989E-05
258.6066,-4.960172E-05
258.7066,-4.955464E-05
258.8066,-4.954993E-05
258.9066,-4.961679E-05
259.0066,-4.957253E-05
259.1066,-4.952638E-05
259.2066,-4.953486E-05
259.3066,-4.953109E-05
259.4066,-4.951696E-05
259.5066,-4.950096E-05
259.6066,-4.951226E-05
259.7066,-4.946894E-05
259.8066,-4.946329E-05
259.9066,-4.944257E-05
260.0067,-4.94501E-05
260.1067,-4.94501E-05
260.2067,-4.94501E-05
260.3067,-4.945105E-05
260.4067,-4.941526E-05
260.5067,-4.941714E-05
260.6067,-4.938418E-05
260.7067,-4.936346E-05
260.8067,-4.937382E-05
260.9067,-4.934745E-05
261.0067,-4.934275E-05
261.1067,-4.933992E-05
261.2067,-4.929943E-05
261.3067,-4.928342E-05
261.4067,-4.930225E-05
261.5067,-4.929283E-05
261.6068,-4.928342E-05
261.7068,-4.92627E-05
261.8068,-4.924669E-05
261.9068,-4.920996E-05
262.0068,-4.921938E-05
262.1068,-4.920713E-05
262.2068,-4.923351E-05
262.3068,-4.923916E-05
262.4068,-4.917606E-05
262.5068,-4.917606E-05
262.6068,-4.920243E-05
262.7068,-4.918925E-05
262.8068,-4.915157E-05
262.9068,-4.916005E-05
263.0068,-4.913086E-05
263.1068,-4.911108E-05
263.2068,-4.911861E-05
263.3069,-4.910825E-05
263.4069,-4.911579E-05
263.5069,-4.910731E-05
263.6069,-4.905552E-05
263.7069,-4.90866E-05
263.8069,-4.910072E-05
263.9069,-4.906587E-05
264.0069,-4.904139E-05
264.1069,-4.902915E-05
264.2069,-4.902538E-05
264.3069,-4.902632E-05
264.4069,-4.899995E-05
264.5069,-4.896041E-05
264.6069,-4.904045E-05
264.7069,-4.903574E-05
264.8069,-4.90235E-05
264.907,-4.898771E-05
265.007,-4.899995E-05
265.107,-4.897076E-05
265.207,-4.892462E-05
265.307,-4.894063E-05
265.407,-4.891803E-05
265.507,-4.890107E-05
265.607,-4.889542E-05
265.707,-4.886906E-05
265.807,-4.885116E-05
265.907,-4.891144E-05
266.007,-4.88521E-05
266.107,-4.882291E-05
266.207,-4.883327E-05
266.307,-4.883233E-05
266.407,-4.880031E-05
266.507,-4.881915E-05
266.6071,-4.881537E-05
266.7071,-4.879089E-05
266.8071,-4.878242E-05
266.9071,-4.877017E-05
267.0071,-4.875134E-05
267.1071,-4.874098E-05
267.2071,-4.875793E-05
267.3071,-4.877205E-05
267.4071,-4.875228E-05
267.5071,-4.871649E-05
267.6071,-4.870425E-05
267.7071,-4.872497E-05
267.8071,-4.871084E-05
267.9071,-4.866564E-05
268.0071,-4.86647E-05
268.1071,-4.863456E-05
268.2072,-4.860349E-05
268.3072,-4.863645E-05
268.4072,-4.862421E-05
268.5072,-4.860443E-05
268.6072,-4.860349E-05
268.7072,-4.859407E-05
268.8072,-4.856393E-05
268.9072,-4.857994E-05
269.0072,-4.858936E-05
269.1072,-4.85338E-05
269.2072,-4.854322E-05
269.3072,-4.852061E-05
269.4072,-4.851214E-05
269.5072,-4.851685E-05
269.6072,-4.851779E-05
269.7072,-4.848577E-05
269.8073,-4.848389E-05
269.9073,-4.84886E-05
270.0073,-4.845752E-05
270.1073,-4.844716E-05
270.2073,-4.844245E-05
270.3073,-4.841797E-05
270.4073,-4.842927E-05
270.5073,-4.841326E-05
270.6073,-4.841326E-05
270.7073,-4.840478E-05
270.8073,-4.838783E-05
270.9073,-4.837276E-05
271.0073,-4.836429E-05
271.1073,-4.838029E-05
271.2073,-4.835299E-05
271.3073,-4.836429E-05
271.4073,-4.835204E-05
271.5074,-4.830025E-05
271.6074,-4.83285E-05
271.7074,-4.836523E-05
271.8074,-4.835016E-05
271.9074,-4.830213E-05
272.0074,-4.831155E-05
272.1074,-4.830213E-05
272.2074,-4.825222E-05
272.3074,-4.827011E-05
272.4074,-4.823245E-05
272.5074,-4.820796E-05
272.6074,-4.821549E-05
272.7074,-4.817688E-05
272.8074,-4.818724E-05
272.9074,-4.81863E-05
273.0074,-4.816464E-05
273.1075,-4.81411E-05
273.2075,-4.814392E-05
273.3075,-4.812885E-05
273.4075,-4.81006E-05
273.5075,-4.807329E-05
273.6075,-4.809872E-05
273.7075,-4.808271E-05
273.8075,-4.807612E-05
273.9075,-4.802903E-05
274.0075,-4.803939E-05
274.1075,-4.804975E-05
274.2075,-4.804033E-05
274.3075,-4.799042E-05
274.4075,-4.798571E-05
274.5075,-4.797535E-05
274.6075,-4.797347E-05
274.7076,-4.800172E-05
274.8076,-4.798195E-05
274.9076,-4.795934E-05
275.0076,-4.794333E-05
275.1076,-4.791038E-05
275.2076,-4.791885E-05
275.3076,-4.798006E-05
275.4076,-4.794616E-05
275.5076,-4.790849E-05
275.6076,-4.790943E-05
275.7076,-4.790001E-05
275.8076,-4.787553E-05
275.9076,-4.787647E-05
276.0076,-4.784163E-05
276.1076,-4.782185E-05
276.2076,-4.782185E-05
276.3076,-4.784916E-05
276.4077,-4.781808E-05
276.5077,-4.781337E-05
276.6077,-4.777382E-05
276.7077,-4.77644E-05
276.8077,-4.777664E-05
276.9077,-4.774557E-05
277.0077,-4.771826E-05
277.1077,-4.773992E-05
277.2077,-4.772108E-05
277.3077,-4.772768E-05
277.4077,-4.771826E-05
277.5077,-4.768907E-05
277.6077,-4.766552E-05
277.7077,-4.770319E-05
277.8077,-4.770413E-05
277.9077,-4.767871E-05
278.0078,-4.766176E-05
278.1078,-4.762974E-05
278.2078,-4.761938E-05
278.3078,-4.76222E-05
278.4078,-4.762314E-05
278.5078,-4.760243E-05
278.6078,-4.758924E-05
278.7078,-4.756005E-05
278.8078,-4.754875E-05
278.9078,-4.758265E-05
279.0078,-4.757323E-05
279.1078,-4.755063E-05
279.2078,-4.752897E-05
279.3078,-4.749695E-05
279.4078,-4.751108E-05
279.5078,-4.755157E-05
279.6078,-4.749884E-05
279.7079,-4.752426E-05
279.8079,-4.754875E-05
279.9079,-4.752614E-05
280.0079,-4.748942E-05
280.1079,-4.747058E-05
280.2079,-4.747341E-05
280.3079,-4.74348E-05
280.4079,-4.74461E-05
280.5079,-4.745928E-05
280.6079,-4.741879E-05
280.7079,-4.74282E-05
280.8079,-4.740655E-05
280.9079,-4.739619E-05
281.0079,-4.738394E-05
281.1079,-4.735757E-05
281.2079,-4.734816E-05
281.308,-4.736041E-05
281.408,-4.734157E-05
281.508,-4.731897E-05
281.608,-4.730484E-05
281.708,-4.728506E-05
281.808,-4.729448E-05
281.908,-4.7286E-05
282.008,-4.725399E-05
282.108,-4.724174E-05
282.208,-4.724646E-05
282.308,-4.725493E-05
282.408,-4.723986E-05
282.508,-4.722856E-05
282.608,-4.720125E-05
282.708,-4.71843E-05
282.808,-4.71956E-05
282.9081,-4.718712E-05
283.0081,-4.71843E-05
283.1081,-4.717677E-05
283.2081,-4.71551E-05
283.3081,-4.714757E-05
283.4081,-4.716546E-05
283.5081,-4.715793E-05
283.6081,-4.712403E-05
283.7081,-4.71325E-05
283.8081,-4.712309E-05
283.9081,-4.709483E-05
284.0081,-4.710331E-05
284.1081,-4.710425E-05
284.2081,-4.709578E-05
284.3081,-4.709954E-05
284.4081,-4.706753E-05
284.5081,-4.705622E-05
284.6082,-4.705434E-05
284.7082,-4.703927E-05
284.8082,-4.702326E-05
284.9082,-4.702326E-05
285.0082,-4.697618E-05
285.1082,-4.696205E-05
285.2082,-4.6979E-05
285.3082,-4.699595E-05
285.4082,-4.697994E-05
285.5082,-4.697147E-05
285.6082,-4.693003E-05
285.7082,-4.691779E-05
285.8082,-4.693851E-05
285.9082,-4.69159E-05
286.0082,-4.690837E-05
286.1082,-4.689236E-05
286.2083,-4.68481E-05
286.3083,-4.682926E-05
286.4083,-4.687447E-05
286.5083,-4.686317E-05
286.6083,-4.682926E-05
286.7083,-4.681326E-05
286.8083,-4.680572E-05
286.9083,-4.679442E-05
287.0083,-4.681326E-05
287.1083,-4.679442E-05
287.2083,-4.678595E-05
287.3083,-4.677465E-05
287.4083,-4.676522E-05
287.5083,-4.675299E-05
287.6083,-4.675016E-05
287.7083,-4.672379E-05
287.8083,-4.672096E-05
287.9084,-4.67511E-05
288.0084,-4.674922E-05
288.1084,-4.671155E-05
288.2084,-4.672379E-05
288.3084,-4.667482E-05
288.4084,-4.667482E-05
288.5084,-4.670119E-05
288.6084,-4.667106E-05
288.7084,-4.664751E-05
288.8084,-4.664468E-05
288.9084,-4.662397E-05
289.0084,-4.663527E-05
289.1084,-4.664939E-05
289.2084,-4.661361E-05
289.3084,-4.657594E-05
289.4084,-4.660796E-05
289.5085,-4.659289E-05
289.6085,-4.656087E-05
289.7085,-4.658253E-05
289.8085,-4.659572E-05
289.9085,-4.656369E-05
290.0085,-4.656652E-05
290.1085,-4.654392E-05
290.2085,-4.65119E-05
290.3085,-4.651661E-05
290.4085,-4.651284E-05
290.5085,-4.646764E-05
290.6085,-4.648177E-05
290.7085,-4.647235E-05
290.8085,-4.645728E-05
290.9085,-4.645446E-05
291.0085,-4.643939E-05
291.1086,-4.644787E-05
291.2086,-4.647141E-05
291.3086,-4.644598E-05
291.4086,-4.641867E-05
291.5086,-4.645069E-05
291.6086,-4.644598E-05
291.7086,-4.639795E-05
291.8086,-4.639418E-05
291.9086,-4.639418E-05
292.0086,-4.638477E-05
292.1086,-4.639607E-05
292.2086,-4.639136E-05
292.3086,-4.636123E-05
292.4086,-4.635369E-05
292.5086,-4.633768E-05
292.6086,-4.637347E-05
292.7086,-4.637252E-05
292.8087,-4.633014E-05
292.9087,-4.628871E-05
293.0087,-4.627929E-05
293.1087,-4.630472E-05
293.2087,-4.626517E-05
293.3087,-4.626705E-05
293.4087,-4.622468E-05
293.5087,-4.621525E-05
293.6087,-4.622656E-05
293.7087,-4.619642E-05
293.8087,-4.620113E-05
293.9087,-4.619925E-05
294.0087,-4.617947E-05
294.1087,-4.617853E-05
294.2087,-4.617382E-05
294.3087,-4.615311E-05
294.4088,-4.612202E-05
294.5088,-4.615122E-05
294.6088,-4.613804E-05
294.7088,-4.611261E-05
294.8088,-4.61192E-05
294.9088,-4.611638E-05
295.0088,-4.607305E-05
295.1088,-4.608059E-05
295.2088,-4.608342E-05
295.3088,-4.608812E-05
295.4088,-4.607117E-05
295.5088,-4.606081E-05
295.6088,-4.604104E-05
295.7088,-4.603726E-05
295.8088,-4.604669E-05
295.9088,-4.603538E-05
296.0089,-4.602973E-05
296.1089,-4.60448E-05
296.2089,-4.599301E-05
296.3089,-4.600243E-05
296.4089,-4.600243E-05
296.5089,-4.595534E-05
296.6089,-4.596287E-05
296.7089,-4.599112E-05
296.8089,-4.598077E-05
296.9089,-4.595816E-05
297.0089,-4.594686E-05
297.1089,-4.595063E-05
297.2089,-4.591861E-05
297.3089,-4.594969E-05
297.4089,-4.59139E-05
297.5089,-4.589978E-05
297.6089,-4.591484E-05
297.709,-4.588565E-05
297.809,-4.586493E-05
297.909,-4.588094E-05
298.009,-4.584704E-05
298.109,-4.58461E-05
298.209,-4.586776E-05
298.309,-4.58913E-05
298.409,-4.585269E-05
298.509,-4.582538E-05
298.609,-4.581502E-05
298.709,-4.582915E-05
298.809,-4.584798E-05
298.909,-4.580466E-05
299.009,-4.575852E-05
299.109,-4.580184E-05
299.209,-4.579901E-05
299.3091,-4.576793E-05
299.4091,-4.577264E-05
299.5091,-4.576323E-05
299.6091,-4.570955E-05
299.7091,-4.572744E-05
299.8091,-4.572179E-05
299.9091,-4.56813E-05
300.0091,-4.568977E-05
300.1091,-4.569636E-05
300.2091,-4.565681E-05
300.3091,-4.567282E-05
300.4091,-4.564362E-05
300.5091,-4.563421E-05
300.6091,-4.563044E-05
300.7091,-4.56521E-05
300.8091,-4.559183E-05
300.9091,-4.560784E-05
301.0092,-4.557865E-05
301.1092,-4.558712E-05
301.2092,-4.560501E-05
301.3092,-4.559465E-05
301.4092,-4.554004E-05
301.5092,-4.556829E-05
301.6092,-4.558712E-05
301.7092,-4.557676E-05
301.8092,-4.555416E-05
301.9092,-4.552497E-05
302.0092,-4.550896E-05
302.1092,-4.553062E-05
302.2092,-4.552591E-05
302.3092,-4.5476E-05
302.4092,-4.545999E-05
302.5092,-4.546658E-05
302.6093,-4.544492E-05
302.7093,-4.544774E-05
302.8093,-4.544303E-05
302.9093,-4.54242E-05
303.0093,-4.541949E-05
303.1093,-4.542232E-05
303.2093,-4.538465E-05
303.3093,-4.537335E-05
303.4093,-4.536864E-05
303.5093,-4.534227E-05
303.6093,-4.538842E-05
303.7093,-4.539218E-05
303.8093,-4.533568E-05
303.9093,-4.533473E-05
304.0093,-4.536299E-05
304.1093,-4.535734E-05
304.2094,-4.534886E-05
304.3094,-4.531685E-05
304.4094,-4.531873E-05
304.5094,-4.531496E-05
304.6094,-4.530742E-05
304.7094,-4.529519E-05
304.8094,-4.528106E-05
304.9094,-4.528483E-05
305.0094,-4.527447E-05
305.1094,-4.526599E-05
305.2094,-4.523491E-05
305.3094,-4.524433E-05
305.4094,-4.52302E-05
305.5094,-4.52302E-05
305.6094,-4.523115E-05
305.7094,-4.521796E-05
305.8094,-4.520949E-05
305.9095,-4.518877E-05
306.0095,-4.5185E-05
306.1095,-4.521043E-05
306.2095,-4.516805E-05
306.3095,-4.517747E-05
306.4095,-4.519536E-05
306.5095,-4.518029E-05
306.6095,-4.517653E-05
306.7095,-4.516334E-05
306.8095,-4.513038E-05
306.9095,-4.51172E-05
307.0095,-4.51511E-05
307.1095,-4.513792E-05
307.2095,-4.509177E-05
307.3095,-4.511626E-05
307.4095,-4.508895E-05
307.5096,-4.506352E-05
307.6096,-4.505881E-05
307.7096,-4.508612E-05
307.8096,-4.506258E-05
307.9096,-4.506917E-05
308.0096,-4.501738E-05
308.1096,-4.500795E-05
308.2096,-4.502491E-05
308.3096,-4.501172E-05
308.4096,-4.498818E-05
308.5096,-4.501078E-05
308.6096,-4.500136E-05
308.7096,-4.498253E-05
308.8096,-4.498159E-05
308.9096,-4.49684E-05
309.0096,-4.493356E-05
309.1096,-4.498347E-05
309.2097,-4.494863E-05
309.3097,-4.491567E-05
309.4097,-4.493733E-05
309.5097,-4.49232E-05
309.6097,-4.491284E-05
309.7097,-4.492226E-05
309.8097,-4.491096E-05
309.9097,-4.489307E-05
310.0097,-4.489965E-05
310.1097,-4.4894E-05
310.2097,-4.486858E-05
310.3097,-4.486481E-05
310.4097,-4.48893E-05
310.5097,-4.484409E-05
310.6097,-4.482526E-05
310.7097,-4.481208E-05
310.8098,-4.481396E-05
310.9098,-4.484409E-05
311.0098,-4.481396E-05
311.1098,-4.478288E-05
311.2098,-4.478476E-05
311.3098,-4.479607E-05
311.4098,-4.479418E-05
311.5098,-4.478571E-05
311.6098,-4.477064E-05
311.7098,-4.476123E-05
311.8098,-4.477064E-05
311.9098,-4.473674E-05
312.0098,-4.472544E-05
312.1098,-4.477064E-05
312.2098,-4.476499E-05
312.3098,-4.470377E-05
312.4099,-4.472261E-05
312.5099,-4.471225E-05
312.6099,-4.471414E-05
312.7099,-4.472638E-05
312.8099,-4.469436E-05
312.9099,-4.467364E-05
313.0099,-4.469813E-05
313.1099,-4.468118E-05
313.2099,-4.465951E-05
313.3099,-4.465104E-05
313.4099,-4.464256E-05
313.5099,-4.463974E-05
313.6099,-4.464727E-05
313.7099,-4.462467E-05
313.8099,-4.463597E-05
313.9099,-4.460113E-05
314.0099,-4.458889E-05
314.11,-4.458512E-05
314.21,-4.458324E-05
314.31,-4.458512E-05
314.41,-4.454839E-05
314.51,-4.455969E-05
314.61,-4.45757E-05
314.71,-4.453521E-05
314.81,-4.453898E-05
314.91,-4.455593E-05
315.01,-4.455216E-05
315.11,-4.454368E-05
315.21,-4.453426E-05
315.31,-4.452014E-05
315.41,-4.448812E-05
315.51,-4.451826E-05
315.61,-4.450413E-05
315.7101,-4.448059E-05
315.8101,-4.450319E-05
315.9101,-4.448341E-05
316.0101,-4.44674E-05
316.1101,-4.446457E-05
316.2101,-4.446364E-05
316.3101,-4.446929E-05
316.4101,-4.445234E-05
316.5101,-4.446457E-05
316.6101,-4.44335E-05
316.7101,-4.443068E-05
316.8101,-4.442126E-05
316.9101,-4.440243E-05
317.0101,-4.442503E-05
317.1101,-4.44222E-05
317.2101,-4.440148E-05
317.3102,-4.439206E-05
317.4102,-4.436381E-05
317.5102,-4.440243E-05
317.6102,-4.443915E-05
317.7102,-4.441937E-05
317.8102,-4.436099E-05
317.9102,-4.434592E-05
318.0102,-4.436287E-05
318.1102,-4.43139E-05
318.2102,-4.431767E-05
318.3102,-4.433179E-05
318.4102,-4.427623E-05
318.5102,-4.428847E-05
318.6102,-4.428942E-05
318.7102,-4.426305E-05
318.8102,-4.427435E-05
318.9102,-4.428754E-05
319.0103,-4.424704E-05
319.1103,-4.424327E-05
319.2103,-4.423856E-05
319.3103,-4.420184E-05
319.4103,-4.423856E-05
319.5103,-4.422632E-05
319.6103,-4.418677E-05
319.7103,-4.422067E-05
319.8103,-4.420372E-05
319.9103,-4.419524E-05
320.0103,-4.416699E-05
320.1103,-4.416887E-05
320.2103,-4.417641E-05
320.3103,-4.418206E-05
320.4103,-4.417923E-05
320.5103,-4.414816E-05
320.6104,-4.412555E-05
320.7104,-4.413215E-05
320.8104,-4.410955E-05
320.9104,-4.411425E-05
321.0104,-4.410296E-05
321.1104,-4.408694E-05
321.2104,-4.4086E-05
321.3104,-4.411331E-05
321.4104,-4.410201E-05
321.5104,-4.410578E-05
321.6104,-4.407187E-05
321.7104,-4.404927E-05
321.8104,-4.406528E-05
321.9104,-4.408035E-05
322.0104,-4.404268E-05
322.1104,-4.40521E-05
322.2104,-4.402385E-05
322.3105,-4.399466E-05
322.4105,-4.402385E-05
322.5105,-4.404551E-05
322.6105,-4.400878E-05
322.7105,-4.400784E-05
322.8105,-4.400219E-05
322.9105,-4.395322E-05
323.0105,-4.396452E-05
323.1105,-4.395887E-05
323.2105,-4.396263E-05
323.3105,-4.394474E-05
323.4105,-4.391932E-05
323.5105,-4.39099E-05
323.6105,-4.392214E-05
323.7105,-4.392591E-05
323.8105,-4.390613E-05
323.9106,-4.391272E-05
324.0106,-4.392214E-05
324.1106,-4.389012E-05
324.2106,-4.389106E-05
324.3106,-4.391178E-05
324.4106,-4.38986E-05
324.5106,-4.387694E-05
324.6106,-4.386093E-05
324.7106,-4.386187E-05
324.8106,-4.38873E-05
324.9106,-4.391554E-05
325.0106,-4.39099E-05
325.1106,-4.385245E-05
325.2106,-4.388353E-05
325.3106,-4.387317E-05
325.4106,-4.383644E-05
325.5107,-4.382985E-05
325.6107,-4.383268E-05
325.7107,-4.381008E-05
325.8107,-4.383739E-05
325.9107,-4.382232E-05
326.0107,-4.378088E-05
326.1107,-4.379124E-05
326.2107,-4.377052E-05
326.3107,-4.377146E-05
326.4107,-4.379312E-05
326.5107,-4.377711E-05
326.6107,-4.374133E-05
326.7107,-4.375451E-05
326.8107,-4.374698E-05
326.9107,-4.374227E-05
327.0107,-4.374133E-05
327.1107,-4.370742E-05
327.2108,-4.37046E-05
327.3108,-4.371778E-05
327.4108,-4.368482E-05
327.5108,-4.366976E-05
327.6108,-4.365845E-05
327.7108,-4.366787E-05
327.8108,-4.367164E-05
327.9108,-4.36641E-05
328.0108,-4.363774E-05
328.1108,-4.36076E-05
328.2108,-4.362362E-05
328.3108,-4.362456E-05
328.4108,-4.361513E-05
328.5108,-4.36076E-05
328.6108,-4.359347E-05
328.7108,-4.360195E-05
328.8109,-4.360666E-05
328.9109,-4.358877E-05
329.0109,-4.36076E-05
329.1109,-4.357746E-05
329.2109,-4.360007E-05
329.3109,-4.358688E-05
329.4109,-4.358971E-05
329.5109,-4.358218E-05
329.6109,-4.356334E-05
329.7109,-4.356146E-05
329.8109,-4.355487E-05
329.9109,-4.352662E-05
330.0109,-4.354074E-05
330.1109,-4.351908E-05
330.2109,-4.350307E-05
330.3109,-4.349647E-05
330.4109,-4.345504E-05
330.511,-4.35106E-05
330.611,-4.354545E-05
330.711,-4.355487E-05
330.811,-4.35219E-05
330.911,-4.351155E-05
331.011,-4.351625E-05
331.111,-4.348424E-05
331.211,-4.348047E-05
331.311,-4.345127E-05
331.411,-4.34541E-05
331.511,-4.34428E-05
331.611,-4.343715E-05
331.711,-4.340701E-05
331.811,-4.341455E-05
331.911,-4.340419E-05
332.011,-4.338441E-05
332.1111,-4.339477E-05
332.2111,-4.336652E-05
332.3111,-4.334109E-05
332.4111,-4.33684E-05
332.5111,-4.336463E-05
332.6111,-4.334486E-05
332.7111,-4.337217E-05
332.8111,-4.333262E-05
332.9111,-4.332226E-05
333.0111,-4.332414E-05
333.1111,-4.333074E-05
333.2111,-4.329965E-05
333.3111,-4.328176E-05
333.4111,-4.328458E-05
333.5111,-4.329495E-05
333.6111,-4.330625E-05
333.7112,-4.327705E-05
333.8112,-4.324598E-05
333.9112,-4.326952E-05
334.0112,-4.325727E-05
334.1112,-4.322714E-05
334.2112,-4.324032E-05
334.3112,-4.323844E-05
334.4112,-4.322149E-05
334.5112,-4.321773E-05
334.6112,-4.319418E-05
334.7112,-4.32036E-05
334.8112,-4.318476E-05
334.9112,-4.318382E-05
335.0112,-4.3181E-05
335.1112,-4.316687E-05
335.2112,-4.314521E-05
335.3112,-4.313015E-05
335.4113,-4.313579E-05
335.5113,-4.316311E-05
335.6113,-4.312261E-05
335.7113,-4.31292E-05
335.8113,-4.310001E-05
335.9113,-4.309059E-05
336.0113,-4.311131E-05
336.1113,-4.311225E-05
336.2113,-4.309247E-05
336.3113,-4.308871E-05
336.4113,-4.310754E-05
336.5113,-4.305104E-05
336.6113,-4.306234E-05
336.7113,-4.307176E-05
336.8113,-4.304633E-05
336.9113,-4.306893E-05
337.0114,-4.305293E-05
337.1114,-4.305104E-05
337.2114,-4.303409E-05
337.3114,-4.300772E-05
337.4114,-4.303315E-05
337.5114,-4.304727E-05
337.6114,-4.303126E-05
337.7114,-4.304068E-05
337.8114,-4.300866E-05
337.9114,-4.298982E-05
338.0114,-4.300866E-05
338.1114,-4.299265E-05
338.2114,-4.298982E-05
338.3114,-4.301525E-05
338.4114,-4.299548E-05
338.5114,-4.298512E-05
338.6115,-4.295969E-05
338.7115,-4.295969E-05
338.8115,-4.296911E-05
338.9115,-4.291637E-05
339.0115,-4.290507E-05
339.1115,-4.293144E-05
339.2115,-4.289848E-05
339.3115,-4.288623E-05
339.4115,-4.290036E-05
339.5115,-4.285516E-05
339.6115,-4.28335E-05
339.7115,-4.285516E-05
339.8115,-4.288906E-05
339.9115,-4.286646E-05
340.0115,-4.286363E-05
340.1115,-4.28448E-05
340.2115,-4.281749E-05
340.3116,-4.288341E-05
340.4116,-4.283915E-05
340.5116,-4.281749E-05
340.6116,-4.283444E-05
340.7116,-4.280242E-05
340.8116,-4.282031E-05
340.9116,-4.280619E-05
341.0116,-4.279394E-05
341.1116,-4.278924E-05
341.2116,-4.284386E-05
341.3116,-4.282691E-05
341.4116,-4.278736E-05
341.5116,-4.281843E-05
341.6116,-4.279583E-05
341.7116,-4.277323E-05
341.8116,-4.278359E-05
341.9117,-4.277605E-05
342.0117,-4.276852E-05
342.1117,-4.276005E-05
342.2117,-4.274403E-05
342.3117,-4.273933E-05
342.4117,-4.277323E-05
342.5117,-4.277981E-05
342.6117,-4.272237E-05
342.7117,-4.271578E-05
342.8117,-4.27139E-05
342.9117,-4.271673E-05
343.0117,-4.271013E-05
343.1117,-4.270919E-05
343.2117,-4.267435E-05
343.3117,-4.268753E-05
343.4117,-4.270636E-05
343.5117,-4.268471E-05
343.6118,-4.270166E-05
343.7118,-4.268659E-05
343.8118,-4.264327E-05
343.9118,-4.266304E-05
344.0118,-4.267341E-05
344.1118,-4.26395E-05
344.2118,-4.261784E-05
344.3118,-4.260372E-05
344.4118,-4.261125E-05
344.5118,-4.263385E-05
344.6118,-4.261973E-05
344.7118,-4.257452E-05
344.8118,-4.2583E-05
344.9118,-4.259524E-05
345.0118,-4.258677E-05
345.1118,-4.259524E-05
345.2119,-4.257264E-05
345.3119,-4.261125E-05
345.4119,-4.263668E-05
345.5119,-4.260937E-05
345.6119,-4.257735E-05
345.7119,-4.256228E-05
345.8119,-4.255946E-05
345.9119,-4.254251E-05
346.0119,-4.252743E-05
346.1119,-4.251614E-05
346.2119,-4.251614E-05
346.3119,-4.252932E-05
346.4119,-4.252743E-05
346.5119,-4.250201E-05
346.6119,-4.253121E-05
346.7119,-4.252932E-05
346.812,-4.248695E-05
346.912,-4.247187E-05
347.012,-4.247941E-05
347.112,-4.247187E-05
347.212,-4.247658E-05
347.312,-4.244362E-05
347.412,-4.244739E-05
347.512,-4.244362E-05
347.612,-4.24521E-05
347.712,-4.239559E-05
347.812,-4.240313E-05
347.912,-4.243891E-05
348.012,-4.242573E-05
348.112,-4.239936E-05
348.212,-4.245021E-05
348.312,-4.244174E-05
348.412,-4.241349E-05
348.5121,-4.240219E-05
348.6121,-4.239465E-05
348.7121,-4.240313E-05
348.8121,-4.239465E-05
348.9121,-4.236075E-05
349.0121,-4.234851E-05
349.1121,-4.235039E-05
349.2121,-4.232779E-05
349.3121,-4.232025E-05
349.4121,-4.233062E-05
349.5121,-4.231555E-05
349.6121,-4.232308E-05
349.7121,-4.231272E-05
349.8121,-4.231932E-05
349.9121,-4.231932E-05
350.0121,-4.232025E-05
350.1122,-4.233721E-05
350.2122,-4.230425E-05
350.3122,-4.231649E-05
350.4122,-4.235228E-05
350.5122,-4.23033E-05
350.6122,-4.230801E-05
350.7122,-4.229954E-05
350.8122,-4.225622E-05
350.9122,-4.230425E-05
351.0122,-4.227976E-05
351.1122,-4.226281E-05
351.2122,-4.226281E-05
351.3122,-4.223833E-05
351.4122,-4.223644E-05
351.5122,-4.224021E-05
351.6122,-4.222702E-05
351.7122,-4.225904E-05
351.8123,-4.227317E-05
351.9123,-4.225245E-05
352.0123,-4.221384E-05
352.1123,-4.22289E-05
352.2123,-4.222043E-05
352.3123,-4.220537E-05
352.4123,-4.221007E-05
352.5123,-4.220254E-05
352.6123,-4.219124E-05
352.7123,-4.217523E-05
352.8123,-4.217994E-05
352.9123,-4.22129E-05
353.0123,-4.22242E-05
353.1123,-4.221949E-05
353.2123,-4.218559E-05
353.3123,-4.218088E-05
353.4124,-4.219501E-05
353.5124,-4.216299E-05
353.6124,-4.216204E-05
353.7124,-4.214039E-05
353.8124,-4.215451E-05
353.9124,-4.217052E-05
354.0124,-4.213662E-05
354.1124,-4.210743E-05
354.2124,-4.209706E-05
354.3124,-4.209706E-05
354.4124,-4.213285E-05
354.5124,-4.209613E-05
354.6124,-4.208106E-05
354.7124,-4.207635E-05
354.8124,-4.20933E-05
354.9124,-4.206128E-05
355.0125,-4.206505E-05
355.1125,-4.208953E-05
355.2125,-4.207917E-05
355.3125,-4.19963E-05
355.4125,-4.206693E-05
355.5125,-4.207352E-05
355.6125,-4.204056E-05
355.7125,-4.202926E-05
355.8125,-4.204527E-05
355.9125,-4.204621E-05
356.0125,-4.203868E-05
356.1125,-4.202267E-05
356.2125,-4.198312E-05
356.3125,-4.19963E-05
356.4125,-4.201984E-05
356.5125,-4.197464E-05
356.6125,-4.196899E-05
356.7126,-4.198029E-05
356.8126,-4.200101E-05
356.9126,-4.197558E-05
357.0126,-4.19624E-05
357.1126,-4.196146E-05
357.2126,-4.195015E-05
357.3126,-4.195581E-05
357.4126,-4.194921E-05
357.5126,-4.194639E-05
357.6126,-4.192661E-05
357.7126,-4.191625E-05
357.8126,-4.191625E-05
357.9126,-4.19172E-05
358.0126,-4.192661E-05
358.1126,-4.188517E-05
358.2126,-4.189459E-05
358.3127,-4.187952E-05
358.4127,-4.188989E-05
358.5127,-4.188329E-05
358.6127,-4.186257E-05
358.7127,-4.184563E-05
358.8127,-4.18654E-05
358.9127,-4.18767E-05
359.0127,-4.18428E-05
359.1127,-4.18315E-05
359.2127,-4.182302E-05
359.3127,-4.180795E-05
359.4127,-4.184374E-05
359.5127,-4.179288E-05
359.6127,-4.182113E-05
359.7127,-4.185786E-05
359.8127,-4.185598E-05
359.9128,-4.180607E-05
360.0128,-4.181172E-05
360.1128,-4.183244E-05
360.2128,-4.180042E-05
360.3128,-4.179854E-05
360.4128,-4.178064E-05
360.5128,-4.175521E-05
360.6128,-4.177782E-05
360.7128,-4.178252E-05
360.8128,-4.17458E-05
360.9128,-4.17345E-05
361.0128,-4.174015E-05
361.1128,-4.173073E-05
361.2128,-4.174486E-05
361.3128,-4.171849E-05
361.4128,-4.168364E-05
361.5128,-4.168741E-05
361.6129,-4.17006E-05
361.7129,-4.169118E-05
361.8129,-4.169212E-05
361.9129,-4.166481E-05
362.0129,-4.166293E-05
362.1129,-4.167893E-05
362.2129,-4.166198E-05
362.3129,-4.165822E-05
362.4129,-4.166763E-05
362.5129,-4.164032E-05
362.6129,-4.162526E-05
362.7129,-4.162902E-05
362.8129,-4.159983E-05
362.9129,-4.161867E-05
363.0129,-4.162149E-05
363.1129,-4.158759E-05
363.213,-4.157252E-05
363.313,-4.158664E-05
363.413,-4.159041E-05
363.513,-4.158759E-05
363.613,-4.158947E-05
363.713,-4.159889E-05
363.813,-4.157158E-05
363.913,-4.156593E-05
364.013,-4.154427E-05
364.113,-4.153862E-05
364.213,-4.155934E-05
364.313,-4.153109E-05
364.413,-4.155369E-05
364.513,-4.153109E-05
364.613,-4.150283E-05
364.713,-4.152449E-05
364.813,-4.153862E-05
364.9131,-4.153862E-05
365.0131,-4.149906E-05
365.1131,-4.146516E-05
365.2131,-4.145669E-05
365.3131,-4.14548E-05
365.4131,-4.148682E-05
365.5131,-4.144068E-05
365.6131,-4.145292E-05
365.7131,-4.145009E-05
365.8131,-4.14322E-05
365.9131,-4.141337E-05
366.0131,-4.143503E-05
366.1131,-4.143974E-05
366.2131,-4.142467E-05
366.3131,-4.141713E-05
366.4131,-4.139924E-05
366.5132,-4.138041E-05
366.6132,-4.142843E-05
366.7132,-4.140301E-05
366.8132,-4.138229E-05
366.9132,-4.144821E-05
367.0132,-4.14727E-05
367.1132,-4.141243E-05
367.2132,-4.14162E-05
367.3132,-4.138512E-05
367.4132,-4.13578E-05
367.5132,-4.141902E-05
367.6132,-4.136911E-05
367.7132,-4.134274E-05
367.8132,-4.135969E-05
367.9132,-4.13531E-05
368.0132,-4.136063E-05
368.1133,-4.138982E-05
368.2133,-4.135027E-05
368.3133,-4.131448E-05
368.4133,-4.132861E-05
368.5133,-4.134179E-05
368.6133,-4.131637E-05
368.7133,-4.130789E-05
368.8133,-4.129848E-05
368.9133,-4.129565E-05
369.0133,-4.128906E-05
369.1133,-4.132861E-05
369.2133,-4.128812E-05
369.3133,-4.126646E-05
369.4133,-4.127022E-05
369.5133,-4.126457E-05
369.6133,-4.128906E-05
369.7133,-4.12787E-05
369.8134,-4.12495E-05
369.9134,-4.125516E-05
370.0134,-4.12674E-05
370.1134,-4.123161E-05
370.2134,-4.124668E-05
370.3134,-4.123727E-05
370.4134,-4.126552E-05
370.5134,-4.131354E-05
370.6134,-4.124668E-05
370.7134,-4.12269E-05
370.8134,-4.12269E-05
370.9134,-4.125987E-05
371.0134,-4.120807E-05
371.1134,-4.12269E-05
371.2134,-4.121843E-05
371.3134,-4.118736E-05
371.4135,-4.120148E-05
371.5135,-4.121278E-05
371.6135,-4.117605E-05
371.7135,-4.117793E-05
371.8135,-4.118453E-05
371.9135,-4.117888E-05
372.0135,-4.117793E-05
372.1135,-4.117699E-05
372.2135,-4.11704E-05
372.3135,-4.119489E-05
372.4135,-4.117699E-05
372.5135,-4.113838E-05
372.6135,-4.115062E-05
372.7135,-4.116381E-05
372.8135,-4.113462E-05
372.9135,-4.115628E-05
373.0135,-4.111767E-05
373.1136,-4.114121E-05
373.2136,-4.114027E-05
373.3136,-4.111295E-05
373.4136,-4.109789E-05
373.5136,-4.115345E-05
373.6136,-4.112991E-05
373.7136,-4.111484E-05
373.8136,-4.111672E-05
373.9136,-4.110448E-05
374.0136,-4.107905E-05
374.1136,-4.108847E-05
374.2136,-4.106964E-05
374.3136,-4.10687E-05
374.4136,-4.107717E-05
374.5136,-4.106681E-05
374.6136,-4.105928E-05
374.7137,-4.103197E-05
374.8137,-4.104327E-05
374.9137,-4.103385E-05
375.0137,-4.104703E-05
375.1137,-4.101501E-05
375.2137,-4.100371E-05
375.3137,-4.104798E-05
375.4137,-4.105268E-05
375.5137,-4.101972E-05
375.6137,-4.104421E-05
375.7137,-4.099806E-05
375.8137,-4.099053E-05
375.9137,-4.099335E-05
376.0137,-4.099053E-05
376.1137,-4.098677E-05
376.2137,-4.098111E-05
376.3138,-4.098111E-05
376.4138,-4.094344E-05
376.5138,-4.096605E-05
376.6138,-4.094439E-05
376.7138,-4.094344E-05
376.8138,-4.098205E-05
376.9138,-4.097075E-05
377.0138,-4.092555E-05
377.1138,-4.091236E-05
377.2138,-4.094062E-05
377.3138,-4.094533E-05
377.4138,-4.093685E-05
377.5138,-4.091519E-05
377.6138,-4.090483E-05
377.7138,-4.091802E-05
377.8138,-4.092461E-05
377.9138,-4.08747E-05
378.0139,-4.086528E-05
378.1139,-4.087093E-05
378.2139,-4.085963E-05
378.3139,-4.087564E-05
378.4139,-4.08521E-05
378.5139,-4.083326E-05
378.6139,-4.083609E-05
378.7139,-4.084267E-05
378.8139,-4.082761E-05
378.9139,-4.081254E-05
379.0139,-4.082761E-05
379.1139,-4.08116E-05
379.2139,-4.080125E-05
379.3139,-4.080595E-05
379.4139,-4.079182E-05
379.5139,-4.080125E-05
379.614,-4.079277E-05
379.714,-4.076828E-05
379.814,-4.075604E-05
379.914,-4.074756E-05
380.014,-4.07664E-05
380.114,-4.076263E-05
380.214,-4.075604E-05
380.314,-4.071083E-05
380.414,-4.074097E-05
380.514,-4.075133E-05
380.614,-4.076169E-05
380.714,-4.072308E-05
380.814,-4.067976E-05
380.914,-4.068918E-05
381.014,-4.071837E-05
381.114,-4.072967E-05
381.2141,-4.069389E-05
381.3141,-4.068447E-05
381.4141,-4.067976E-05
381.5141,-4.065527E-05
381.6141,-4.068824E-05
381.7141,-4.064962E-05
381.8141,-4.062608E-05
381.9141,-4.066093E-05
382.0141,-4.067976E-05
382.1141,-4.061195E-05
382.2141,-4.063832E-05
382.3141,-4.063926E-05
382.4141,-4.062043E-05
382.5141,-4.065056E-05
382.6141,-4.064774E-05
382.7141,-4.058276E-05
382.8141,-4.059689E-05
382.9142,-4.058088E-05
383.0142,-4.058841E-05
383.1142,-4.059124E-05
383.2142,-4.058747E-05
383.3142,-4.058182E-05
383.4142,-4.063173E-05
383.5142,-4.059406E-05
383.6142,-4.058841E-05
383.7142,-4.061666E-05
383.8142,-4.058088E-05
383.9142,-4.058276E-05
384.0142,-4.058558E-05
384.1142,-4.056863E-05
384.2142,-4.061384E-05
384.3142,-4.06129E-05
384.4142,-4.059312E-05
384.5143,-4.057617E-05
384.6143,-4.058182E-05
384.7143,-4.056016E-05
384.8143,-4.055639E-05
384.9143,-4.053567E-05
385.0143,-4.05159E-05
385.1143,-4.051401E-05
385.2143,-4.052437E-05
385.3143,-4.053285E-05
385.4143,-4.04933E-05
385.5143,-4.05272E-05
385.6143,-4.052626E-05
385.7143,-4.048011E-05
385.8143,-4.048482E-05
385.9143,-4.048671E-05
386.0143,-4.04707E-05
386.1143,-4.049518E-05
386.2144,-4.051119E-05
386.3144,-4.048388E-05
386.4144,-4.046787E-05
386.5144,-4.048388E-05
386.6144,-4.046599E-05
386.7144,-4.043397E-05
386.8144,-4.047635E-05
386.9144,-4.046693E-05
387.0144,-4.04707E-05
387.1144,-4.047728E-05
387.2144,-4.048482E-05
387.3144,-4.051684E-05
387.4144,-4.052908E-05
387.5144,-4.048576E-05
387.6144,-4.047635E-05
387.7144,-4.052249E-05
387.8145,-4.051119E-05
387.9145,-4.047163E-05
388.0145,-4.046975E-05
388.1145,-4.044338E-05
388.2145,-4.041419E-05
388.3145,-4.044056E-05
388.4145,-4.044244E-05
388.5145,-4.041514E-05
388.6145,-4.043208E-05
388.7145,-4.043585E-05
388.8145,-4.041514E-05
388.9145,-4.040289E-05
389.0145,-4.039724E-05
389.1145,-4.036711E-05
389.2145,-4.042549E-05
389.3145,-4.041702E-05
389.4146,-4.036428E-05
389.5146,-4.037746E-05
389.6146,-4.038123E-05
389.7146,-4.037464E-05
389.8146,-4.040854E-05
389.9146,-4.039724E-05
390.0146,-4.036333E-05
390.1146,-4.041419E-05
390.2146,-4.040195E-05
390.3146,-4.034545E-05
390.4146,-4.036899E-05
390.5146,-4.036993E-05
390.6146,-4.031437E-05
390.7146,-4.037464E-05
390.8146,-4.034921E-05
390.9146,-4.030777E-05
391.0146,-4.032849E-05
391.1147,-4.030589E-05
391.2147,-4.030683E-05
391.3147,-4.031343E-05
391.4147,-4.030213E-05
391.5147,-4.028329E-05
391.6147,-4.030777E-05
391.7147,-4.03106E-05
391.8147,-4.027576E-05
391.9147,-4.027952E-05
392.0147,-4.032002E-05
392.1147,-4.027952E-05
392.2147,-4.030401E-05
392.3147,-4.030118E-05
392.4147,-4.027293E-05
392.5147,-4.029742E-05
392.6147,-4.029176E-05
392.7148,-4.023714E-05
392.8148,-4.024186E-05
392.9148,-4.026728E-05
393.0148,-4.023809E-05
393.1148,-4.024844E-05
393.2148,-4.022679E-05
393.3148,-4.021266E-05
393.4148,-4.024468E-05
393.5148,-4.022961E-05
393.6148,-4.02023E-05
393.7148,-4.021831E-05
393.8148,-4.023903E-05
393.9148,-4.018723E-05
394.0148,-4.025787E-05
394.1148,-4.029459E-05
394.2148,-4.030966E-05
394.3148,-4.028235E-05
394.4149,-4.024751E-05
394.5149,-4.020983E-05
394.6149,-4.021831E-05
394.7149,-4.022679E-05
394.8149,-4.01797E-05
394.9149,-4.01797E-05
395.0149,-4.018535E-05
395.1149,-4.017593E-05
395.2149,-4.02136E-05
395.3149,-4.015898E-05
395.4149,-4.014014E-05
395.5149,-4.01505E-05
395.6149,-4.014956E-05
395.7149,-4.015427E-05
395.8149,-4.014862E-05
395.9149,-4.014768E-05
396.015,-4.0094E-05
396.115,-4.013073E-05
396.215,-4.013073E-05
396.315,-4.009494E-05
396.415,-4.011472E-05
396.515,-4.009683E-05
396.615,-4.006857E-05
396.715,-4.006575E-05
396.815,-4.008647E-05
396.915,-4.006104E-05
397.015,-4.008364E-05
397.115,-4.005633E-05
397.215,-4.000548E-05
397.315,-4.003938E-05
397.415,-4.005257E-05
397.515,-4.002714E-05
397.6151,-4.001772E-05
397.7151,-4.000925E-05
397.8151,-3.999041E-05
397.9151,-4.001867E-05
398.0151,-3.999229E-05
398.1151,-3.997441E-05
398.2151,-3.997817E-05
398.3151,-3.998476E-05
398.4151,-3.994898E-05
398.5151,-3.997534E-05
398.6151,-3.996404E-05
398.7151,-3.992355E-05
398.8151,-3.993485E-05
398.9151,-3.994615E-05
399.0151,-3.992543E-05
399.1151,-3.990942E-05
399.2151,-3.996875E-05
399.3152,-3.99518E-05
399.4152,-3.994709E-05
399.5152,-3.993014E-05
399.6152,-3.990754E-05
399.7152,-3.991225E-05
399.8152,-3.991696E-05
399.9152,-3.988399E-05
400.0152,-3.988117E-05
400.1152,-3.988117E-05
400.2152,-3.985009E-05
400.3152,-3.988305E-05
400.4152,-3.989341E-05
400.5152,-3.984915E-05
400.6152,-3.984915E-05
400.7152,-3.984256E-05
400.8152,-3.983597E-05
400.9153,-3.983032E-05
401.0153,-3.982279E-05
401.1153,-3.981336E-05
401.2153,-3.98096E-05
401.3153,-3.980489E-05
401.4153,-3.978794E-05
401.5153,-3.97983E-05
401.6153,-3.979641E-05
401.7153,-3.976063E-05
401.8153,-3.978605E-05
401.9153,-3.977475E-05
402.0153,-3.974933E-05
402.1153,-3.97578E-05
402.2153,-3.975686E-05
402.3153,-3.973897E-05
402.4153,-3.973803E-05
402.5154,-3.974085E-05
402.6154,-3.972108E-05
402.7154,-3.973237E-05
402.8154,-3.972579E-05
402.9154,-3.972767E-05
403.0154,-3.971072E-05
403.1154,-3.971072E-05
403.2154,-3.969283E-05
403.3154,-3.971166E-05
403.4154,-3.972861E-05
403.5154,-3.970036E-05
403.6154,-3.970413E-05
403.7154,-3.969565E-05
403.8154,-3.968341E-05
403.9154,-3.970695E-05
404.0154,-3.967116E-05
404.1154,-3.965233E-05
404.2155,-3.96561E-05
404.3155,-3.96495E-05
404.4155,-3.96495E-05
404.5155,-3.961843E-05
404.6155,-3.962408E-05
404.7155,-3.960712E-05
404.8155,-3.960712E-05
404.9155,-3.963444E-05
405.0155,-3.9593E-05
405.1155,-3.958452E-05
405.2155,-3.959395E-05
405.3155,-3.958923E-05
405.4155,-3.958547E-05
405.5155,-3.959677E-05
405.6155,-3.958076E-05
405.7155,-3.953838E-05
405.8156,-3.955627E-05
405.9156,-3.956286E-05
406.0156,-3.956098E-05
406.1156,-3.956569E-05
406.2156,-3.952991E-05
406.3156,-3.953273E-05
406.4156,-3.956946E-05
406.5156,-3.952426E-05
406.6156,-3.951107E-05
406.7156,-3.95139E-05
406.8156,-3.949977E-05
406.9156,-3.952048E-05
407.0156,-3.953933E-05
407.1156,-3.949789E-05
407.2156,-3.950071E-05
407.3156,-3.95139E-05
407.4156,-3.949789E-05
407.5157,-3.95139E-05
407.6157,-3.952048E-05
407.7157,-3.95026E-05
407.8157,-3.950542E-05
407.9157,-3.948753E-05
408.0157,-3.948941E-05
408.1157,-3.94734E-05
408.2157,-3.947246E-05
408.3157,-3.944326E-05
408.4157,-3.943856E-05
408.5157,-3.945174E-05
408.6157,-3.944515E-05
408.7157,-3.94282E-05
408.8157,-3.944797E-05
408.9157,-3.947057E-05
409.0157,-3.943479E-05
409.1158,-3.941878E-05
409.2158,-3.942726E-05
409.3158,-3.939806E-05
409.4158,-3.94169E-05
409.5158,-3.941313E-05
409.6158,-3.938111E-05
409.7158,-3.938205E-05
409.8158,-3.938676E-05
409.9158,-3.937169E-05
410.0158,-3.936793E-05
410.1158,-3.933214E-05
410.2158,-3.933967E-05
410.3158,-3.936698E-05
410.4158,-3.936416E-05
410.5158,-3.933967E-05
410.6158,-3.933779E-05
410.7159,-3.935098E-05
410.8159,-3.931802E-05
410.9159,-3.93425E-05
411.0159,-3.934909E-05
411.1159,-3.930012E-05
411.2159,-3.931707E-05
411.3159,-3.932555E-05
411.4159,-3.931896E-05
411.5159,-3.933026E-05
411.6159,-3.933779E-05
411.7159,-3.93199E-05
411.8159,-3.933685E-05
411.9159,-3.931142E-05
412.0159,-3.927281E-05
412.1159,-3.92747E-05
412.2159,-3.928035E-05
412.3159,-3.926528E-05
412.416,-3.927941E-05
412.516,-3.925963E-05
412.616,-3.922572E-05
412.716,-3.925492E-05
412.816,-3.927188E-05
412.916,-3.923514E-05
413.016,-3.922667E-05
413.116,-3.921725E-05
413.216,-3.922761E-05
413.316,-3.923891E-05
413.416,-3.921819E-05
413.516,-3.920877E-05
413.616,-3.920689E-05
413.716,-3.920972E-05
413.816,-3.920689E-05
413.916,-3.920972E-05
414.0161,-3.920501E-05
414.1161,-3.917581E-05
414.2161,-3.917299E-05
414.3161,-3.915887E-05
414.4161,-3.914003E-05
414.5161,-3.91664E-05
414.6161,-3.915981E-05
414.7161,-3.912308E-05
414.8161,-3.914474E-05
414.9161,-3.913626E-05
415.0161,-3.914191E-05
415.1161,-3.914568E-05
415.2161,-3.913815E-05
415.3161,-3.909671E-05
415.4161,-3.912778E-05
415.5161,-3.912967E-05
415.6161,-3.910989E-05
415.7162,-3.910048E-05
415.8162,-3.911083E-05
415.9162,-3.908918E-05
416.0162,-3.912308E-05
416.1162,-3.91259E-05
416.2162,-3.907317E-05
416.3162,-3.909483E-05
416.4162,-3.911083E-05
416.5162,-3.908447E-05
416.6162,-3.908729E-05
416.7162,-3.905904E-05
416.8162,-3.907599E-05
416.9162,-3.910048E-05
417.0162,-3.910895E-05
417.1162,-3.908729E-05
417.2162,-3.908729E-05
417.3163,-3.908164E-05
417.4163,-3.908258E-05
417.5163,-3.907976E-05
417.6163,-3.907034E-05
417.7163,-3.903361E-05
417.8163,-3.906092E-05
417.9163,-3.905245E-05
418.0163,-3.904209E-05
418.1163,-3.903926E-05
418.2163,-3.902326E-05
418.3163,-3.901761E-05
418.4163,-3.902231E-05
418.5163,-3.900442E-05
418.6163,-3.900159E-05
418.7163,-3.902326E-05
418.8163,-3.903079E-05
418.9164,-3.899123E-05
419.0164,-3.89837E-05
419.1164,-3.897994E-05
419.2164,-3.89724E-05
419.3164,-3.896581E-05
419.4164,-3.896204E-05
419.5164,-3.894509E-05
419.6164,-3.896675E-05
419.7164,-3.898558E-05
419.8164,-3.894603E-05
419.9164,-3.891966E-05
420.0164,-3.893096E-05
420.1164,-3.893473E-05
420.2164,-3.892908E-05
420.3164,-3.893756E-05
420.4164,-3.893002E-05
420.5164,-3.89319E-05
420.6165,-3.893379E-05
420.7165,-3.891025E-05
420.8165,-3.889989E-05
420.9165,-3.891213E-05
421.0165,-3.888953E-05
421.1165,-3.887823E-05
421.2165,-3.889612E-05
421.3165,-3.886975E-05
421.4165,-3.885939E-05
421.5165,-3.889894E-05
421.6165,-3.888859E-05
421.7165,-3.886316E-05
421.8165,-3.886693E-05
421.9165,-3.890177E-05
422.0165,-3.886316E-05
422.1165,-3.886975E-05
422.2166,-3.884998E-05
422.3166,-3.881513E-05
422.4166,-3.885374E-05
422.5166,-3.884715E-05
422.6166,-3.879912E-05
422.7166,-3.881795E-05
422.8166,-3.885468E-05
422.9166,-3.879912E-05
423.0166,-3.880289E-05
423.1166,-3.882455E-05
423.2166,-3.88123E-05
423.3166,-3.87963E-05
423.4166,-3.881702E-05
423.5166,-3.877746E-05
423.6166,-3.878499E-05
423.7166,-3.880195E-05
423.8167,-3.880289E-05
423.9167,-3.88076E-05
424.0167,-3.879252E-05
424.1167,-3.878311E-05
424.2167,-3.87963E-05
424.3167,-3.880195E-05
424.4167,-3.878123E-05
424.5167,-3.875486E-05
424.6167,-3.878123E-05
424.7167,-3.875486E-05
424.8167,-3.876051E-05
424.9167,-3.875392E-05
425.0167,-3.871813E-05
425.1167,-3.875674E-05
425.2167,-3.875204E-05
425.3167,-3.868046E-05
425.4167,-3.877652E-05
425.5168,-3.8801E-05
425.6168,-3.878123E-05
425.7168,-3.873697E-05
425.8168,-3.875015E-05
425.9168,-3.875298E-05
426.0168,-3.872379E-05
426.1168,-3.875015E-05
426.2168,-3.873603E-05
426.3168,-3.873226E-05
426.4168,-3.871342E-05
426.5168,-3.872661E-05
426.6168,-3.874356E-05
426.7168,-3.875674E-05
426.8168,-3.871248E-05
426.9168,-3.86927E-05
427.0168,-3.875957E-05
427.1169,-3.874733E-05
427.2169,-3.870024E-05
427.3169,-3.869742E-05
427.4169,-3.869742E-05
427.5169,-3.867387E-05
427.6169,-3.868612E-05
427.7169,-3.865692E-05
427.8169,-3.865315E-05
427.9169,-3.866822E-05
428.0169,-3.865315E-05
428.1169,-3.862396E-05
428.2169,-3.862396E-05
428.3169,-3.863338E-05
428.4169,-3.860418E-05
428.5169,-3.863903E-05
428.6169,-3.861172E-05
428.7169,-3.859948E-05
428.817,-3.862113E-05
428.917,-3.861454E-05
429.017,-3.859383E-05
429.117,-3.858535E-05
429.217,-3.858441E-05
429.317,-3.858911E-05
429.417,-3.861925E-05
429.517,-3.86249E-05
429.617,-3.8591E-05
429.717,-3.860606E-05
429.817,-3.858064E-05
429.917,-3.858441E-05
430.017,-3.858723E-05
430.117,-3.857687E-05
430.217,-3.856745E-05
430.317,-3.855992E-05
430.4171,-3.858629E-05
430.5171,-3.854297E-05
430.6171,-3.853073E-05
430.7171,-3.854392E-05
430.8171,-3.855145E-05
430.9171,-3.854014E-05
431.0171,-3.851284E-05
431.1171,-3.852979E-05
431.2171,-3.855427E-05
431.3171,-3.85618E-05
431.4171,-3.852131E-05
431.5171,-3.851566E-05
431.6171,-3.852037E-05
431.7171,-3.849965E-05
431.8171,-3.85166E-05
431.9171,-3.851472E-05
432.0172,-3.849682E-05
432.1172,-3.851378E-05
432.2172,-3.853449E-05
432.3172,-3.850342E-05
432.4172,-3.849871E-05
432.5172,-3.851472E-05
432.6172,-3.850154E-05
432.7172,-3.849588E-05
432.8172,-3.846763E-05
432.9172,-3.849588E-05
433.0172,-3.850248E-05
433.1172,-3.849588E-05
433.2172,-3.848553E-05
433.3172,-3.848647E-05
433.4172,-3.847799E-05
433.5172,-3.848176E-05
433.6172,-3.848458E-05
433.7173,-3.853073E-05
433.8173,-3.845445E-05
433.9173,-3.847046E-05
434.0173,-3.8494E-05
434.1173,-3.844597E-05
434.2173,-3.844126E-05
434.3173,-3.847517E-05
434.4173,-3.847893E-05
434.5173,-3.846575E-05
434.6173,-3.845068E-05
434.7173,-3.843656E-05
434.8173,-3.842243E-05
434.9173,-3.846104E-05
435.0173,-3.845162E-05
435.1173,-3.842996E-05
435.2173,-3.843467E-05
435.3174,-3.841772E-05
435.4174,-3.842337E-05
435.5174,-3.842903E-05
435.6174,-3.840736E-05
435.7174,-3.84196E-05
435.8174,-3.845162E-05
435.9174,-3.842525E-05
436.0174,-3.838759E-05
436.1174,-3.84149E-05
436.2174,-3.841678E-05
436.3174,-3.839606E-05
436.4174,-3.839794E-05
436.5174,-3.839135E-05
436.6174,-3.837157E-05
436.7174,-3.838194E-05
436.8174,-3.837346E-05
436.9174,-3.834898E-05
437.0175,-3.837157E-05
437.1175,-3.833579E-05
437.2175,-3.833485E-05
437.3175,-3.836969E-05
437.4175,-3.838947E-05
437.5175,-3.836687E-05
437.6175,-3.838099E-05
437.7175,-3.835086E-05
437.8175,-3.835462E-05
437.9175,-3.838005E-05
438.0175,-3.838382E-05
438.1175,-3.834615E-05
438.2175,-3.83631E-05
438.3175,-3.835274E-05
438.4175,-3.832731E-05
438.5175,-3.833768E-05
438.6176,-3.834427E-05
438.7176,-3.831978E-05
438.8176,-3.833014E-05
438.9176,-3.838665E-05
439.0176,-3.83179E-05
439.1176,-3.83066E-05
439.2176,-3.832825E-05
439.3176,-3.832355E-05
439.4176,-3.832825E-05
439.5176,-3.831036E-05
439.6176,-3.829624E-05
439.7176,-3.833861E-05
439.8176,-3.830942E-05
439.9176,-3.827552E-05
440.0176,-3.82953E-05
440.1176,-3.830565E-05
440.2177,-3.828965E-05
440.3177,-3.830754E-05
440.4177,-3.833579E-05
440.5177,-3.834991E-05
440.6177,-3.834991E-05
440.7177,-3.834427E-05
440.8177,-3.83E-05
440.9177,-3.828587E-05
441.0177,-3.83113E-05
441.1177,-3.830283E-05
441.2177,-3.830942E-05
441.3177,-3.830848E-05
441.4177,-3.828965E-05
441.5177,-3.827175E-05
441.6177,-3.828305E-05
441.7177,-3.825763E-05
441.8177,-3.826045E-05
441.9178,-3.829153E-05
442.0178,-3.826139E-05
442.1178,-3.826516E-05
442.2178,-3.825763E-05
442.3178,-3.823502E-05
442.4178,-3.824444E-05
442.5178,-3.828587E-05
442.6178,-3.826045E-05
442.7178,-3.825574E-05
442.8178,-3.825292E-05
442.9178,-3.822655E-05
443.0178,-3.823126E-05
443.1178,-3.825574E-05
443.2178,-3.822372E-05
443.3178,-3.82435E-05
443.4178,-3.824067E-05
443.5179,-3.825009E-05
443.6179,-3.821996E-05
443.7179,-3.823879E-05
443.8179,-3.823314E-05
443.9179,-3.826516E-05
444.0179,-3.827834E-05
444.1179,-3.824161E-05
444.2179,-3.825386E-05
444.3179,-3.824444E-05
444.4179,-3.823314E-05
444.5179,-3.825198E-05
444.6179,-3.821902E-05
444.7179,-3.821336E-05
444.8179,-3.821619E-05
444.9179,-3.822278E-05
445.0179,-3.819076E-05
445.118,-3.821242E-05
445.218,-3.822937E-05
445.318,-3.819547E-05
445.418,-3.818229E-05
445.518,-3.821807E-05
445.618,-3.819641E-05
445.718,-3.820018E-05
445.818,-3.8203E-05
445.918,-3.817193E-05
446.018,-3.818606E-05
446.118,-3.819924E-05
446.218,-3.821525E-05
446.318,-3.820866E-05
446.418,-3.821054E-05
446.518,-3.819924E-05
446.618,-3.82322E-05
446.718,-3.821996E-05
446.8181,-3.823408E-05
446.9181,-3.82143E-05
447.0181,-3.819736E-05
447.1181,-3.822561E-05
447.2181,-3.82143E-05
447.3181,-3.821713E-05
447.4181,-3.819547E-05
447.5181,-3.816722E-05
447.6181,-3.81691E-05
447.7181,-3.816722E-05
447.8181,-3.821807E-05
447.9181,-3.818323E-05
448.0181,-3.814933E-05
448.1181,-3.815121E-05
448.2181,-3.816439E-05
448.3181,-3.814556E-05
448.4182,-3.814838E-05
448.5182,-3.814085E-05
448.6182,-3.813709E-05
448.7182,-3.812296E-05
448.8182,-3.812861E-05
448.9182,-3.810977E-05
449.0182,-3.812579E-05
449.1182,-3.812484E-05
449.2182,-3.811166E-05
449.3182,-3.815027E-05
449.4182,-3.815403E-05
449.5182,-3.813803E-05
449.6182,-3.815215E-05
449.7182,-3.814273E-05
449.8182,-3.812861E-05
449.9182,-3.808999E-05
450.0182,-3.810977E-05
450.1183,-3.811354E-05
450.2183,-3.808058E-05
450.3183,-3.80787E-05
450.4183,-3.809188E-05
450.5183,-3.810506E-05
450.6183,-3.810977E-05
450.7183,-3.811542E-05
450.8183,-3.807776E-05
450.9183,-3.810695E-05
451.0183,-3.811919E-05
451.1183,-3.806268E-05
451.2183,-3.809094E-05
451.3183,-3.807776E-05
451.4183,-3.807211E-05
451.5183,-3.81013E-05
451.6183,-3.808434E-05
451.7184,-3.805892E-05
451.8184,-3.807116E-05
451.9184,-3.807493E-05
452.0184,-3.80674E-05
452.1184,-3.80608E-05
452.2184,-3.806175E-05
452.3184,-3.80269E-05
452.4184,-3.805139E-05
452.5184,-3.807681E-05
452.6184,-3.805986E-05
452.7184,-3.807211E-05
452.8184,-3.804291E-05
452.9184,-3.805703E-05
453.0184,-3.804856E-05
453.1184,-3.805515E-05
453.2184,-3.803255E-05
453.3185,-3.804668E-05
453.4185,-3.806834E-05
453.5185,-3.80448E-05
453.6185,-3.803915E-05
453.7185,-3.803915E-05
453.8185,-3.803915E-05
453.9185,-3.80787E-05
454.0185,-3.805327E-05
454.1185,-3.801937E-05
454.2185,-3.805798E-05
454.3185,-3.802973E-05
454.4185,-3.80561E-05
454.5185,-3.80382E-05
454.6185,-3.80156E-05
454.7185,-3.800901E-05
454.8185,-3.807681E-05
454.9185,-3.804668E-05
455.0186,-3.805233E-05
455.1186,-3.802314E-05
455.2186,-3.804103E-05
455.3186,-3.803349E-05
455.4186,-3.802784E-05
455.5186,-3.800242E-05
455.6186,-3.799583E-05
455.7186,-3.800053E-05
455.8186,-3.801748E-05
455.9186,-3.798641E-05
456.0186,-3.799959E-05
456.1186,-3.800242E-05
456.2186,-3.800995E-05
456.3186,-3.802502E-05
456.4186,-3.800148E-05
456.5186,-3.798829E-05
456.6187,-3.802408E-05
456.7187,-3.801842E-05
456.8187,-3.797888E-05
456.9187,-3.799017E-05
457.0187,-3.801842E-05
457.1187,-3.7993E-05
457.2187,-3.797793E-05
457.3187,-3.800053E-05
457.4187,-3.799111E-05
457.5187,-3.800336E-05
457.6187,-3.796852E-05
457.7187,-3.795721E-05
457.8187,-3.797134E-05
457.9187,-3.801372E-05
458.0187,-3.801654E-05
458.1187,-3.796946E-05
458.2188,-3.797699E-05
458.3188,-3.7993E-05
458.4188,-3.796004E-05
458.5188,-3.799583E-05
458.6188,-3.797699E-05
458.7188,-3.794968E-05
458.8188,-3.79638E-05
458.9188,-3.79704E-05
459.0188,-3.798735E-05
459.1188,-3.798358E-05
459.2188,-3.796569E-05
459.3188,-3.795251E-05
459.4188,-3.799394E-05
459.5188,-3.797322E-05
459.6188,-3.793838E-05
459.7188,-3.793932E-05
459.8188,-3.792802E-05
459.9189,-3.794497E-05
460.0189,-3.795062E-05
460.1189,-3.792331E-05
460.2189,-3.791389E-05
460.3189,-3.793273E-05
460.4189,-3.792802E-05
460.5189,-3.790071E-05
460.6189,-3.790825E-05
460.7189,-3.79412E-05
460.8189,-3.791013E-05
460.9189,-3.789883E-05
461.0189,-3.794591E-05
461.1189,-3.79591E-05
461.2189,-3.792708E-05
461.3189,-3.790353E-05
461.4189,-3.788847E-05
461.519,-3.788564E-05
461.619,-3.792237E-05
461.719,-3.788941E-05
461.819,-3.786492E-05
461.919,-3.790448E-05
462.019,-3.789035E-05
462.119,-3.788847E-05
462.219,-3.789695E-05
462.319,-3.785645E-05
462.419,-3.786492E-05
462.519,-3.788753E-05
462.619,-3.785927E-05
462.719,-3.787528E-05
462.819,-3.786587E-05
462.919,-3.78621E-05
463.019,-3.785551E-05
463.119,-3.788941E-05
463.2191,-3.787622E-05
463.3191,-3.786869E-05
463.4191,-3.787999E-05
463.5191,-3.787999E-05
463.6191,-3.788941E-05
463.7191,-3.788376E-05
463.8191,-3.784232E-05
463.9191,-3.787622E-05
464.0191,-3.787152E-05
464.1191,-3.782819E-05
464.2191,-3.784327E-05
464.3191,-3.789223E-05
464.4191,-3.791954E-05
464.5191,-3.785551E-05
464.6191,-3.787622E-05
464.7191,-3.788564E-05
464.8192,-3.785927E-05
464.9192,-3.785833E-05
465.0192,-3.783102E-05
465.1192,-3.786398E-05
465.2192,-3.784044E-05
465.3192,-3.782631E-05
465.4192,-3.795721E-05
465.5192,-3.796569E-05
465.6192,-3.794309E-05
465.7192,-3.789506E-05
465.8192,-3.791954E-05
465.9192,-3.792048E-05
466.0192,-3.78734E-05
466.1192,-3.788564E-05
466.2192,-3.789035E-05
466.3192,-3.789695E-05
466.4193,-3.791295E-05
466.5193,-3.790919E-05
466.6193,-3.788564E-05
466.7193,-3.793179E-05
466.8193,-3.789035E-05
466.9193,-3.786869E-05
467.0193,-3.787905E-05
467.1193,-3.789129E-05
467.2193,-3.78395E-05
467.3193,-3.787246E-05
467.4193,-3.785174E-05
467.5193,-3.782631E-05
467.6193,-3.78621E-05
467.7193,-3.788188E-05
467.8193,-3.783291E-05
467.9193,-3.787152E-05
468.0193,-3.786775E-05
468.1194,-3.787905E-05
468.2194,-3.788847E-05
468.3194,-3.789412E-05
468.4194,-3.787057E-05
468.5194,-3.789223E-05
468.6194,-3.786587E-05
468.7194,-3.784797E-05
468.8194,-3.787999E-05
468.9194,-3.787528E-05
469.0194,-3.780936E-05
469.1194,-3.785645E-05
469.2194,-3.787152E-05
469.3194,-3.784232E-05
469.4194,-3.790165E-05
469.5194,-3.792237E-05
469.6194,-3.790825E-05
469.7195,-3.78734E-05
469.8195,-3.789129E-05
469.9195,-3.784986E-05
470.0195,-3.784986E-05
470.1195,-3.787152E-05
470.2195,-3.784797E-05
470.3195,-3.784232E-05
470.4195,-3.785739E-05
470.5195,-3.784515E-05
470.6195,-3.78508E-05
470.7195,-3.783102E-05
470.8195,-3.783196E-05
470.9195,-3.781972E-05
471.0195,-3.781878E-05
471.1195,-3.783291E-05
471.2195,-3.782914E-05
471.3195,-3.781784E-05
471.4196,-3.781501E-05
471.5196,-3.780842E-05
471.6196,-3.783102E-05
471.7196,-3.781596E-05
471.8196,-3.780653E-05
471.9196,-3.78395E-05
472.0196,-3.779712E-05
472.1196,-3.781219E-05
472.2196,-3.782726E-05
472.3196,-3.779712E-05
472.4196,-3.779335E-05
472.5196,-3.780559E-05
472.6196,-3.777452E-05
472.7196,-3.77877E-05
472.8196,-3.780748E-05
472.9196,-3.778488E-05
473.0197,-3.778394E-05
473.1197,-3.780465E-05
473.2197,-3.777734E-05
473.3197,-3.779523E-05
473.4197,-3.781031E-05
473.5197,-3.779053E-05
473.6197,-3.776981E-05
473.7197,-3.778299E-05
473.8197,-3.779712E-05
473.9197,-3.781125E-05
474.0197,-3.778394E-05
474.1197,-3.776133E-05
474.2197,-3.778488E-05
474.3197,-3.781878E-05
474.4197,-3.7799E-05
474.5197,-3.779429E-05
474.6198,-3.778488E-05
474.7198,-3.776981E-05
474.8198,-3.782631E-05
474.9198,-3.780559E-05
475.0198,-3.776227E-05
475.1198,-3.777075E-05
475.2198,-3.781596E-05
475.3198,-3.780653E-05
475.4198,-3.777923E-05
475.5198,-3.778864E-05
475.6198,-3.780277E-05
475.7198,-3.780748E-05
475.8198,-3.7799E-05
475.9198,-3.774909E-05
476.0198,-3.776227E-05
476.1198,-3.780089E-05
476.2198,-3.780089E-05
476.3199,-3.778676E-05
476.4199,-3.779241E-05
476.5199,-3.778017E-05
476.6199,-3.781501E-05
476.7199,-3.780559E-05
476.8199,-3.783479E-05
476.9199,-3.780371E-05
477.0199,-3.783196E-05
477.1199,-3.781407E-05
477.2199,-3.7799E-05
477.3199,-3.780089E-05
477.4199,-3.778394E-05
477.5199,-3.780748E-05
477.6199,-3.782631E-05
477.7199,-3.77877E-05
477.8199,-3.777452E-05
477.92,-3.777358E-05
478.02,-3.778394E-05
478.12,-3.776887E-05
478.22,-3.777075E-05
478.32,-3.776227E-05
478.42,-3.774533E-05
478.52,-3.776133E-05
478.62,-3.777734E-05
478.72,-3.775568E-05
478.82,-3.777358E-05
478.92,-3.776322E-05
479.02,-3.776039E-05
479.12,-3.778017E-05
479.22,-3.77764E-05
479.32,-3.774156E-05
479.42,-3.77877E-05
479.5201,-3.781125E-05
479.6201,-3.776227E-05
479.7201,-3.778205E-05
479.8201,-3.77877E-05
479.9201,-3.779241E-05
480.0201,-3.779806E-05
480.1201,-3.777546E-05
480.2201,-3.779053E-05
480.3201,-3.780371E-05
480.4201,-3.780183E-05
480.5201,-3.780842E-05
480.6201,-3.77877E-05
480.7201,-3.778864E-05
480.8201,-3.776416E-05
480.9201,-3.778864E-05
481.0201,-3.77651E-05
481.1201,-3.775192E-05
481.2202,-3.778299E-05
481.3202,-3.779523E-05
481.4202,-3.774062E-05
481.5202,-3.776416E-05
481.6202,-3.776887E-05
481.7202,-3.776227E-05
481.8202,-3.776792E-05
481.9202,-3.776227E-05
482.0202,-3.773591E-05
482.1202,-3.775098E-05
482.2202,-3.775474E-05
482.3202,-3.774344E-05
482.4202,-3.775192E-05
482.5202,-3.776416E-05
482.6202,-3.772084E-05
482.7202,-3.772272E-05
482.8203,-3.776322E-05
482.9203,-3.77425E-05
483.0203,-3.775945E-05
483.1203,-3.775192E-05
483.2203,-3.774627E-05
483.3203,-3.775662E-05
483.4203,-3.77651E-05
483.5203,-3.777923E-05
483.6203,-3.776039E-05
483.7203,-3.776981E-05
483.8203,-3.778111E-05
483.9203,-3.77425E-05
484.0203,-3.774533E-05
484.1203,-3.771707E-05
484.2203,-3.774438E-05
484.3203,-3.778205E-05
484.4203,-3.772932E-05
484.5204,-3.77086E-05
484.6204,-3.773402E-05
484.7204,-3.773214E-05
484.8204,-3.771425E-05
484.9204,-3.771425E-05
485.0204,-3.776227E-05
485.1204,-3.774344E-05
485.2204,-3.772649E-05
485.3204,-3.772366E-05
485.4204,-3.772366E-05
485.5204,-3.774344E-05
485.6204,-3.773967E-05
485.7204,-3.771801E-05
485.8204,-3.77133E-05
485.9204,-3.77246E-05
486.0204,-3.772084E-05
486.1205,-3.772366E-05
486.2205,-3.770107E-05
486.3205,-3.771613E-05
486.4205,-3.776039E-05
486.5205,-3.777828E-05
486.6205,-3.771142E-05
486.7205,-3.774062E-05
486.8205,-3.772649E-05
486.9205,-3.769824E-05
487.0205,-3.774533E-05
487.1205,-3.774533E-05
487.2205,-3.768976E-05
487.3205,-3.770389E-05
487.4205,-3.772932E-05
487.5205,-3.769635E-05
487.6205,-3.769729E-05
487.7206,-3.768882E-05
487.8206,-3.770577E-05
487.9206,-3.775757E-05
488.0206,-3.773026E-05
488.1206,-3.770012E-05
488.2206,-3.770954E-05
488.3206,-3.770483E-05
488.4206,-3.771425E-05
488.5206,-3.772178E-05
488.6206,-3.77133E-05
488.7206,-3.770483E-05
488.8206,-3.770954E-05
488.9206,-3.772272E-05
489.0206,-3.772366E-05
489.1206,-3.772366E-05
489.2206,-3.773685E-05
489.3206,-3.773308E-05
489.4207,-3.770201E-05
489.5207,-3.771237E-05
489.6207,-3.769635E-05
489.7207,-3.77133E-05
489.8207,-3.77199E-05
489.9207,-3.768223E-05
490.0207,-3.770295E-05
490.1207,-3.777828E-05
490.2207,-3.776981E-05
490.3207,-3.771613E-05
490.4207,-3.772649E-05
490.5207,-3.77199E-05
490.6207,-3.770012E-05
490.7207,-3.773967E-05
490.8207,-3.771519E-05
490.9207,-3.769353E-05
491.0208,-3.772366E-05
491.1208,-3.769635E-05
491.2208,-3.767752E-05
491.3208,-3.7686E-05
491.4208,-3.768317E-05
491.5208,-3.768694E-05
491.6208,-3.772743E-05
491.7208,-3.772837E-05
491.8208,-3.770671E-05
491.9208,-3.770483E-05
492.0208,-3.77086E-05
492.1208,-3.768694E-05
492.2208,-3.769353E-05
492.3208,-3.769824E-05
492.4208,-3.767093E-05
492.5208,-3.769729E-05
492.6208,-3.770483E-05
492.7209,-3.766339E-05
492.8209,-3.766716E-05
492.9209,-3.767941E-05
493.0209,-3.770954E-05
493.1209,-3.772366E-05
493.2209,-3.770954E-05
493.3209,-3.7686E-05
493.4209,-3.770954E-05
493.5209,-3.769918E-05
493.6209,-3.769918E-05
493.7209,-3.767187E-05
493.8209,-3.768129E-05
493.9209,-3.765774E-05
494.0209,-3.767187E-05
494.1209,-3.770954E-05
494.2209,-3.765398E-05
494.321,-3.767469E-05
494.421,-3.769635E-05
494.521,-3.764173E-05
494.621,-3.768223E-05
494.721,-3.769824E-05
494.821,-3.768223E-05
494.921,-3.768882E-05
495.021,-3.767281E-05
495.121,-3.766528E-05
495.221,-3.765021E-05
495.321,-3.767093E-05
495.421,-3.766716E-05
495.521,-3.765398E-05
495.621,-3.766622E-05
495.721,-3.764644E-05
495.821,-3.764833E-05
495.9211,-3.766622E-05
496.0211,-3.765586E-05
496.1211,-3.764833E-05
496.2211,-3.766339E-05
496.3211,-3.765963E-05
496.4211,-3.767281E-05
496.5211,-3.764268E-05
496.6211,-3.765586E-05
496.7211,-3.764456E-05
496.8211,-3.764926E-05
496.9211,-3.765398E-05
497.0211,-3.764644E-05
497.1211,-3.765491E-05
497.2211,-3.764173E-05
497.3211,-3.767093E-05
497.4211,-3.766151E-05
497.5211,-3.764456E-05
497.6212,-3.76295E-05
497.7212,-3.765398E-05
497.8212,-3.765209E-05
497.9212,-3.765021E-05
498.0212,-3.766904E-05
498.1212,-3.765021E-05
498.2212,-3.763703E-05
498.3212,-3.7686E-05
498.4212,-3.7686E-05
498.5212,-3.767658E-05
498.6212,-3.764926E-05
498.7212,-3.765491E-05
498.8212,-3.762007E-05
498.9212,-3.765774E-05
499.0212,-3.764362E-05
499.1212,-3.763608E-05
499.2213,-3.764079E-05
499.3213,-3.761913E-05
499.4213,-3.761913E-05
499.5213,-3.763797E-05
499.6213,-3.763891E-05
499.7213,-3.764644E-05
499.8213,-3.763703E-05
499.9213,-3.762384E-05
500.0213,-3.761819E-05
500.1213,-3.762667E-05
500.2213,-3.76229E-05
500.3213,-3.763797E-05
500.4213,-3.765021E-05
500.5213,-3.761254E-05
500.6213,-3.7605E-05
500.7213,-3.762007E-05
500.8214,-3.762855E-05
500.9214,-3.760972E-05
501.0214,-3.762007E-05
501.1214,-3.761631E-05
501.2214,-3.760689E-05
501.3214,-3.761913E-05
501.4214,-3.761443E-05
501.5214,-3.76116E-05
501.6214,-3.762384E-05
501.7214,-3.760595E-05
501.8214,-3.759465E-05
501.9214,-3.762667E-05
502.0214,-3.766528E-05
502.1214,-3.76295E-05
502.2214,-3.761065E-05
502.3214,-3.76003E-05
502.4214,-3.756734E-05
502.5215,-3.760124E-05
502.6215,-3.761537E-05
502.7215,-3.758994E-05
502.8215,-3.75824E-05
502.9215,-3.75711E-05
503.0215,-3.758712E-05
503.1215,-3.759465E-05
503.2215,-3.758146E-05
503.3215,-3.7589E-05
503.4215,-3.764268E-05
503.5215,-3.767281E-05
503.6215,-3.760972E-05
503.7215,-3.759465E-05
503.8215,-3.76116E-05
503.9215,-3.756075E-05
504.0215,-3.759935E-05
504.1216,-3.758994E-05
504.2216,-3.755886E-05
504.3216,-3.757487E-05
504.4216,-3.759371E-05
504.5216,-3.756169E-05
504.6216,-3.756169E-05
504.7216,-3.755603E-05
504.8216,-3.757487E-05
504.9216,-3.756828E-05
505.0216,-3.757393E-05
505.1216,-3.757393E-05
505.2216,-3.7605E-05
505.3216,-3.75824E-05
505.4216,-3.755603E-05
505.5216,-3.758052E-05
505.6216,-3.756075E-05
505.7216,-3.753061E-05
505.8217,-3.755981E-05
505.9217,-3.756828E-05
506.0217,-3.756828E-05
506.1217,-3.756451E-05
506.2217,-3.755698E-05
506.3217,-3.755321E-05
506.4217,-3.759088E-05
506.5217,-3.757958E-05
506.6217,-3.751743E-05
506.7217,-3.754474E-05
506.8217,-3.754944E-05
506.9217,-3.75438E-05
507.0217,-3.756169E-05
507.1217,-3.756546E-05
507.2217,-3.754474E-05
507.3217,-3.757299E-05
507.4218,-3.754756E-05
507.5218,-3.752308E-05
507.6218,-3.755321E-05
507.7218,-3.759465E-05
507.8218,-3.757487E-05
507.9218,-3.756451E-05
508.0218,-3.758052E-05
508.1218,-3.753249E-05
508.2218,-3.757016E-05
508.3218,-3.758806E-05
508.4218,-3.753155E-05
508.5218,-3.756828E-05
508.6218,-3.756734E-05
508.7218,-3.752684E-05
508.8218,-3.755603E-05
508.9218,-3.755133E-05
509.0219,-3.753061E-05
509.1219,-3.754944E-05
509.2219,-3.754191E-05
509.3219,-3.752402E-05
509.4219,-3.752496E-05
509.5219,-3.752214E-05
509.6219,-3.751177E-05
509.7219,-3.752025E-05
509.8219,-3.755509E-05
509.9219,-3.751554E-05
510.0219,-3.752214E-05
510.1219,-3.752684E-05
510.2219,-3.75146E-05
510.3219,-3.755039E-05
510.4219,-3.75485E-05
510.5219,-3.752967E-05
510.6219,-3.754474E-05
510.722,-3.754756E-05
510.822,-3.753532E-05
510.922,-3.75146E-05
511.022,-3.753343E-05
511.122,-3.75485E-05
511.222,-3.752214E-05
511.322,-3.753532E-05
511.422,-3.752967E-05
511.522,-3.752496E-05
511.622,-3.75372E-05
511.722,-3.754474E-05
511.822,-3.748823E-05
511.922,-3.751083E-05
512.022,-3.751554E-05
512.122,-3.752308E-05
512.222,-3.753061E-05
512.322,-3.752025E-05
512.4219,-3.749765E-05
512.5219,-3.749482E-05
512.6219,-3.753532E-05
512.7219,-3.752496E-05
512.8218,-3.752873E-05
512.9218,-3.7492E-05
513.0218,-3.750706E-05
513.1218,-3.753155E-05
513.2217,-3.752025E-05
513.3217,-3.752308E-05
513.4217,-3.750801E-05
513.5217,-3.75259E-05
513.6216,-3.755227E-05
513.7216,-3.756169E-05
513.8216,-3.754944E-05
513.9216,-3.752119E-05
514.0215,-3.755981E-05
514.1215,-3.75824E-05
514.2215,-3.753155E-05
514.3215,-3.753343E-05
514.4214,-3.753061E-05
514.5214,-3.752778E-05
514.6214,-3.75485E-05
514.7214,-3.754944E-05
514.8214,-3.750895E-05
514.9213,-3.754944E-05
515.0213,-3.756451E-05
515.1213,-3.753908E-05
515.2213,-3.752496E-05
515.3212,-3.751931E-05
515.4212,-3.753438E-05
515.5212,-3.753343E-05
515.6212,-3.754003E-05
515.7211,-3.749859E-05
515.8211,-3.752119E-05
515.9211,-3.756169E-05
516.0211,-3.752308E-05
516.121,-3.752496E-05
516.221,-3.753155E-05
516.321,-3.753249E-05
516.421,-3.75259E-05
516.5209,-3.754568E-05
516.6209,-3.751837E-05
516.7209,-3.755415E-05
516.8209,-3.753814E-05
516.9208,-3.751743E-05
517.0208,-3.753061E-05
517.1208,-3.756639E-05
517.2208,-3.753814E-05
517.3207,-3.753249E-05
517.4207,-3.751649E-05
517.5207,-3.752778E-05
517.6207,-3.753532E-05
517.7206,-3.755321E-05
517.8206,-3.751837E-05
517.9206,-3.752967E-05
518.0206,-3.75485E-05
518.1205,-3.754944E-05
518.2205,-3.755133E-05
518.3205,-3.756169E-05
518.4205,-3.752684E-05
518.5204,-3.755603E-05
518.6204,-3.754944E-05
518.7204,-3.752402E-05
518.8204,-3.753343E-05
518.9203,-3.753626E-05
519.0203,-3.753438E-05
519.1203,-3.759465E-05
519.2203,-3.75824E-05
519.3203,-3.755603E-05
519.4202,-3.756546E-05
519.5202,-3.755321E-05
519.6202,-3.757205E-05
519.7202,-3.755698E-05
519.8201,-3.754756E-05
519.9201,-3.753438E-05
520.0201,-3.756451E-05
520.1201,-3.753532E-05
520.22,-3.752308E-05
520.32,-3.755039E-05
520.42,-3.757299E-05
520.52,-3.75259E-05
520.6199,-3.76342E-05
520.7199,-3.764079E-05
520.8199,-3.761725E-05
520.9199,-3.759747E-05
521.0198,-3.75711E-05
521.1198,-3.760595E-05
521.2198,-3.759088E-05
521.3198,-3.757393E-05
521.4197,-3.755792E-05
521.5197,-3.759276E-05
521.6197,-3.758523E-05
521.7197,-3.759182E-05
521.8196,-3.756263E-05
521.9196,-3.757581E-05
522.0196,-3.758617E-05
522.1196,-3.757299E-05
522.2195,-3.758712E-05
522.3195,-3.757299E-05
522.4195,-3.756075E-05
522.5195,-3.756828E-05
522.6194,-3.756734E-05
522.7194,-3.757958E-05
522.8194,-3.758052E-05
522.9194,-3.755981E-05
523.0193,-3.759182E-05
523.1193,-3.759088E-05
523.2193,-3.7589E-05
523.3193,-3.755321E-05
523.4193,-3.758334E-05
523.5192,-3.759371E-05
523.6192,-3.755792E-05
523.7192,-3.758146E-05
523.8192,-3.759653E-05
523.9191,-3.757958E-05
524.0191,-3.760972E-05
524.1191,-3.762102E-05
524.2191,-3.755698E-05
524.319,-3.759935E-05
524.419,-3.760407E-05
524.519,-3.754097E-05
524.619,-3.759182E-05
524.7189,-3.763043E-05
524.8189,-3.760689E-05
524.9189,-3.758429E-05
525.0189,-3.757393E-05
525.1188,-3.756828E-05
525.2188,-3.761819E-05
525.3188,-3.762196E-05
525.4188,-3.757864E-05
525.5187,-3.758146E-05
525.6187,-3.761065E-05
525.7187,-3.76003E-05
525.8187,-3.760407E-05
525.9186,-3.760972E-05
526.0186,-3.759465E-05
526.1186,-3.764268E-05
526.2186,-3.764079E-05
526.3185,-3.76276E-05
526.4185,-3.760312E-05
526.5185,-3.760595E-05
526.6185,-3.764833E-05
526.7184,-3.762384E-05
526.8184,-3.765021E-05
526.9184,-3.764268E-05
527.0184,-3.762007E-05
527.1183,-3.764926E-05
527.2183,-3.766434E-05
527.3183,-3.764456E-05
527.4183,-3.766528E-05
527.5182,-3.766904E-05
527.6182,-3.76455E-05
527.7182,-3.765398E-05
527.8182,-3.761819E-05
527.9182,-3.763985E-05
528.0181,-3.764268E-05
528.1181,-3.762572E-05
528.2181,-3.761725E-05
528.3181,-3.764926E-05
528.418,-3.768317E-05
528.518,-3.763608E-05
528.618,-3.76276E-05
528.718,-3.762855E-05
528.8179,-3.761631E-05
528.9179,-3.767093E-05
529.0179,-3.763043E-05
529.1179,-3.760312E-05
529.2178,-3.764173E-05
529.3178,-3.765869E-05
529.4178,-3.761819E-05
529.5178,-3.76229E-05
529.6177,-3.760972E-05
529.7177,-3.764362E-05
529.8177,-3.769164E-05
529.9177,-3.767376E-05
530.0176,-3.765398E-05
530.1176,-3.766339E-05
530.2176,-3.766245E-05
530.3176,-3.767281E-05
530.4175,-3.766716E-05
530.5175,-3.767941E-05
530.6175,-3.764926E-05
530.7175,-3.765209E-05
530.8174,-3.766245E-05
530.9174,-3.765021E-05
531.0174,-3.767846E-05
531.1174,-3.765021E-05
531.2173,-3.763797E-05
531.3173,-3.766339E-05
531.4173,-3.764738E-05
531.5173,-3.767658E-05
531.6172,-3.766904E-05
531.7172,-3.768129E-05
531.8172,-3.767941E-05
531.9172,-3.765491E-05
532.0172,-3.767469E-05
532.1171,-3.764456E-05
532.2171,-3.766622E-05
532.3171,-3.767846E-05
532.4171,-3.766245E-05
532.517,-3.767469E-05
532.617,-3.766434E-05
532.717,-3.767941E-05
532.817,-3.767846E-05
532.9169,-3.767941E-05
533.0169,-3.770483E-05
533.1169,-3.766245E-05
533.2169,-3.771613E-05
533.3168,-3.768882E-05
533.4168,-3.767658E-05
533.5168,-3.766339E-05
533.6168,-3.767846E-05
533.7167,-3.766999E-05
533.8167,-3.768694E-05
533.9167,-3.764362E-05
534.0167,-3.769918E-05
534.1166,-3.776604E-05
534.2166,-3.77764E-05
534.3166,-3.770577E-05
534.4166,-3.771613E-05
534.5165,-3.772649E-05
534.6165,-3.770107E-05
534.7165,-3.77199E-05
534.8165,-3.770295E-05
534.9164,-3.767093E-05
535.0164,-3.768882E-05
535.1164,-3.77133E-05
535.2164,-3.768505E-05
535.3163,-3.767846E-05
535.4163,-3.768129E-05
535.5163,-3.767376E-05
535.6163,-3.769353E-05
535.7162,-3.770201E-05
535.8162,-3.766999E-05
535.9162,-3.768317E-05
536.0162,-3.772555E-05
536.1161,-3.768223E-05
536.2161,-3.769729E-05
536.3161,-3.770766E-05
536.4161,-3.774156E-05
536.5161,-3.778299E-05
536.616,-3.773214E-05
536.716,-3.77246E-05
536.816,-3.772837E-05
536.916,-3.77538E-05
537.0159,-3.771801E-05
537.1159,-3.774344E-05
537.2159,-3.773026E-05
537.3159,-3.772272E-05
537.4158,-3.775098E-05
537.5158,-3.776039E-05
537.6158,-3.775662E-05
537.7158,-3.773402E-05
537.8157,-3.778205E-05
537.9157,-3.775662E-05
538.0157,-3.776133E-05
538.1157,-3.778017E-05
538.2156,-3.776698E-05
538.3156,-3.777923E-05
538.4156,-3.778676E-05
538.5156,-3.776792E-05
538.6155,-3.773873E-05
538.7155,-3.776604E-05
538.8155,-3.772743E-05
538.9155,-3.776322E-05
539.0154,-3.782443E-05
539.1154,-3.779053E-05
539.2154,-3.780465E-05
539.3154,-3.780748E-05
539.4153,-3.779523E-05
539.5153,-3.777452E-05
539.6153,-3.779241E-05
539.7153,-3.7799E-05
539.8152,-3.777734E-05
539.9152,-3.779712E-05
540.0152,-3.776133E-05
540.1152,-3.777828E-05
540.2151,-3.779994E-05
540.3151,-3.777828E-05
540.4151,-3.777923E-05
540.5151,-3.77764E-05
540.6151,-3.778394E-05
540.715,-3.779053E-05
540.815,-3.778864E-05
540.915,-3.776981E-05
541.015,-3.777452E-05
541.1149,-3.779429E-05
541.2149,-3.776416E-05
541.3149,-3.779241E-05
541.4149,-3.779429E-05
541.5148,-3.776698E-05
541.6148,-3.778111E-05
541.7148,-3.778205E-05
541.8148,-3.778958E-05
541.9147,-3.781784E-05
542.0147,-3.781878E-05
542.1147,-3.778958E-05
542.2147,-3.777358E-05
542.3146,-3.779523E-05
542.4146,-3.779429E-05
542.5146,-3.779523E-05
542.6146,-3.78169E-05
542.7145,-3.779429E-05
542.8145,-3.781125E-05
542.9145,-3.781878E-05
543.0145,-3.778488E-05
543.1144,-3.779806E-05
543.2144,-3.783384E-05
543.3144,-3.784044E-05
543.4144,-3.781501E-05
543.5143,-3.785739E-05
543.6143,-3.78395E-05
543.7143,-3.784044E-05
543.8143,-3.786115E-05
543.9142,-3.784138E-05
544.0142,-3.78621E-05
544.1142,-3.784421E-05
544.2142,-3.782443E-05
544.3141,-3.78395E-05
544.4141,-3.786022E-05
544.5141,-3.785833E-05
544.6141,-3.783856E-05
544.7141,-3.785833E-05
544.814,-3.784609E-05
544.914,-3.782819E-05
545.014,-3.786492E-05
545.114,-3.784232E-05
545.2139,-3.78508E-05
545.3139,-3.787905E-05
545.4139,-3.786963E-05
545.5139,-3.783196E-05
545.6138,-3.78395E-05
545.7138,-3.786681E-05
545.8138,-3.78621E-05
545.9138,-3.787528E-05
546.0137,-3.786963E-05
546.1137,-3.784986E-05
546.2137,-3.786681E-05
546.3137,-3.788564E-05
546.4136,-3.787717E-05
546.5136,-3.788564E-05
546.6136,-3.788093E-05
546.7136,-3.784609E-05
546.8135,-3.78734E-05
546.9135,-3.789035E-05
547.0135,-3.786775E-05
547.1135,-3.789035E-05
547.2134,-3.789883E-05
547.3134,-3.787152E-05
547.4134,-3.789129E-05
547.5134,-3.789977E-05
547.6133,-3.786869E-05
547.7133,-3.788093E-05
547.8133,-3.788188E-05
547.9133,-3.790448E-05
548.0132,-3.790636E-05
548.1132,-3.79186E-05
548.2132,-3.787434E-05
548.3132,-3.789223E-05
548.4131,-3.790542E-05
548.5131,-3.791766E-05
548.6131,-3.79638E-05
548.7131,-3.792708E-05
548.813,-3.792426E-05
548.913,-3.795062E-05
549.013,-3.794214E-05
549.113,-3.790636E-05
549.213,-3.794591E-05
549.3129,-3.793555E-05
549.4129,-3.791954E-05
549.5129,-3.793932E-05
549.6129,-3.792614E-05
549.7128,-3.791578E-05
549.8128,-3.794779E-05
549.9128,-3.794309E-05
550.0128,-3.792048E-05
550.1127,-3.791954E-05
550.2127,-3.795251E-05
550.3127,-3.793744E-05
550.4127,-3.795345E-05
550.5126,-3.795062E-05
550.6126,-3.793555E-05
550.7126,-3.793273E-05
550.8126,-3.797134E-05
550.9125,-3.792331E-05
551.0125,-3.792802E-05
551.1125,-3.796475E-05
551.2125,-3.797417E-05
551.3124,-3.800524E-05
551.4124,-3.798546E-05
551.5124,-3.795157E-05
551.6124,-3.799206E-05
551.7123,-3.799583E-05
551.8123,-3.799489E-05
551.9123,-3.799394E-05
552.0123,-3.795533E-05
552.1122,-3.79704E-05
552.2122,-3.798546E-05
552.3122,-3.800618E-05
552.4122,-3.794591E-05
552.5121,-3.798735E-05
552.6121,-3.80043E-05
552.7121,-3.797417E-05
552.8121,-3.798829E-05
552.912,-3.798923E-05
553.012,-3.798076E-05
553.112,-3.801183E-05
553.212,-3.799017E-05
553.312,-3.797982E-05
553.4119,-3.799111E-05
553.5119,-3.802596E-05
553.6119,-3.801372E-05
553.7119,-3.799017E-05
553.8118,-3.800713E-05
553.9118,-3.801748E-05
554.0118,-3.798829E-05
554.1118,-3.799771E-05
554.2117,-3.797511E-05
554.3117,-3.800713E-05
554.4117,-3.802408E-05
554.5117,-3.798264E-05
554.6116,-3.79704E-05
554.7116,-3.799017E-05
554.8116,-3.799865E-05
554.9116,-3.800995E-05
555.0115,-3.801089E-05
555.1115,-3.800995E-05
555.2115,-3.798923E-05
555.3115,-3.80222E-05
555.4114,-3.800807E-05
555.5114,-3.80269E-05
555.6114,-3.802031E-05
555.7114,-3.800336E-05
555.8113,-3.803349E-05
555.9113,-3.804291E-05
556.0113,-3.801842E-05
556.1113,-3.801089E-05
556.2112,-3.80382E-05
556.3112,-3.803443E-05
556.4112,-3.803255E-05
556.5112,-3.806551E-05
556.6111,-3.802314E-05
556.7111,-3.805045E-05
556.8111,-3.808529E-05
556.9111,-3.803443E-05
557.011,-3.804009E-05
557.111,-3.808246E-05
557.211,-3.808434E-05
557.311,-3.803915E-05
557.4109,-3.808434E-05
557.5109,-3.808246E-05
557.6109,-3.803349E-05
557.7109,-3.807493E-05
557.8109,-3.808906E-05
557.9108,-3.805798E-05
558.0108,-3.808341E-05
558.1108,-3.803538E-05
558.2108,-3.811449E-05
558.3107,-3.817664E-05
558.4107,-3.81578E-05
558.5107,-3.808058E-05
558.6107,-3.81126E-05
558.7106,-3.811072E-05
558.8106,-3.807964E-05
558.9106,-3.81126E-05
559.0106,-3.807587E-05
559.1105,-3.806834E-05
559.2105,-3.807587E-05
559.3105,-3.808717E-05
559.4105,-3.80608E-05
559.5104,-3.809282E-05
559.6104,-3.811166E-05
559.7104,-3.803915E-05
559.8104,-3.809753E-05
559.9103,-3.812202E-05
560.0103,-3.810601E-05
560.1103,-3.80787E-05
560.2103,-3.809847E-05
560.3102,-3.809659E-05
560.4102,-3.812014E-05
560.5102,-3.809565E-05
560.6102,-3.807305E-05
560.7101,-3.811354E-05
560.8101,-3.813803E-05
560.9101,-3.810977E-05
561.0101,-3.809471E-05
561.11,-3.81352E-05
561.21,-3.812861E-05
561.31,-3.812484E-05
561.41,-3.812202E-05
561.5099,-3.815498E-05
561.6099,-3.812861E-05
561.7099,-3.804573E-05
561.8099,-3.800524E-05
561.9099,-3.803538E-05
562.0098,-3.807116E-05
562.1098,-3.802596E-05
562.2098,-3.806646E-05
562.3098,-3.81126E-05
562.4097,-3.810412E-05
562.5097,-3.810789E-05
562.6097,-3.812296E-05
562.7097,-3.811354E-05
562.8096,-3.809753E-05
562.9096,-3.812107E-05
563.0096,-3.811354E-05
563.1096,-3.813143E-05
563.2095,-3.811354E-05
563.3095,-3.809471E-05
563.4095,-3.809659E-05
563.5095,-3.813143E-05
563.6094,-3.812579E-05
563.7094,-3.812579E-05
563.8094,-3.811072E-05
563.9094,-3.810318E-05
564.0093,-3.814556E-05
564.1093,-3.813991E-05
564.2093,-3.814273E-05
564.3093,-3.81352E-05
564.4092,-3.813426E-05
564.5092,-3.81126E-05
564.6092,-3.816439E-05
564.7092,-3.818794E-05
564.8091,-3.815121E-05
564.9091,-3.813803E-05
565.0091,-3.815875E-05
565.1091,-3.817475E-05
565.209,-3.817004E-05
565.309,-3.816722E-05
565.409,-3.812672E-05
565.509,-3.815686E-05
565.6089,-3.819171E-05
565.7089,-3.818417E-05
565.8089,-3.815968E-05
565.9089,-3.818511E-05
566.0089,-3.816628E-05
566.1088,-3.817758E-05
566.2088,-3.820112E-05
566.3088,-3.817287E-05
566.4088,-3.816722E-05
566.5087,-3.816816E-05
566.6087,-3.818606E-05
566.7087,-3.820112E-05
566.8087,-3.817758E-05
566.9086,-3.817475E-05
567.0086,-3.81531E-05
567.1086,-3.816534E-05
567.2086,-3.816063E-05
567.3085,-3.8187E-05
567.4085,-3.818511E-05
567.5085,-3.817946E-05
567.6085,-3.81983E-05
567.7084,-3.820772E-05
567.8084,-3.8203E-05
567.9084,-3.820112E-05
568.0084,-3.821148E-05
568.1083,-3.817193E-05
568.2083,-3.821054E-05
568.3083,-3.823691E-05
568.4083,-3.821242E-05
568.5082,-3.82209E-05
568.6082,-3.821713E-05
568.7082,-3.821336E-05
568.8082,-3.82209E-05
568.9081,-3.822655E-05
569.0081,-3.819736E-05
569.1081,-3.821619E-05
569.2081,-3.822184E-05
569.308,-3.822372E-05
569.408,-3.822467E-05
569.508,-3.823126E-05
569.608,-3.821336E-05
569.7079,-3.819076E-05
569.8079,-3.820112E-05
569.9079,-3.822184E-05
570.0079,-3.822467E-05
570.1078,-3.823502E-05
570.2078,-3.82096E-05
570.3078,-3.821902E-05
570.4078,-3.825857E-05
570.5078,-3.821336E-05
570.6077,-3.821996E-05
570.7077,-3.828117E-05
570.8077,-3.829718E-05
570.9077,-3.826139E-05
571.0076,-3.828023E-05
571.1076,-3.828305E-05
571.2076,-3.823597E-05
571.3076,-3.827552E-05
571.4075,-3.831978E-05
571.5075,-3.827269E-05
571.6075,-3.82774E-05
571.7075,-3.828117E-05
571.8074,-3.829153E-05
571.9074,-3.83066E-05
572.0074,-3.830942E-05
572.1074,-3.827646E-05
572.2073,-3.828682E-05
572.3073,-3.83113E-05
572.4073,-3.82887E-05
572.5073,-3.832355E-05
572.6072,-3.830848E-05
572.7072,-3.826422E-05
572.8072,-3.829153E-05
572.9072,-3.83113E-05
573.0071,-3.829153E-05
573.1071,-3.830283E-05
573.2071,-3.829812E-05
573.3071,-3.832072E-05
573.407,-3.836027E-05
573.507,-3.833956E-05
573.607,-3.828965E-05
573.707,-3.83066E-05
573.8069,-3.833108E-05
573.9069,-3.832637E-05
574.0069,-3.83179E-05
574.1069,-3.832355E-05
574.2068,-3.831507E-05
574.3068,-3.83292E-05
574.4068,-3.834521E-05
574.5068,-3.832166E-05
574.6068,-3.835651E-05
574.7067,-3.836499E-05
574.8067,-3.833296E-05
574.9067,-3.832166E-05
575.0067,-3.836592E-05
575.1066,-3.832449E-05
575.2066,-3.835274E-05
575.3066,-3.837346E-05
575.4066,-3.838665E-05
575.5065,-3.842808E-05
575.6065,-3.841395E-05
575.7065,-3.83631E-05
575.8065,-3.838853E-05
575.9064,-3.841678E-05
576.0064,-3.837911E-05
576.1064,-3.837534E-05
576.2064,-3.837346E-05
576.3063,-3.835651E-05
576.4063,-3.839512E-05
576.5063,-3.839794E-05
576.6063,-3.834898E-05
576.7062,-3.836027E-05
576.8062,-3.838759E-05
576.9062,-3.834427E-05
577.0062,-3.836122E-05
577.1061,-3.838476E-05
577.2061,-3.837817E-05
577.3061,-3.838759E-05
577.4061,-3.838665E-05
577.506,-3.835368E-05
577.606,-3.837063E-05
577.706,-3.841113E-05
577.806,-3.839606E-05
577.9059,-3.840548E-05
578.0059,-3.842713E-05
578.1059,-3.840925E-05
578.2059,-3.841772E-05
578.3058,-3.845068E-05
578.4058,-3.843844E-05
578.5058,-3.843467E-05
578.6058,-3.842619E-05
578.7057,-3.843938E-05
578.8057,-3.845351E-05
578.9057,-3.845351E-05
579.0057,-3.847328E-05
579.1057,-3.845822E-05
579.2056,-3.845068E-05
579.3056,-3.845822E-05
579.4056,-3.846951E-05
579.5056,-3.846386E-05
579.6055,-3.845633E-05
579.7055,-3.847423E-05
579.8055,-3.84601E-05
579.9055,-3.846951E-05
580.0054,-3.846198E-05
580.1054,-3.844032E-05
580.2054,-3.843938E-05
580.3054,-3.844032E-05
580.4053,-3.847611E-05
580.5053,-3.844315E-05
580.6053,-3.846575E-05
580.7053,-3.85006E-05
580.8052,-3.848741E-05
580.9052,-3.847705E-05
581.0052,-3.85006E-05
581.1052,-3.848176E-05
581.2051,-3.848929E-05
581.3051,-3.851284E-05
581.4051,-3.84827E-05
581.5051,-3.845633E-05
581.605,-3.847799E-05
581.705,-3.84714E-05
581.805,-3.848647E-05
581.905,-3.85279E-05
582.0049,-3.847705E-05
582.1049,-3.851472E-05
582.2049,-3.853261E-05
582.3049,-3.848929E-05
582.4048,-3.849494E-05
582.5048,-3.853167E-05
582.6048,-3.854203E-05
582.7048,-3.854014E-05
582.8047,-3.854203E-05
582.9047,-3.851566E-05
583.0047,-3.854203E-05
583.1047,-3.857499E-05
583.2047,-3.855804E-05
583.3046,-3.855333E-05
583.4046,-3.855239E-05
583.5046,-3.855615E-05
583.6046,-3.856275E-05
583.7045,-3.857217E-05
583.8045,-3.85505E-05
583.9045,-3.863055E-05
584.0045,-3.864185E-05
584.1044,-3.861078E-05
584.2044,-3.860513E-05
584.3044,-3.863714E-05
584.4044,-3.861925E-05
584.5043,-3.859194E-05
584.6043,-3.863149E-05
584.7043,-3.863997E-05
584.8043,-3.861831E-05
584.9042,-3.860983E-05
585.0042,-3.861549E-05
585.1042,-3.865315E-05
585.2042,-3.867387E-05
585.3041,-3.86475E-05
585.4041,-3.864844E-05
585.5041,-3.865315E-05
585.6041,-3.864562E-05
585.704,-3.864374E-05
585.804,-3.864185E-05
585.904,-3.864468E-05
586.004,-3.863338E-05
586.1039,-3.863526E-05
586.2039,-3.865221E-05
586.3039,-3.868423E-05
586.4039,-3.873038E-05
586.5038,-3.868046E-05
586.6038,-3.866069E-05
586.7038,-3.869082E-05
586.8038,-3.868517E-05
586.9037,-3.868046E-05
587.0037,-3.867575E-05
587.1037,-3.868894E-05
587.2037,-3.864091E-05
587.3036,-3.870401E-05
587.4036,-3.870589E-05
587.5036,-3.86767E-05
587.6036,-3.86927E-05
587.7036,-3.870212E-05
587.8035,-3.870118E-05
587.9035,-3.872661E-05
588.0035,-3.873697E-05
588.1035,-3.874544E-05
588.2034,-3.872661E-05
588.3034,-3.874356E-05
588.4034,-3.872661E-05
588.5034,-3.875204E-05
588.6033,-3.875957E-05
588.7033,-3.874168E-05
588.8033,-3.878029E-05
588.9033,-3.873603E-05
589.0032,-3.872379E-05
589.1032,-3.877276E-05
589.2032,-3.877935E-05
589.3032,-3.875769E-05
589.4031,-3.876333E-05
589.5031,-3.877087E-05
589.6031,-3.877369E-05
589.7031,-3.879347E-05
589.803,-3.880477E-05
589.903,-3.879818E-05
590.003,-3.879442E-05
590.103,-3.880195E-05
590.2029,-3.8801E-05
590.3029,-3.880195E-05
590.4029,-3.880948E-05
590.5029,-3.880477E-05
590.6028,-3.881702E-05
590.7028,-3.882926E-05
590.8028,-3.880477E-05
590.9028,-3.879912E-05
591.0027,-3.883114E-05
591.1027,-3.881042E-05
591.2027,-3.88302E-05
591.3027,-3.879252E-05
591.4026,-3.880854E-05
591.5026,-3.885656E-05
591.6026,-3.883585E-05
591.7026,-3.88189E-05
591.8026,-3.883114E-05
591.9025,-3.885656E-05
592.0025,-3.88867E-05
592.1025,-3.887446E-05
592.2025,-3.884621E-05
592.3024,-3.886504E-05
592.4024,-3.888105E-05
592.5024,-3.889612E-05
592.6024,-3.889424E-05
592.7023,-3.88641E-05
592.8023,-3.887446E-05
592.9023,-3.888859E-05
593.0023,-3.889612E-05
593.1022,-3.888011E-05
593.2022,-3.887728E-05
593.3022,-3.889235E-05
593.4022,-3.889894E-05
593.5021,-3.890742E-05
593.6021,-3.888294E-05
593.7021,-3.890083E-05
593.8021,-3.888388E-05
593.902,-3.890177E-05
594.002,-3.893662E-05
594.102,-3.894603E-05
594.202,-3.891778E-05
594.3019,-3.894509E-05
594.4019,-3.893473E-05
594.5019,-3.893002E-05
594.6019,-3.894697E-05
594.7018,-3.896863E-05
594.8018,-3.895074E-05
594.9018,-3.897617E-05
595.0018,-3.8979E-05
595.1017,-3.895262E-05
595.2017,-3.899971E-05
595.3017,-3.898841E-05
595.4017,-3.893662E-05
595.5016,-3.898558E-05
595.6016,-3.901478E-05
595.7016,-3.894697E-05
595.8016,-3.899783E-05
595.9016,-3.902608E-05
596.0015,-3.898276E-05
596.1015,-3.902514E-05
596.2015,-3.901949E-05
596.3015,-3.900159E-05
596.4014,-3.903267E-05
596.5014,-3.901289E-05
596.6014,-3.8995E-05
596.7014,-3.901383E-05
596.8013,-3.902796E-05
596.9013,-3.901478E-05
597.0013,-3.904209E-05
597.1013,-3.905904E-05
597.2012,-3.902137E-05
597.3012,-3.903361E-05
597.4012,-3.90581E-05
597.5012,-3.902043E-05
597.6011,-3.906845E-05
597.7011,-3.910142E-05
597.8011,-3.905339E-05
597.9011,-3.907034E-05
598.001,-3.907787E-05
598.101,-3.906469E-05
598.201,-3.907505E-05
598.301,-3.9092E-05
598.4009,-3.906564E-05
598.5009,-3.907034E-05
598.6009,-3.908258E-05
598.7009,-3.907882E-05
598.8008,-3.909012E-05
598.9008,-3.910801E-05
599.0008,-3.908258E-05
599.1008,-3.90854E-05
599.2007,-3.914379E-05
599.3007,-3.911083E-05
599.4007,-3.911837E-05
599.5007,-3.91325E-05
599.6006,-3.911649E-05
599.7006,-3.916828E-05
599.8006,-3.915698E-05
599.9006,-3.911931E-05
600.0005,-3.913721E-05
