EXPID. 1271
[电化学]: CV : -0.8 >> -0.8 >> -1.5 >> -0.8(V) @ 0.01(V/s) X 10(Seg)
起始电位 (V),-0.8
上限电位 (V),-0.8
下限电位 (V),-1.5
终止电位 (V),-0.8
扫速 (V/s),0.01
电解液 信息:
KOH,1
-0.8,-0.04475488
-0.801,-0.03942094
-0.802,-0.03558908
-0.803,-0.03237033
-0.804,-0.02976467
-0.805,-0.02761883
-0.806,-0.02577954
-0.807,-0.02418549
-0.808,-0.02274471
-0.809,-0.02148787
-0.81,-0.02035364
-0.811,-0.01934203
-0.812,-0.01842238
-0.813,-0.01756405
-0.814,-0.01679768
-0.815,-0.01609262
-0.816,-0.01541821
-0.817,-0.01494105
-0.818,-0.01439846
-0.819,-0.01388039
-0.82,-0.01339911
-0.821,-0.01294848
-0.822,-0.01251931
-0.823,-0.01211774
-0.824,-0.01174068
-0.825,-0.01138202
-0.826,-0.01104175
-0.827,-0.01072601
-0.828,-0.01041946
-0.829,-0.01012824
-0.83,-0.009852344
-0.831,-0.009588713
-0.832,-0.009334277
-0.833,-0.009104366
-0.834,-0.00887752
-0.835,-0.008659871
-0.836,-0.00845755
-0.837,-0.008264424
-0.838,-0.008065168
-0.839,-0.007890435
-0.84,-0.007712637
-0.841,-0.007531774
-0.842,-0.007369304
-0.843,-0.00718844
-0.844,-0.007022904
-0.845,-0.006860433
-0.846,-0.006691832
-0.847,-0.006535492
-0.848,-0.006385284
-0.849,-0.006241206
-0.85,-0.006106324
-0.851,-0.005974509
-0.852,-0.005842693
-0.853,-0.005720073
-0.854,-0.005591323
-0.855,-0.005468704
-0.856,-0.005355281
-0.857,-0.005241858
-0.858,-0.005146828
-0.859,-0.00505793
-0.86,-0.004969031
-0.861,-0.004892393
-0.862,-0.004824953
-0.863,-0.004754446
-0.864,-0.004696202
-0.865,-0.004641024
-0.866,-0.00458891
-0.867,-0.004542928
-0.868,-0.004500012
-0.869,-0.00446016
-0.87,-0.00442644
-0.871,-0.004398851
-0.872,-0.004368196
-0.873,-0.004343672
-0.874,-0.004322214
-0.875,-0.00429769
-0.876,-0.004285428
-0.877,-0.004273166
-0.878,-0.004257839
-0.879,-0.004254773
-0.88,-0.004245576
-0.881,-0.00423638
-0.882,-0.00423638
-0.883,-0.00423638
-0.884,-0.00423638
-0.885,-0.004239446
-0.886,-0.004242511
-0.887,-0.004242511
-0.888,-0.004251707
-0.889,-0.004257839
-0.89,-0.00426397
-0.891,-0.004279297
-0.892,-0.004285428
-0.893,-0.004300755
-0.894,-0.004319148
-0.895,-0.00433141
-0.896,-0.004349803
-0.897,-0.004371261
-0.898,-0.004386589
-0.899,-0.004414178
-0.9,-0.004435637
-0.901,-0.004454029
-0.902,-0.004484684
-0.903,-0.004515339
-0.904,-0.004539863
-0.905,-0.004573583
-0.906,-0.004598107
-0.907,-0.004634893
-0.908,-0.004668613
-0.909,-0.004699268
-0.91,-0.004736054
-0.911,-0.00477284
-0.912,-0.004803495
-0.913,-0.004846411
-0.914,-0.004883197
-0.915,-0.004916917
-0.916,-0.0049629
-0.917,-0.005002751
-0.918,-0.005036471
-0.919,-0.005079388
-0.92,-0.005122304
-0.921,-0.005156024
-0.922,-0.005202007
-0.923,-0.005244924
-0.924,-0.00528171
-0.925,-0.005327692
-0.926,-0.005367543
-0.927,-0.005404329
-0.928,-0.005450311
-0.929,-0.005493228
-0.93,-0.005530014
-0.931,-0.00557293
-0.932,-0.005618913
-0.933,-0.005658764
-0.934,-0.005701681
-0.935,-0.005741532
-0.936,-0.005778318
-0.937,-0.005827365
-0.938,-0.005864152
-0.939,-0.005907068
-0.94,-0.00595305
-0.941,-0.005986771
-0.942,-0.006026622
-0.943,-0.006069539
-0.944,-0.006100194
-0.945,-0.00614311
-0.946,-0.006186027
-0.947,-0.006216682
-0.948,-0.006256533
-0.949,-0.006296384
-0.95,-0.006330105
-0.951,-0.006369956
-0.952,-0.006400611
-0.953,-0.006434331
-0.954,-0.006474182
-0.955,-0.006501772
-0.956,-0.006538557
-0.957,-0.006572278
-0.958,-0.006602933
-0.959,-0.006633587
-0.96,-0.006670373
-0.961,-0.006697963
-0.962,-0.006725552
-0.963,-0.006762337
-0.964,-0.006783796
-0.965,-0.00680832
-0.966,-0.006848171
-0.967,-0.006869629
-0.968,-0.006897219
-0.969,-0.006924808
-0.97,-0.006943201
-0.971,-0.006973856
-0.972,-0.00699838
-0.973,-0.007016772
-0.974,-0.007044362
-0.975,-0.007062755
-0.976,-0.007081148
-0.977,-0.007111803
-0.978,-0.007124064
-0.979,-0.007142458
-0.98,-0.007170047
-0.981,-0.007179243
-0.982,-0.007194571
-0.983,-0.007219094
-0.984,-0.007228291
-0.985,-0.007240553
-0.986,-0.007258946
-0.987,-0.007274273
-0.988,-0.007280404
-0.989,-0.007298797
-0.99,-0.007311059
-0.991,-0.007311059
-0.992,-0.007332517
-0.993,-0.007338648
-0.994,-0.007341714
-0.995,-0.007360106
-0.996,-0.007363172
-0.997,-0.007366238
-0.998,-0.0073785
-0.999,-0.0073785
-1,-0.007384631
-1.001,-0.007393827
-1.002,-0.007396893
-1.003,-0.007393827
-1.004,-0.00741222
-1.005,-0.007403024
-1.006,-0.007406089
-1.007,-0.007418351
-1.008,-0.007406089
-1.009,-0.007421417
-1.01,-0.007418351
-1.011,-0.00741222
-1.012,-0.007421417
-1.013,-0.007418351
-1.014,-0.007415285
-1.015,-0.007421417
-1.016,-0.007415285
-1.017,-0.007415285
-1.018,-0.007418351
-1.019,-0.007409154
-1.02,-0.00741222
-1.021,-0.007415285
-1.022,-0.007409154
-1.023,-0.007409154
-1.024,-0.007415285
-1.025,-0.007399958
-1.026,-0.007406089
-1.027,-0.007403024
-1.028,-0.007393827
-1.029,-0.007396893
-1.03,-0.007396893
-1.031,-0.007387696
-1.032,-0.007393827
-1.033,-0.007387696
-1.034,-0.007381565
-1.035,-0.007384631
-1.036,-0.0073785
-1.037,-0.0073785
-1.038,-0.0073785
-1.039,-0.007372369
-1.04,-0.007375435
-1.041,-0.007375435
-1.042,-0.007366238
-1.043,-0.007372369
-1.044,-0.007366238
-1.045,-0.007360106
-1.046,-0.007366238
-1.047,-0.007360106
-1.048,-0.007353975
-1.049,-0.007360106
-1.05,-0.007353975
-1.051,-0.007347845
-1.052,-0.007347845
-1.053,-0.007341714
-1.054,-0.007341714
-1.055,-0.007341714
-1.056,-0.007332517
-1.057,-0.007329452
-1.058,-0.007329452
-1.059,-0.007320256
-1.06,-0.007320256
-1.061,-0.007314125
-1.062,-0.007301863
-1.063,-0.007301863
-1.064,-0.007295732
-1.065,-0.00728347
-1.066,-0.007280404
-1.067,-0.007274273
-1.068,-0.007258946
-1.069,-0.007252815
-1.07,-0.007246684
-1.071,-0.007228291
-1.072,-0.007219094
-1.073,-0.007209898
-1.074,-0.007191505
-1.075,-0.007176178
-1.076,-0.007170047
-1.077,-0.007142458
-1.078,-0.007130195
-1.079,-0.007117934
-1.08,-0.007090344
-1.081,-0.007081148
-1.082,-0.007056624
-1.083,-0.007041297
-1.084,-0.007022904
-1.085,-0.006995314
-1.086,-0.006979987
-1.087,-0.006961594
-1.088,-0.006930939
-1.089,-0.006909481
-1.09,-0.006891088
-1.091,-0.006857368
-1.092,-0.006838975
-1.093,-0.006823647
-1.094,-0.006780731
-1.095,-0.006771534
-1.096,-0.00674701
-1.097,-0.006710225
-1.098,-0.006694897
-1.099,-0.006667308
-1.1,-0.006633587
-1.101,-0.00661826
-1.102,-0.006587605
-1.103,-0.006560016
-1.104,-0.006538557
-1.105,-0.006507902
-1.106,-0.006480313
-1.107,-0.006458855
-1.108,-0.006425134
-1.109,-0.006403676
-1.11,-0.006379152
-1.111,-0.006348498
-1.112,-0.006323974
-1.113,-0.006302515
-1.114,-0.006271861
-1.115,-0.006247337
-1.116,-0.006219747
-1.117,-0.006192158
-1.118,-0.006179896
-1.119,-0.006146176
-1.12,-0.006118587
-1.121,-0.006103259
-1.122,-0.006069539
-1.123,-0.006051145
-1.124,-0.006032753
-1.125,-0.005999033
-1.126,-0.00598064
-1.127,-0.005962247
-1.128,-0.005922395
-1.129,-0.005913199
-1.13,-0.005891741
-1.131,-0.005858021
-1.132,-0.005845758
-1.133,-0.005821235
-1.134,-0.00579058
-1.135,-0.005778318
-1.136,-0.005753794
-1.137,-0.00572927
-1.138,-0.005710877
-1.139,-0.005686353
-1.14,-0.005667961
-1.141,-0.005646502
-1.142,-0.005618913
-1.143,-0.005603585
-1.144,-0.005582127
-1.145,-0.005554538
-1.146,-0.005542276
-1.147,-0.005520817
-1.148,-0.005496293
-1.149,-0.0054779
-1.15,-0.005462573
-1.151,-0.005434984
-1.152,-0.005419657
-1.153,-0.005404329
-1.154,-0.005373674
-1.155,-0.005358347
-1.156,-0.005339954
-1.157,-0.005312365
-1.158,-0.005300103
-1.159,-0.00528171
-1.16,-0.00525412
-1.161,-0.005238793
-1.162,-0.0052204
-1.163,-0.005192811
-1.164,-0.005177483
-1.165,-0.005159091
-1.166,-0.005128435
-1.167,-0.005119239
-1.168,-0.005094715
-1.169,-0.00506406
-1.17,-0.00505793
-1.171,-0.00503034
-1.172,-0.005008881
-1.173,-0.00499662
-1.174,-0.004969031
-1.175,-0.004944507
-1.176,-0.004932245
-1.177,-0.00490159
-1.178,-0.004883197
-1.179,-0.004870935
-1.18,-0.004846411
-1.181,-0.004821887
-1.182,-0.00480656
-1.183,-0.004782036
-1.184,-0.004763643
-1.185,-0.004751381
-1.186,-0.004723792
-1.187,-0.004705399
-1.188,-0.004693137
-1.189,-0.004665548
-1.19,-0.004647155
-1.191,-0.004634893
-1.192,-0.004613434
-1.193,-0.004595041
-1.194,-0.004582779
-1.195,-0.004561321
-1.196,-0.004542928
-1.197,-0.004533732
-1.198,-0.004512274
-1.199,-0.004496946
-1.2,-0.004484684
-1.201,-0.004463226
-1.202,-0.004447898
-1.203,-0.004438702
-1.204,-0.004423374
-1.205,-0.004404982
-1.206,-0.004395785
-1.207,-0.004380458
-1.208,-0.004371261
-1.209,-0.004362065
-1.21,-0.004340607
-1.211,-0.004328344
-1.212,-0.004322214
-1.213,-0.004306886
-1.214,-0.004294624
-1.215,-0.004285428
-1.216,-0.004270101
-1.217,-0.004257839
-1.218,-0.004251707
-1.219,-0.00423638
-1.22,-0.004227184
-1.221,-0.004217987
-1.222,-0.004205726
-1.223,-0.004196529
-1.224,-0.004190398
-1.225,-0.00417507
-1.226,-0.004165874
-1.227,-0.004159743
-1.228,-0.004147481
-1.229,-0.00414135
-1.23,-0.004138284
-1.231,-0.004119892
-1.232,-0.004122957
-1.233,-0.004113761
-1.234,-0.004098434
-1.235,-0.004098434
-1.236,-0.004089237
-1.237,-0.004076975
-1.238,-0.004073909
-1.239,-0.004064713
-1.24,-0.004055517
-1.241,-0.004058582
-1.242,-0.00404632
-1.243,-0.004034058
-1.244,-0.004034058
-1.245,-0.004024862
-1.246,-0.004018731
-1.247,-0.004015665
-1.248,-0.004009534
-1.249,-0.004000338
-1.25,-0.004000338
-1.251,-0.003994207
-1.252,-0.003985011
-1.253,-0.003985011
-1.254,-0.00397888
-1.255,-0.003969683
-1.256,-0.003969683
-1.257,-0.003963552
-1.258,-0.003957421
-1.259,-0.003957421
-1.26,-0.00395129
-1.261,-0.003945159
-1.262,-0.003942094
-1.263,-0.003939028
-1.264,-0.003932897
-1.265,-0.003932897
-1.266,-0.003926767
-1.267,-0.003923701
-1.268,-0.003923701
-1.269,-0.003914505
-1.27,-0.003911439
-1.271,-0.003914505
-1.272,-0.003905308
-1.273,-0.003902242
-1.274,-0.003905308
-1.275,-0.003902242
-1.276,-0.003893046
-1.277,-0.003899177
-1.278,-0.00388998
-1.279,-0.00388998
-1.28,-0.00388998
-1.281,-0.00388385
-1.282,-0.00388385
-1.283,-0.00388385
-1.284,-0.003874653
-1.285,-0.003877719
-1.286,-0.003880784
-1.287,-0.003874653
-1.288,-0.003874653
-1.289,-0.003874653
-1.29,-0.003868522
-1.291,-0.003868522
-1.292,-0.003874653
-1.293,-0.003868522
-1.294,-0.003865457
-1.295,-0.003871588
-1.296,-0.003865457
-1.297,-0.003862391
-1.298,-0.003868522
-1.299,-0.003862391
-1.3,-0.003865457
-1.301,-0.003868522
-1.302,-0.003865457
-1.303,-0.003865457
-1.304,-0.003862391
-1.305,-0.003865457
-1.306,-0.003868522
-1.307,-0.003868522
-1.308,-0.003868522
-1.309,-0.003871588
-1.31,-0.003868522
-1.311,-0.003871588
-1.312,-0.003874653
-1.313,-0.003874653
-1.314,-0.003877719
-1.315,-0.003880784
-1.316,-0.003877719
-1.317,-0.00388385
-1.318,-0.00388385
-1.319,-0.00388998
-1.32,-0.003886915
-1.321,-0.003893046
-1.322,-0.003896111
-1.323,-0.003896111
-1.324,-0.003902242
-1.325,-0.003905308
-1.326,-0.003905308
-1.327,-0.003914505
-1.328,-0.00391757
-1.329,-0.00391757
-1.33,-0.003926767
-1.331,-0.003929832
-1.332,-0.003932897
-1.333,-0.003942094
-1.334,-0.003945159
-1.335,-0.003945159
-1.336,-0.003957421
-1.337,-0.003963552
-1.338,-0.003966617
-1.339,-0.003975814
-1.34,-0.00397888
-1.341,-0.003988076
-1.342,-0.003997272
-1.343,-0.004000338
-1.344,-0.004009534
-1.345,-0.004021796
-1.346,-0.004024862
-1.347,-0.004037124
-1.348,-0.00404632
-1.349,-0.004055517
-1.35,-0.004064713
-1.351,-0.004076975
-1.352,-0.004086172
-1.353,-0.004095368
-1.354,-0.004113761
-1.355,-0.004119892
-1.356,-0.004135219
-1.357,-0.004147481
-1.358,-0.004156678
-1.359,-0.00417507
-1.36,-0.004190398
-1.361,-0.004199594
-1.362,-0.004217987
-1.363,-0.004239446
-1.364,-0.004248642
-1.365,-0.004270101
-1.366,-0.004291559
-1.367,-0.004300755
-1.368,-0.004328344
-1.369,-0.004349803
-1.37,-0.00436513
-1.371,-0.00439272
-1.372,-0.004411113
-1.373,-0.004429505
-1.374,-0.00446016
-1.375,-0.00448775
-1.376,-0.004509208
-1.377,-0.004539863
-1.378,-0.004570518
-1.379,-0.004595041
-1.38,-0.004634893
-1.381,-0.004668613
-1.382,-0.004696202
-1.383,-0.004739119
-1.384,-0.00477284
-1.385,-0.004815756
-1.386,-0.004858673
-1.387,-0.00490159
-1.388,-0.004947572
-1.389,-0.004999685
-1.39,-0.005048733
-1.391,-0.005103912
-1.392,-0.005162156
-1.393,-0.005214269
-1.394,-0.005284776
-1.395,-0.00534915
-1.396,-0.005416591
-1.397,-0.005496293
-1.398,-0.00557293
-1.399,-0.005649568
-1.4,-0.005744598
-1.401,-0.005830431
-1.402,-0.005928526
-1.403,-0.006032753
-1.404,-0.006140045
-1.405,-0.006253468
-1.406,-0.006376087
-1.407,-0.006501772
-1.408,-0.006630522
-1.409,-0.006774599
-1.41,-0.006918678
-1.411,-0.007078082
-1.412,-0.007243618
-1.413,-0.007406089
-1.414,-0.007593083
-1.415,-0.007783143
-1.416,-0.007973203
-1.417,-0.008184722
-1.418,-0.008399305
-1.419,-0.008616954
-1.42,-0.008852997
-1.421,-0.00909517
-1.422,-0.009340408
-1.423,-0.009610171
-1.424,-0.009876868
-1.425,-0.01015583
-1.426,-0.01045011
-1.427,-0.01075053
-1.428,-0.01105708
-1.429,-0.01137589
-1.43,-0.01170696
-1.431,-0.01203803
-1.432,-0.01239056
-1.433,-0.01274309
-1.434,-0.01309869
-1.435,-0.01348188
-1.436,-0.01385893
-1.437,-0.01423905
-1.438,-0.0146345
-1.439,-0.01503608
-1.44,-0.01544685
-1.441,-0.01586682
-1.442,-0.01627147
-1.443,-0.01669757
-1.444,-0.0171298
-1.445,-0.0175559
-1.446,-0.0180004
-1.447,-0.01844796
-1.448,-0.01888632
-1.449,-0.01934614
-1.45,-0.01980597
-1.451,-0.02025659
-1.452,-0.02073174
-1.453,-0.02120076
-1.454,-0.02167591
-1.455,-0.02216332
-1.456,-0.02263847
-1.457,-0.02311975
-1.458,-0.02362249
-1.459,-0.02411297
-1.46,-0.02460345
-1.461,-0.02509699
-1.462,-0.0255936
-1.463,-0.02607794
-1.464,-0.02658068
-1.465,-0.02707116
-1.466,-0.0275555
-1.467,-0.02807664
-1.468,-0.02857631
-1.469,-0.02906372
-1.47,-0.02958485
-1.471,-0.03008146
-1.472,-0.03068431
-1.473,-0.03117479
-1.474,-0.03169592
-1.475,-0.0321864
-1.476,-0.03273819
-1.477,-0.03325932
-1.478,-0.03378045
-1.479,-0.03430158
-1.48,-0.03482271
-1.481,-0.03534385
-1.482,-0.03586498
-1.483,-0.03638611
-1.484,-0.03690724
-1.485,-0.03742838
-1.486,-0.03794951
-1.487,-0.03843999
-1.488,-0.03896112
-1.489,-0.03948225
-1.49,-0.03997273
-1.491,-0.04052451
-1.492,-0.04104565
-1.493,-0.04153612
-1.494,-0.04205726
-1.495,-0.04257839
-1.496,-0.04306886
-1.497,-0.04358999
-1.498,-0.04408047
-1.499,-0.0446016
-1.5,-0.04484684
-1.499,-0.04469357
-1.498,-0.04447899
-1.497,-0.04429505
-1.496,-0.04411113
-1.495,-0.04386589
-1.494,-0.04365131
-1.493,-0.04343672
-1.492,-0.04319149
-1.491,-0.04294625
-1.49,-0.04270101
-1.489,-0.04245577
-1.488,-0.04224118
-1.487,-0.0420266
-1.486,-0.04175071
-1.485,-0.04150547
-1.484,-0.04126023
-1.483,-0.04098434
-1.482,-0.0407391
-1.481,-0.04049386
-1.48,-0.04024862
-1.479,-0.04000338
-1.478,-0.03972749
-1.477,-0.0394516
-1.476,-0.03920636
-1.475,-0.03896112
-1.474,-0.03865457
-1.473,-0.03840933
-1.472,-0.03816409
-1.471,-0.0378882
-1.47,-0.03767361
-1.469,-0.03739772
-1.468,-0.03712183
-1.467,-0.03684593
-1.466,-0.03660069
-1.465,-0.0363248
-1.464,-0.03611022
-1.463,-0.03583432
-1.462,-0.03558908
-1.461,-0.03531319
-1.46,-0.0350373
-1.459,-0.03479206
-1.458,-0.03457748
-1.457,-0.03430158
-1.456,-0.03402569
-1.455,-0.0337498
-1.454,-0.03344325
-1.453,-0.03319801
-1.452,-0.03295277
-1.451,-0.03264622
-1.45,-0.03240098
-1.449,-0.03212509
-1.448,-0.03187985
-1.447,-0.03163461
-1.446,-0.03135872
-1.445,-0.03108283
-1.444,-0.03083759
-1.443,-0.03056169
-1.442,-0.0302858
-1.441,-0.03004056
-1.44,-0.02976467
-1.439,-0.02951943
-1.438,-0.02924354
-1.437,-0.0289983
-1.436,-0.02875306
-1.435,-0.02847717
-1.434,-0.02820127
-1.433,-0.02795603
-1.432,-0.02768014
-1.431,-0.02740425
-1.43,-0.02715901
-1.429,-0.02688312
-1.428,-0.02663788
-1.427,-0.02639264
-1.426,-0.0261474
-1.425,-0.02587151
-1.424,-0.02565692
-1.423,-0.02538103
-1.422,-0.02510513
-1.421,-0.0248599
-1.42,-0.024584
-1.419,-0.02433877
-1.418,-0.02406287
-1.417,-0.02381763
-1.416,-0.02357239
-1.415,-0.02332716
-1.414,-0.02308192
-1.413,-0.02283668
-1.412,-0.02256078
-1.411,-0.02231555
-1.41,-0.02207031
-1.409,-0.02182507
-1.408,-0.02157983
-1.407,-0.02133459
-1.406,-0.02108935
-1.405,-0.02084411
-1.404,-0.02056822
-1.403,-0.02035364
-1.402,-0.0201084
-1.401,-0.01986316
-1.4,-0.01961792
-1.399,-0.01937268
-1.398,-0.01912744
-1.397,-0.01891286
-1.396,-0.01866762
-1.395,-0.01842238
-1.394,-0.0182078
-1.393,-0.01796256
-1.392,-0.01774798
-1.391,-0.01750274
-1.39,-0.0172575
-1.389,-0.01704292
-1.388,-0.01682833
-1.387,-0.01658309
-1.386,-0.01636851
-1.385,-0.01615393
-1.384,-0.01603236
-1.383,-0.01580858
-1.382,-0.01559093
-1.381,-0.01537634
-1.38,-0.01516176
-1.379,-0.01494718
-1.378,-0.01474179
-1.377,-0.01453027
-1.376,-0.01432488
-1.375,-0.01412256
-1.374,-0.01392331
-1.373,-0.01372098
-1.372,-0.01352173
-1.371,-0.01332554
-1.37,-0.01313241
-1.369,-0.01294235
-1.368,-0.01275229
-1.367,-0.01255917
-1.366,-0.01237524
-1.365,-0.0122005
-1.364,-0.01201351
-1.363,-0.01183265
-1.362,-0.01166098
-1.361,-0.01148012
-1.36,-0.01130232
-1.359,-0.01113065
-1.358,-0.01095592
-1.357,-0.01078425
-1.356,-0.01062791
-1.355,-0.01045931
-1.354,-0.01029991
-1.353,-0.01014663
-1.352,-0.009987226
-1.351,-0.009837016
-1.35,-0.009686808
-1.349,-0.0095366
-1.348,-0.009389456
-1.347,-0.009254575
-1.346,-0.009107431
-1.345,-0.00896642
-1.344,-0.008831538
-1.343,-0.008690527
-1.342,-0.008558711
-1.341,-0.008433026
-1.34,-0.008298145
-1.339,-0.008175525
-1.338,-0.008055971
-1.337,-0.007930286
-1.336,-0.007816863
-1.335,-0.007700375
-1.334,-0.007586952
-1.333,-0.007473529
-1.332,-0.007372369
-1.331,-0.007258946
-1.33,-0.007151654
-1.329,-0.007053559
-1.328,-0.006952398
-1.327,-0.006854302
-1.326,-0.006762337
-1.325,-0.006667308
-1.324,-0.006578409
-1.323,-0.00648951
-1.322,-0.006400611
-1.321,-0.006320909
-1.32,-0.006235075
-1.319,-0.006155372
-1.318,-0.006078735
-1.317,-0.006002098
-1.316,-0.005922395
-1.315,-0.005854954
-1.314,-0.005781383
-1.313,-0.005713942
-1.312,-0.005649568
-1.311,-0.005579061
-1.31,-0.005517752
-1.309,-0.005459507
-1.308,-0.005392067
-1.307,-0.005336888
-1.306,-0.00528171
-1.305,-0.0052204
-1.304,-0.005171353
-1.303,-0.005116174
-1.302,-0.005060995
-1.301,-0.005015012
-1.3,-0.004965965
-1.299,-0.004913852
-1.298,-0.004874
-1.297,-0.004824953
-1.296,-0.00477897
-1.295,-0.004739119
-1.294,-0.004696202
-1.293,-0.004653286
-1.292,-0.0046165
-1.291,-0.004576649
-1.29,-0.004536797
-1.289,-0.004503077
-1.288,-0.004466291
-1.287,-0.004429505
-1.286,-0.004401916
-1.285,-0.00436513
-1.284,-0.00433141
-1.283,-0.00430382
-1.282,-0.004267035
-1.281,-0.004239446
-1.28,-0.004208791
-1.279,-0.004178136
-1.278,-0.004153612
-1.277,-0.004129088
-1.276,-0.004095368
-1.275,-0.004070844
-1.274,-0.00404632
-1.273,-0.004018731
-1.272,-0.003991141
-1.271,-0.003969683
-1.27,-0.003945159
-1.269,-0.003923701
-1.268,-0.003899177
-1.267,-0.003877719
-1.266,-0.003859326
-1.265,-0.003831736
-1.264,-0.003816409
-1.263,-0.003794951
-1.262,-0.003770427
-1.261,-0.003752034
-1.26,-0.003733641
-1.259,-0.003712183
-1.258,-0.00369379
-1.257,-0.003675397
-1.256,-0.003653938
-1.255,-0.003635545
-1.254,-0.003620218
-1.253,-0.00359876
-1.252,-0.003583432
-1.251,-0.00357117
-1.25,-0.003549712
-1.249,-0.00353745
-1.248,-0.003519057
-1.247,-0.003500664
-1.246,-0.003488402
-1.245,-0.003473075
-1.244,-0.003451617
-1.243,-0.00344242
-1.242,-0.003427093
-1.241,-0.0034087
-1.24,-0.003396438
-1.239,-0.00338111
-1.238,-0.003365783
-1.237,-0.003353521
-1.236,-0.003335128
-1.235,-0.003322866
-1.234,-0.003310604
-1.233,-0.003292212
-1.232,-0.00327995
-1.231,-0.003267688
-1.23,-0.00325236
-1.229,-0.003240098
-1.228,-0.003227836
-1.227,-0.003212509
-1.226,-0.003197182
-1.225,-0.003187985
-1.224,-0.003172658
-1.223,-0.003160396
-1.222,-0.003151199
-1.221,-0.003132806
-1.22,-0.003120545
-1.219,-0.003111348
-1.218,-0.003096021
-1.217,-0.003083759
-1.216,-0.003074562
-1.215,-0.0030623
-1.214,-0.003046973
-1.213,-0.003037777
-1.212,-0.003022449
-1.211,-0.003013253
-1.21,-0.003000991
-1.209,-0.002985663
-1.208,-0.002976467
-1.207,-0.002964205
-1.206,-0.002951943
-1.205,-0.002942747
-1.204,-0.002927419
-1.203,-0.002915157
-1.202,-0.002909026
-1.201,-0.002896764
-1.2,-0.002884502
-1.199,-0.002875306
-1.198,-0.002859978
-1.197,-0.002853847
-1.196,-0.002844651
-1.195,-0.002829324
-1.194,-0.002820127
-1.193,-0.002810931
-1.192,-0.002798669
-1.191,-0.002789472
-1.19,-0.00277721
-1.189,-0.002768014
-1.188,-0.002755752
-1.187,-0.002746556
-1.186,-0.002737359
-1.185,-0.002725097
-1.184,-0.002715901
-1.183,-0.002706704
-1.182,-0.002697508
-1.181,-0.002688312
-1.18,-0.002676049
-1.179,-0.002666853
-1.178,-0.002657657
-1.177,-0.002645395
-1.176,-0.002636198
-1.175,-0.002630068
-1.174,-0.002617805
-1.173,-0.002605543
-1.172,-0.002602478
-1.171,-0.002590216
-1.17,-0.002577954
-1.169,-0.002574889
-1.168,-0.002559561
-1.167,-0.00255343
-1.166,-0.002547299
-1.165,-0.002535037
-1.164,-0.002525841
-1.163,-0.002516645
-1.162,-0.002507448
-1.161,-0.002501317
-1.16,-0.00249212
-1.159,-0.002482924
-1.158,-0.002473728
-1.157,-0.002464531
-1.156,-0.002455335
-1.155,-0.002449204
-1.154,-0.002440007
-1.153,-0.002430811
-1.152,-0.00242468
-1.151,-0.002412418
-1.15,-0.002406287
-1.149,-0.002400156
-1.148,-0.002387894
-1.147,-0.002384829
-1.146,-0.002375632
-1.145,-0.002366436
-1.144,-0.002357239
-1.143,-0.002351108
-1.142,-0.002341912
-1.141,-0.002335781
-1.14,-0.002326585
-1.139,-0.002317388
-1.138,-0.002311257
-1.137,-0.002305126
-1.136,-0.00229593
-1.135,-0.002289799
-1.134,-0.002280602
-1.133,-0.002274471
-1.132,-0.00226834
-1.131,-0.002256078
-1.13,-0.002249948
-1.129,-0.002243817
-1.128,-0.002231555
-1.127,-0.002228489
-1.126,-0.002222358
-1.125,-0.002210096
-1.124,-0.002207031
-1.123,-0.0022009
-1.122,-0.002188638
-1.121,-0.002185572
-1.12,-0.002179441
-1.119,-0.002167179
-1.118,-0.002164114
-1.117,-0.002154917
-1.116,-0.002145721
-1.115,-0.00213959
-1.114,-0.002130394
-1.113,-0.002121197
-1.112,-0.002115066
-1.111,-0.00210587
-1.11,-0.002099739
-1.109,-0.002093608
-1.108,-0.002081346
-1.107,-0.002075215
-1.106,-0.002069084
-1.105,-0.002056822
-1.104,-0.002050691
-1.103,-0.00204456
-1.102,-0.002032298
-1.101,-0.002026167
-1.1,-0.002016971
-1.099,-0.002004709
-1.098,-0.001998578
-1.097,-0.001989381
-1.096,-0.00197712
-1.095,-0.001970988
-1.094,-0.001958727
-1.093,-0.00194953
-1.092,-0.001940334
-1.091,-0.001931137
-1.09,-0.001918875
-1.089,-0.001909679
-1.088,-0.001900482
-1.087,-0.00188822
-1.086,-0.001879024
-1.085,-0.001869828
-1.084,-0.0018545
-1.083,-0.001845304
-1.082,-0.001833042
-1.081,-0.00182078
-1.08,-0.001811583
-1.079,-0.001799321
-1.078,-0.00178706
-1.077,-0.001777863
-1.076,-0.001765601
-1.075,-0.001753339
-1.074,-0.001744143
-1.073,-0.001731881
-1.072,-0.001716554
-1.071,-0.001710422
-1.07,-0.001698161
-1.069,-0.001685899
-1.068,-0.001676702
-1.067,-0.00166444
-1.066,-0.001652178
-1.065,-0.001642982
-1.064,-0.00163072
-1.063,-0.001624589
-1.062,-0.001612327
-1.061,-0.00163481
-1.06,-0.001625307
-1.059,-0.001617337
-1.058,-0.001606301
-1.057,-0.001596492
-1.056,-0.001587908
-1.055,-0.001576873
-1.054,-0.001566757
-1.053,-0.001559706
-1.052,-0.001548057
-1.051,-0.0015407
-1.05,-0.001532117
-1.049,-0.001521387
-1.048,-0.001512498
-1.047,-0.001504834
-1.046,-0.001495331
-1.045,-0.001486441
-1.044,-0.001479697
-1.043,-0.001469274
-1.042,-0.001460997
-1.041,-0.001453947
-1.04,-0.001444444
-1.039,-0.00143678
-1.038,-0.001430343
-1.037,-0.001420533
-1.036,-0.001412256
-1.035,-0.001405206
-1.034,-0.001397235
-1.033,-0.001388652
-1.032,-0.001382828
-1.031,-0.001373938
-1.03,-0.001366274
-1.029,-0.001361982
-1.028,-0.001350027
-1.027,-0.001345429
-1.026,-0.001339604
-1.025,-0.001329795
-1.024,-0.00132397
-1.023,-0.001317226
-1.022,-0.001307417
-1.021,-0.001300979
-1.02,-0.001296994
-1.019,-0.001288104
-1.018,-0.00128228
-1.017,-0.001275536
-1.016,-0.001266952
-1.015,-0.001260515
-1.014,-0.00125561
-1.013,-0.001247333
-1.012,-0.001241815
-1.011,-0.001234458
-1.01,-0.00122894
-1.009,-0.001221583
-1.008,-0.001214533
-1.007,-0.001208708
-1.006,-0.001202577
-1.005,-0.00119522
-1.004,-0.001189396
-1.003,-0.001181732
-1.002,-0.001174068
-1.001,-0.001171309
-1,-0.001162419
-0.9990003,-0.001155062
-0.9980002,-0.001150771
-0.9970002,-0.001143413
-0.9960002,-0.001135443
-0.9950002,-0.001131765
-0.9940003,-0.001123794
-0.9930002,-0.001116744
-0.9920002,-0.001112145
-0.9910002,-0.001106321
-0.9900002,-0.001097431
-0.9890002,-0.00109314
-0.9880002,-0.001085476
-0.9870002,-0.001077199
-0.9860002,-0.001074747
-0.9850003,-0.00106647
-0.9840002,-0.001060032
-0.9830002,-0.001056047
-0.9820002,-0.001046851
-0.9810002,-0.001042253
-0.9800002,-0.001036428
-0.9790002,-0.001028458
-0.9780002,-0.001023553
-0.9770002,-0.001018035
-0.9760002,-0.001009145
-0.9750002,-0.00100424
-0.9740002,-0.0009978029
-0.9730002,-0.0009907524
-0.9720002,-0.0009843148
-0.9710003,-0.000978797
-0.9700002,-0.0009708267
-0.9690002,-0.0009668416
-0.9680002,-0.0009604041
-0.9670002,-0.0009512077
-0.9660002,-0.0009481421
-0.9650002,-0.0009404784
-0.9640002,-0.0009325081
-0.9630002,-0.0009285231
-0.9620003,-0.0009202462
-0.9610002,-0.0009138088
-0.9600002,-0.0009092105
-0.9590002,-0.0009012403
-0.9580002,-0.0008938831
-0.9570003,-0.0008905111
-0.9560002,-0.0008813146
-0.9550002,-0.0008761032
-0.9540002,-0.0008711985
-0.9530002,-0.0008629217
-0.9520002,-0.000858017
-0.9510002,-0.0008515794
-0.9500002,-0.0008445288
-0.9490002,-0.0008399306
-0.9480003,-0.00083288
-0.9470002,-0.0008264424
-0.9460002,-0.0008209246
-0.9450002,-0.0008144871
-0.9440002,-0.0008086627
-0.9430002,-0.0008028382
-0.9420002,-0.0007964008
-0.9410002,-0.0007890436
-0.9400002,-0.0007847519
-0.9390002,-0.0007786209
-0.9380002,-0.0007721835
-0.9370002,-0.0007675852
-0.9360002,-0.0007602281
-0.9350002,-0.0007547102
-0.9340003,-0.0007498054
-0.9330002,-0.0007436744
-0.9320002,-0.0007375435
-0.9310002,-0.0007329452
-0.9300002,-0.0007265077
-0.9290002,-0.000722216
-0.9280002,-0.000718231
-0.9270002,-0.0007096475
-0.9260002,-0.0007071952
-0.9250003,-0.0007013708
-0.9240002,-0.0006940136
-0.9230002,-0.0006909482
-0.9220002,-0.0006854302
-0.9210002,-0.0006789928
-0.9200003,-0.0006753142
-0.9190002,-0.0006701029
-0.9180002,-0.0006648915
-0.9170002,-0.000661213
-0.9160002,-0.0006553886
-0.9150002,-0.0006507903
-0.9140002,-0.0006471117
-0.9130002,-0.0006415938
-0.9120002,-0.0006369957
-0.9110003,-0.0006323974
-0.9100002,-0.0006277992
-0.9090002,-0.000623201
-0.9080002,-0.0006189093
-0.9070002,-0.0006143111
-0.9060002,-0.0006087932
-0.9050002,-0.000604808
-0.9040002,-0.0005995968
-0.9030002,-0.0005962247
-0.9020002,-0.0005916265
-0.9010002,-0.0005861087
-0.9000002,-0.0005812038
-0.8990002,-0.0005781384
-0.8980002,-0.0005723139
-0.8970003,-0.0005674092
-0.8960002,-0.0005640372
-0.8950002,-0.0005594389
-0.8940002,-0.0005542276
-0.8930002,-0.000550549
-0.8920002,-0.0005431919
-0.8910002,-0.0005395133
-0.8900002,-0.0005349151
-0.8890002,-0.0005290906
-0.8880002,-0.000525412
-0.8870002,-0.0005208139
-0.8860002,-0.0005159091
-0.8850002,-0.0005119239
-0.8840002,-0.0005060995
-0.8830003,-0.0005011947
-0.8820002,-0.0004972096
-0.8810002,-0.0004923049
-0.8800002,-0.0004874001
-0.8790002,-0.0004828018
-0.8780002,-0.0004775905
-0.8770002,-0.0004723792
-0.8760002,-0.0004680876
-0.8750002,-0.0004631828
-0.8740003,-0.0004576649
-0.8730002,-0.0004533732
-0.8720002,-0.000448775
-0.8710002,-0.0004423375
-0.8700002,-0.0004389654
-0.8690003,-0.0004334476
-0.8680002,-0.0004282363
-0.8670002,-0.0004242511
-0.8660002,-0.0004181202
-0.8650002,-0.0004132154
-0.8640002,-0.0004089237
-0.8630002,-0.0004027928
-0.8620002,-0.000397888
-0.8610002,-0.0003939029
-0.8600003,-0.0003874653
-0.8590002,-0.0003819475
-0.8580002,-0.0003782689
-0.8570002,-0.0003718314
-0.8560002,-0.0003669266
-0.8550002,-0.0003629415
-0.8540002,-0.0003558909
-0.8530002,-0.0003515992
-0.8520002,-0.0003463879
-0.8510002,-0.0003402569
-0.8500002,-0.0003362718
-0.8490002,-0.0003304474
-0.8480002,-0.0003243164
-0.8470002,-0.0003197182
-0.8460003,-0.0003142003
-0.8450002,-0.0003083759
-0.8440002,-0.0003025515
-0.8430002,-0.0002979533
-0.8420002,-0.0002915157
-0.8410002,-0.0002859978
-0.8400002,-0.0002817062
-0.8390002,-0.0002749621
-0.8380002,-0.0002691377
-0.8370003,-0.0002642329
-0.8360002,-0.0002571823
-0.8350002,-0.000251971
-0.8340002,-0.0002473728
-0.8330002,-0.0002400156
-0.8320003,-0.0002344978
-0.8310002,-0.0002292864
-0.8300002,-0.0002228489
-0.8290002,-0.0002167179
-0.8280002,-0.0002112001
-0.8270002,-0.0002053757
-0.8260002,-0.0001989382
-0.8250002,-0.0001940334
-0.8240002,-0.0001872893
-0.8230003,-0.0001811584
-0.8220002,-0.0001756405
-0.8210002,-0.0001695095
-0.8200002,-0.000163072
-0.8190002,-0.0001563279
-0.8180002,-0.0001505035
-0.8170002,-0.0001471113
-0.8160002,-0.0001416548
-0.8150002,-0.0001355238
-0.8140002,-0.0001283812
-0.8130002,-0.0001230473
-0.8120002,-0.0001168244
-0.8110002,-0.0001100803
-0.8100002,-0.0001050223
-0.8090003,-9.784904E-05
-0.8080002,-9.190199E-05
-0.8070002,-8.711984E-05
-0.8060002,-8.009989E-05
-0.8050002,-7.418351E-05
-0.8040002,-6.817516E-05
-0.8030002,-6.112456E-05
-0.8020002,-5.548407E-05
-0.8010002,-5.03034E-05
-0.8000003,-7.522578E-05
-0.8009998,-0.0001143107
-0.8019998,-0.0001444444
-0.8029998,-0.0001690909
-0.8039998,-0.0001928177
-0.8049998,-0.0002151344
-0.8059998,-0.00023506
-0.8069998,-0.0002540354
-0.8079998,-0.000273256
-0.8089998,-0.0002898709
-0.8099998,-0.0003031646
-0.8109998,-0.0003194116
-0.8119998,-0.000334739
-0.8129998,-0.0003497599
-0.8139998,-0.0003647808
-0.8149998,-0.0003773492
-0.8159998,-0.0003926767
-0.8169998,-0.0004052451
-0.8179998,-0.0004172005
-0.8189998,-0.0004313017
-0.8199998,-0.0004438702
-0.8209998,-0.000454906
-0.8219998,-0.0004671679
-0.8229998,-0.0004778971
-0.8239998,-0.0004883197
-0.8249998,-0.0005005816
-0.8259998,-0.0005110043
-0.8269998,-0.000521427
-0.8279998,-0.0005321561
-0.8289998,-0.0005419657
-0.8299998,-0.0005514687
-0.8309998,-0.0005625045
-0.8319998,-0.0005710878
-0.8329998,-0.0005812038
-0.8339998,-0.0005910134
-0.8349998,-0.0006002099
-0.8359998,-0.0006087932
-0.8369998,-0.0006186027
-0.8379998,-0.0006271861
-0.8389998,-0.0006354629
-0.8399998,-0.0006446594
-0.8409998,-0.0006532427
-0.8419998,-0.0006615195
-0.8429998,-0.0006704094
-0.8439998,-0.0006783796
-0.8449998,-0.0006863499
-0.8459998,-0.0006946267
-0.8469998,-0.000702597
-0.8479998,-0.0007096475
-0.8489998,-0.000718844
-0.8499998,-0.0007262012
-0.8509998,-0.0007335583
-0.8519998,-0.0007424483
-0.8529998,-0.0007488858
-0.8539998,-0.0007562429
-0.8549998,-0.0007648263
-0.8559998,-0.0007703441
-0.8569998,-0.0007783144
-0.8579998,-0.0007868978
-0.8589998,-0.0007924156
-0.8599998,-0.000801612
-0.8609998,-0.0008086627
-0.8619998,-0.0008141805
-0.8629998,-0.0008227639
-0.8639998,-0.0008295079
-0.8649998,-0.000836252
-0.8659998,-0.0008442223
-0.8669998,-0.0008500467
-0.8679998,-0.0008577104
-0.8689998,-0.0008650676
-0.8699998,-0.0008721182
-0.8709998,-0.0008776361
-0.8719998,-0.0008849932
-0.8729998,-0.0008911242
-0.8739998,-0.0008972551
-0.8749998,-0.0009058384
-0.8759998,-0.0009107432
-0.8769998,-0.0009181004
-0.8779998,-0.0009257642
-0.8789998,-0.0009309754
-0.8799998,-0.0009380261
-0.8809998,-0.0009450766
-0.8819998,-0.0009505945
-0.8829998,-0.0009579517
-0.8839998,-0.0009646958
-0.8849998,-0.0009699071
-0.8859998,-0.0009766511
-0.8869998,-0.0009840083
-0.8879998,-0.000988913
-0.8889998,-0.0009965767
-0.8899998,-0.001002095
-0.8909998,-0.001007613
-0.8919998,-0.001015276
-0.8929998,-0.001020794
-0.8939998,-0.001026619
-0.8949998,-0.001033669
-0.8959998,-0.001041026
-0.8969998,-0.001046238
-0.8979998,-0.001052062
-0.8989998,-0.001058193
-0.8999998,-0.001064937
-0.9009998,-0.001070761
-0.9019998,-0.001076586
-0.9029998,-0.001083637
-0.9039998,-0.001088541
-0.9049998,-0.001094672
-0.9059998,-0.00110111
-0.9069998,-0.001107547
-0.9079998,-0.001112145
-0.9089998,-0.001120116
-0.9099998,-0.001124408
-0.9109998,-0.001130232
-0.9119998,-0.001138202
-0.9129998,-0.001143413
-0.9139998,-0.001148318
-0.9149998,-0.001155675
-0.9159998,-0.001161193
-0.9169998,-0.001166711
-0.9179998,-0.001174068
-0.9189998,-0.001178973
-0.9199998,-0.001184184
-0.9209998,-0.001191541
-0.9219998,-0.001197059
-0.9229998,-0.001201964
-0.9239998,-0.001209934
-0.9249998,-0.001214226
-0.9259998,-0.001219131
-0.9269998,-0.001227714
-0.9279998,-0.001230473
-0.9289998,-0.00123783
-0.9299998,-0.001245187
-0.9309998,-0.001249173
-0.9319998,-0.00125561
-0.9329998,-0.001261741
-0.9339998,-0.001266646
-0.9349998,-0.001273083
-0.9359998,-0.001280134
-0.9369998,-0.001284732
-0.9379998,-0.001290557
-0.9389998,-0.001297301
-0.9399998,-0.001302205
-0.9409998,-0.001308643
-0.9419998,-0.001316
-0.9429998,-0.001318453
-0.9439998,-0.001328262
-0.9449998,-0.001333167
-0.9459998,-0.001337765
-0.9469998,-0.001345429
-0.9479998,-0.001351253
-0.9489998,-0.001356158
-0.9499998,-0.001363209
-0.9509998,-0.001368726
-0.9519998,-0.001374244
-0.9529998,-0.001380682
-0.9539998,-0.001385893
-0.9549998,-0.001391717
-0.9559998,-0.001398768
-0.9569998,-0.001403673
-0.9579998,-0.001410724
-0.9589998,-0.001416855
-0.9599998,-0.001421453
-0.9609998,-0.001429116
-0.9619998,-0.00143586
-0.9629998,-0.001440152
-0.9639998,-0.001447816
-0.9649998,-0.001454253
-0.9659998,-0.001457319
-0.9669998,-0.001466515
-0.9679998,-0.001471114
-0.9689998,-0.001475405
-0.9699998,-0.001483989
-0.9709998,-0.001489506
-0.9719998,-0.001494718
-0.9729998,-0.001503608
-0.9739998,-0.001507593
-0.9749998,-0.001514337
-0.9759998,-0.001521387
-0.9769998,-0.001526599
-0.9779998,-0.001533036
-0.9789998,-0.0015407
-0.9799998,-0.001544379
-0.9809998,-0.001551123
-0.9819998,-0.001559093
-0.9829998,-0.001563078
-0.9839998,-0.001569209
-0.9849998,-0.001578405
-0.9859998,-0.001581778
-0.9869998,-0.001587602
-0.9879998,-0.001597105
-0.9889998,-0.001599864
-0.9899998,-0.001606608
-0.9909998,-0.001615804
-0.9919998,-0.00161887
-0.9929998,-0.001625001
-0.9939998,-0.001632971
-0.9949998,-0.001637876
-0.9959998,-0.001646459
-0.9969998,-0.001653203
-0.9979998,-0.001655656
-0.9989998,-0.001666078
-0.9999998,-0.001669757
-1.001,-0.001675581
-1.002,-0.001682938
-1.003,-0.001688763
-1.004,-0.001692748
-1.005,-0.001702251
-1.006,-0.00170593
-1.007,-0.001712367
-1.008,-0.001719418
-1.009,-0.001725242
-1.01,-0.001730147
-1.011,-0.00173873
-1.012,-0.001743635
-1.013,-0.001748233
-1.014,-0.001756203
-1.015,-0.001762334
-1.016,-0.00176632
-1.017,-0.001775822
-1.018,-0.001779195
-1.019,-0.001785019
-1.02,-0.00179207
-1.021,-0.001797587
-1.022,-0.001802492
-1.023,-0.001809543
-1.024,-0.001816593
-1.025,-0.001819352
-1.026,-0.001827936
-1.027,-0.001832227
-1.028,-0.001836519
-1.029,-0.001844489
-1.03,-0.001848781
-1.031,-0.001853379
-1.032,-0.00186135
-1.033,-0.001865641
-1.034,-0.001870546
-1.035,-0.00187729
-1.036,-0.001883421
-1.037,-0.001887406
-1.038,-0.001894763
-1.039,-0.001898442
-1.04,-0.001903653
-1.041,-0.001910704
-1.042,-0.001914382
-1.043,-0.0019199
-1.044,-0.001926951
-1.045,-0.001930323
-1.046,-0.001936147
-1.047,-0.001941359
-1.048,-0.001945037
-1.049,-0.001951781
-1.05,-0.001957912
-1.051,-0.001959751
-1.052,-0.001968335
-1.053,-0.001972626
-1.054,-0.001975999
-1.055,-0.001983049
-1.056,-0.001991019
-1.057,-0.001993778
-1.058,-0.00199899
-1.059,-0.002004814
-1.06,-0.002009106
-1.061,-0.002014623
-1.062,-0.002020142
-1.063,-0.002025659
-1.064,-0.002030258
-1.065,-0.002037615
-1.066,-0.002040987
-1.067,-0.002047424
-1.068,-0.002054168
-1.069,-0.002059686
-1.07,-0.002065204
-1.071,-0.002073174
-1.072,-0.002078079
-1.073,-0.002085436
-1.074,-0.002092793
-1.075,-0.002096778
-1.076,-0.002105055
-1.077,-0.002112412
-1.078,-0.002117011
-1.079,-0.002127433
-1.08,-0.002133871
-1.081,-0.002138776
-1.082,-0.002148585
-1.083,-0.002153183
-1.084,-0.002162993
-1.085,-0.002174029
-1.086,-0.002177401
-1.087,-0.00218813
-1.088,-0.002197326
-1.089,-0.002201924
-1.09,-0.002213267
-1.091,-0.002222463
-1.092,-0.002227368
-1.093,-0.00223963
-1.094,-0.002249439
-1.095,-0.002254344
-1.096,-0.002265993
-1.097,-0.002276109
-1.098,-0.002280401
-1.099,-0.002292663
-1.1,-0.002303086
-1.101,-0.002308297
-1.102,-0.002320865
-1.103,-0.002331594
-1.104,-0.002334047
-1.105,-0.002348455
-1.106,-0.002358571
-1.107,-0.002362556
-1.108,-0.002376044
-1.109,-0.002383401
-1.11,-0.002389532
-1.111,-0.002401794
-1.112,-0.002409764
-1.113,-0.002416508
-1.114,-0.002429383
-1.115,-0.002434595
-1.116,-0.002444098
-1.117,-0.002453907
-1.118,-0.002461264
-1.119,-0.002470767
-1.12,-0.002480577
-1.121,-0.002487628
-1.122,-0.002493452
-1.123,-0.002503568
-1.124,-0.002508166
-1.125,-0.002517056
-1.126,-0.002525946
-1.127,-0.002530238
-1.128,-0.002536675
-1.129,-0.002544952
-1.13,-0.002547711
-1.131,-0.002553535
-1.132,-0.002561506
-1.133,-0.002565184
-1.134,-0.002570702
-1.135,-0.002577446
-1.136,-0.002578059
-1.137,-0.002586029
-1.138,-0.002590015
-1.139,-0.002591547
-1.14,-0.002600437
-1.141,-0.002605035
-1.142,-0.002606568
-1.143,-0.002615151
-1.144,-0.002616684
-1.145,-0.002620056
-1.146,-0.002629559
-1.147,-0.002632318
-1.148,-0.002634158
-1.149,-0.002643967
-1.15,-0.002646113
-1.151,-0.002647033
-1.152,-0.002655922
-1.153,-0.002658068
-1.154,-0.002662054
-1.155,-0.002671863
-1.156,-0.002674315
-1.157,-0.002675848
-1.158,-0.002685964
-1.159,-0.00268811
-1.16,-0.002693628
-1.161,-0.002701292
-1.162,-0.002703437
-1.163,-0.002709262
-1.164,-0.002716006
-1.165,-0.002716925
-1.166,-0.002725202
-1.167,-0.002732253
-1.168,-0.002733786
-1.169,-0.002740836
-1.17,-0.002747274
-1.171,-0.0027485
-1.172,-0.002759842
-1.173,-0.002765667
-1.174,-0.00276536
-1.175,-0.002778542
-1.176,-0.002783753
-1.177,-0.002784366
-1.178,-0.002796321
-1.179,-0.002801226
-1.18,-0.002803372
-1.181,-0.002815021
-1.182,-0.002820845
-1.183,-0.002824218
-1.184,-0.002834027
-1.185,-0.002839851
-1.186,-0.002845369
-1.187,-0.002853953
-1.188,-0.002860697
-1.189,-0.00286836
-1.19,-0.002875411
-1.191,-0.002880622
-1.192,-0.002889819
-1.193,-0.00289687
-1.194,-0.002902387
-1.195,-0.00291189
-1.196,-0.002920474
-1.197,-0.002924765
-1.198,-0.002935188
-1.199,-0.002945917
-1.2,-0.002945917
-1.201,-0.002960632
-1.202,-0.002967069
-1.203,-0.002968908
-1.204,-0.002982396
-1.205,-0.002990673
-1.206,-0.002995271
-1.207,-0.00300784
-1.208,-0.002982598
-1.209,-0.002985663
-1.21,-0.00299486
-1.211,-0.003004056
-1.212,-0.003010187
-1.213,-0.003019383
-1.214,-0.003031645
-1.215,-0.003037777
-1.216,-0.003046973
-1.217,-0.003056169
-1.218,-0.003065366
-1.219,-0.003071497
-1.22,-0.003086824
-1.221,-0.003089889
-1.222,-0.003102152
-1.223,-0.003111348
-1.224,-0.003120545
-1.225,-0.003132806
-1.226,-0.003142003
-1.227,-0.003151199
-1.228,-0.003166527
-1.229,-0.003172658
-1.23,-0.003184919
-1.231,-0.003197182
-1.232,-0.003206378
-1.233,-0.00321864
-1.234,-0.003233967
-1.235,-0.003240098
-1.236,-0.003255426
-1.237,-0.003267688
-1.238,-0.003276884
-1.239,-0.003289146
-1.24,-0.003304473
-1.241,-0.00331367
-1.242,-0.003332063
-1.243,-0.003344325
-1.244,-0.003356587
-1.245,-0.003371914
-1.246,-0.003387242
-1.247,-0.003396438
-1.248,-0.003414831
-1.249,-0.003430158
-1.25,-0.003445486
-1.251,-0.003460813
-1.252,-0.003479206
-1.253,-0.003491468
-1.254,-0.003509861
-1.255,-0.003531319
-1.256,-0.003543581
-1.257,-0.003568105
-1.258,-0.003586498
-1.259,-0.003601825
-1.26,-0.003620218
-1.261,-0.003644742
-1.262,-0.003663135
-1.263,-0.003687659
-1.264,-0.003712183
-1.265,-0.003733641
-1.266,-0.003755099
-1.267,-0.003782689
-1.268,-0.003807213
-1.269,-0.003834802
-1.27,-0.003862391
-1.271,-0.00388998
-1.272,-0.003914505
-1.273,-0.003945159
-1.274,-0.003975814
-1.275,-0.004009534
-1.276,-0.004043255
-1.277,-0.004073909
-1.278,-0.004113761
-1.279,-0.004147481
-1.28,-0.004187332
-1.281,-0.004227184
-1.282,-0.004267035
-1.283,-0.004309952
-1.284,-0.004352869
-1.285,-0.004395785
-1.286,-0.004444833
-1.287,-0.004493881
-1.288,-0.004542928
-1.289,-0.004601172
-1.29,-0.004653286
-1.291,-0.004714595
-1.292,-0.004775905
-1.293,-0.004834149
-1.294,-0.00490159
-1.295,-0.004972096
-1.296,-0.005039536
-1.297,-0.005110043
-1.298,-0.005189745
-1.299,-0.005266382
-1.3,-0.005352216
-1.301,-0.005438049
-1.302,-0.005523883
-1.303,-0.005621978
-1.304,-0.005720073
-1.305,-0.005815104
-1.306,-0.005925461
-1.307,-0.006029687
-1.308,-0.006140045
-1.309,-0.006262664
-1.31,-0.006388349
-1.311,-0.006507902
-1.312,-0.006642784
-1.313,-0.006783796
-1.314,-0.006918678
-1.315,-0.007068886
-1.316,-0.00722216
-1.317,-0.007375435
-1.318,-0.007544036
-1.319,-0.007709572
-1.32,-0.007884304
-1.321,-0.008065168
-1.322,-0.008249097
-1.323,-0.008439157
-1.324,-0.008641479
-1.325,-0.008840735
-1.326,-0.009049187
-1.327,-0.009266837
-1.328,-0.009487552
-1.329,-0.009717463
-1.33,-0.009950439
-1.331,-0.01018955
-1.332,-0.01043785
-1.333,-0.01068616
-1.334,-0.01094059
-1.335,-0.01119809
-1.336,-0.01146172
-1.337,-0.01173455
-1.338,-0.01201044
-1.339,-0.01229247
-1.34,-0.01257143
-1.341,-0.01285958
-1.342,-0.01315693
-1.343,-0.01345429
-1.344,-0.01377003
-1.345,-0.01407658
-1.346,-0.01438926
-1.347,-0.01470194
-1.348,-0.01502075
-1.349,-0.01533036
-1.35,-0.01566143
-1.351,-0.01599251
-1.352,-0.01632358
-1.353,-0.01666385
-1.354,-0.01700718
-1.355,-0.01735052
-1.356,-0.01770305
-1.357,-0.01804638
-1.358,-0.01839278
-1.359,-0.01875144
-1.36,-0.0191101
-1.361,-0.01946876
-1.362,-0.01983049
-1.363,-0.02018609
-1.364,-0.02055088
-1.365,-0.02092487
-1.366,-0.02129886
-1.367,-0.02166671
-1.368,-0.02204683
-1.369,-0.02242695
-1.37,-0.02280094
-1.371,-0.02318106
-1.372,-0.02355812
-1.373,-0.02393823
-1.374,-0.02432449
-1.375,-0.02470154
-1.376,-0.02509086
-1.377,-0.0254863
-1.378,-0.02586949
-1.379,-0.026268
-1.38,-0.02667571
-1.381,-0.0270497
-1.382,-0.02744821
-1.383,-0.02784673
-1.384,-0.02823911
-1.385,-0.02863762
-1.386,-0.02903613
-1.387,-0.02943465
-1.388,-0.02984235
-1.389,-0.03025313
-1.39,-0.03077628
-1.391,-0.03114414
-1.392,-0.03157331
-1.393,-0.03197182
-1.394,-0.03237033
-1.395,-0.0327995
-1.396,-0.03319801
-1.397,-0.03362718
-1.398,-0.03402569
-1.399,-0.0344242
-1.4,-0.03485337
-1.401,-0.03528254
-1.402,-0.03568105
-1.403,-0.03607956
-1.404,-0.03650873
-1.405,-0.03690724
-1.406,-0.03730575
-1.407,-0.03773492
-1.408,-0.03816409
-1.409,-0.03856261
-1.41,-0.03899177
-1.411,-0.03939028
-1.412,-0.03981945
-1.413,-0.04021796
-1.414,-0.04064713
-1.415,-0.0410763
-1.416,-0.04147482
-1.417,-0.04190398
-1.418,-0.04233315
-1.419,-0.04273166
-1.42,-0.04316083
-1.421,-0.04355934
-1.422,-0.04398851
-1.423,-0.04438702
-1.424,-0.04478553
-1.425,-0.0452147
-1.426,-0.04564387
-1.427,-0.04607304
-1.428,-0.0465022
-1.429,-0.04690072
-1.43,-0.04732988
-1.431,-0.0477284
-1.432,-0.04815757
-1.433,-0.04858673
-1.434,-0.0490159
-1.435,-0.04944507
-1.436,-0.04987423
-1.437,-0.05027274
-1.438,-0.05070192
-1.439,-0.05110043
-1.44,-0.05156025
-1.441,-0.05198942
-1.442,-0.05238793
-1.443,-0.0528171
-1.444,-0.05324627
-1.445,-0.05367543
-1.446,-0.0541046
-1.447,-0.05453377
-1.448,-0.05493228
-1.449,-0.05536145
-1.45,-0.05579061
-1.451,-0.05625044
-1.452,-0.05667961
-1.453,-0.05707812
-1.454,-0.05750729
-1.455,-0.05793646
-1.456,-0.05833497
-1.457,-0.05879479
-1.458,-0.0591933
-1.459,-0.05962247
-1.46,-0.06002098
-1.461,-0.06045015
-1.462,-0.06087932
-1.463,-0.06133914
-1.464,-0.06173765
-1.465,-0.06216682
-1.466,-0.06262664
-1.467,-0.06302515
-1.468,-0.06348498
-1.469,-0.06391414
-1.47,-0.06437397
-1.471,-0.06477248
-1.472,-0.06520165
-1.473,-0.06563082
-1.474,-0.06605998
-1.475,-0.06648915
-1.476,-0.06694897
-1.477,-0.06734749
-1.478,-0.06777665
-1.479,-0.06820583
-1.48,-0.06860434
-1.481,-0.0690335
-1.482,-0.06943201
-1.483,-0.06989183
-1.484,-0.07035166
-1.485,-0.07075017
-1.486,-0.07117934
-1.487,-0.07163917
-1.488,-0.07206833
-1.489,-0.07249749
-1.49,-0.07295732
-1.491,-0.07335583
-1.492,-0.073785
-1.493,-0.07424482
-1.494,-0.07464334
-1.495,-0.07510316
-1.496,-0.07553232
-1.497,-0.07593083
-1.498,-0.07636001
-1.499,-0.07681983
-1.5,-0.07694244
-1.499,-0.07654393
-1.498,-0.07608411
-1.497,-0.07562429
-1.496,-0.07525643
-1.495,-0.07479661
-1.494,-0.07433679
-1.493,-0.07390762
-1.492,-0.07347845
-1.491,-0.07298797
-1.49,-0.07258946
-1.489,-0.0721603
-1.488,-0.07170048
-1.487,-0.0712713
-1.486,-0.07084214
-1.485,-0.07038232
-1.484,-0.06995314
-1.483,-0.06949332
-1.482,-0.0690335
-1.481,-0.06863499
-1.48,-0.06820583
-1.479,-0.067746
-1.478,-0.06731683
-1.477,-0.06685701
-1.476,-0.06639718
-1.475001,-0.06599867
-1.474,-0.06553885
-1.473,-0.06510969
-1.472,-0.06471118
-1.471,-0.06425135
-1.47,-0.06382218
-1.469,-0.06339302
-1.468,-0.06293319
-1.467,-0.06250402
-1.466,-0.06207486
-1.465,-0.06161503
-1.464,-0.06121652
-1.463,-0.06078735
-1.462,-0.06035819
-1.461,-0.05992902
-1.46,-0.0595305
-1.459,-0.05910134
-1.458,-0.05864152
-1.457,-0.058243
-1.456,-0.05781383
-1.455,-0.05741533
-1.454,-0.05698615
-1.453,-0.05655699
-1.452,-0.05612782
-1.451,-0.05569865
-1.45,-0.05526949
-1.449,-0.05487097
-1.448,-0.05444181
-1.447,-0.05404329
-1.446,-0.05361412
-1.445,-0.05318496
-1.444,-0.05278645
-1.443,-0.05235728
-1.442,-0.05195877
-1.441,-0.05152959
-1.44,-0.05116174
-1.439,-0.05073257
-1.438,-0.0503034
-1.437,-0.04990489
-1.436,-0.04947572
-1.435,-0.04910786
-1.434,-0.0486787
-1.433,-0.04824953
-1.432,-0.04785102
-1.431,-0.04745251
-1.43,-0.04702334
-1.429,-0.04662482
-1.428,-0.04622631
-1.427,-0.04579714
-1.426,-0.04539863
-1.425,-0.04503077
-1.424,-0.0446016
-1.423,-0.04417244
-1.422,-0.04383523
-1.421,-0.04340607
-1.42,-0.04300755
-1.419,-0.04260904
-1.418,-0.04221053
-1.417,-0.04184267
-1.416,-0.04144416
-1.415,-0.04101499
-1.414,-0.04064713
-1.413,-0.04024862
-1.412,-0.03985011
-1.411,-0.0394516
-1.41,-0.03908373
-1.409,-0.03865457
-1.408,-0.03828671
-1.407,-0.03791885
-1.406,-0.037551
-1.405,-0.03715248
-1.404,-0.03675397
-1.403,-0.03635546
-1.402,-0.0359876
-1.401,-0.03558908
-1.4,-0.03522123
-1.399,-0.03485337
-1.398,-0.03448552
-1.397,-0.03411765
-1.396,-0.03371914
-1.395,-0.03335128
-1.394,-0.03298343
-1.393,-0.03261557
-1.392,-0.03224771
-1.391,-0.03187985
-1.39,-0.03151199
-1.389,-0.03114414
-1.388,-0.03077628
-1.387,-0.03040842
-1.386,-0.03007122
-1.385,-0.02970336
-1.384,-0.0293355
-1.383,-0.02896764
-1.382,-0.02863044
-1.381,-0.02826258
-1.38,-0.02792538
-1.379,-0.02755752
-1.378,-0.02722032
-1.377,-0.02688312
-1.376,-0.02651526
-1.375,-0.02617805
-1.374,-0.0258102
-1.373,-0.02547299
-1.372,-0.02513579
-1.371,-0.02479859
-1.37,-0.02446138
-1.369,-0.02412418
-1.368,-0.02378698
-1.367,-0.02348043
-1.366,-0.02314323
-1.365,-0.02280602
-1.364,-0.02246882
-1.363,-0.02213162
-1.362,-0.02182507
-1.361,-0.02148787
-1.36,-0.02118132
-1.359,-0.02087477
-1.358,-0.02053757
-1.357,-0.02023102
-1.356,-0.01992447
-1.355,-0.01964858
-1.354,-0.01934203
-1.353,-0.01900483
-1.352,-0.01869828
-1.351,-0.01842238
-1.350001,-0.01811584
-1.349,-0.01780929
-1.348,-0.01753339
-1.347,-0.0172575
-1.346,-0.01695095
-1.345,-0.01667506
-1.344,-0.01639917
-1.343,-0.01609262
-1.342,-0.01593733
-1.341,-0.01566143
-1.34,-0.01539167
-1.339,-0.0151403
-1.338,-0.01487361
-1.337,-0.0146161
-1.336,-0.0143678
-1.335,-0.01410723
-1.334,-0.013862
-1.333,-0.01361676
-1.332,-0.01336232
-1.331,-0.01312015
-1.33,-0.01287798
-1.329,-0.01263274
-1.328,-0.01241202
-1.327,-0.01218518
-1.326,-0.01195833
-1.325,-0.01174068
-1.324,-0.01151384
-1.323,-0.01129619
-1.322,-0.01108773
-1.321,-0.01087928
-1.32,-0.01067696
-1.319,-0.01048077
-1.318,-0.01027538
-1.317,-0.01007919
-1.316,-0.009892195
-1.315,-0.009702136
-1.314,-0.009515141
-1.313,-0.009331211
-1.312,-0.009150349
-1.311,-0.008972551
-1.31,-0.008807015
-1.309,-0.008632282
-1.308,-0.008472877
-1.307,-0.008316537
-1.306,-0.008157132
-1.305,-0.008006924
-1.304,-0.007856715
-1.303,-0.007706506
-1.302,-0.00756856
-1.301,-0.007433678
-1.3,-0.007292666
-1.299,-0.007160851
-1.298,-0.007032101
-1.297,-0.006900284
-1.296,-0.006774599
-1.295,-0.006658111
-1.294,-0.006535492
-1.293,-0.006425134
-1.292,-0.006314777
-1.291,-0.00620442
-1.29,-0.006100194
-1.289,-0.006002098
-1.288,-0.005900937
-1.287,-0.005805907
-1.286,-0.005713942
-1.285,-0.005618913
-1.284,-0.005530014
-1.283,-0.00544418
-1.282,-0.005361412
-1.281,-0.005278645
-1.28,-0.005205072
-1.279,-0.005128435
-1.278,-0.005051799
-1.277,-0.004984358
-1.276,-0.004910786
-1.275,-0.004843346
-1.274,-0.004782036
-1.273,-0.004714595
-1.272,-0.004656351
-1.271,-0.004595041
-1.27,-0.004536797
-1.269,-0.00448775
-1.268,-0.004429505
-1.267,-0.004380458
-1.266,-0.004334475
-1.265,-0.004279297
-1.264,-0.00423638
-1.263,-0.004190398
-1.262,-0.004144416
-1.261,-0.004104564
-1.26,-0.004064713
-1.259,-0.004018731
-1.258,-0.003985011
-1.257,-0.003945159
-1.256,-0.003905308
-1.255,-0.003871588
-1.254,-0.003837867
-1.253,-0.003804147
-1.252,-0.003773492
-1.251,-0.003736707
-1.25,-0.003709117
-1.249,-0.003681528
-1.248,-0.003647808
-1.247,-0.003623284
-1.246,-0.003595694
-1.245,-0.003561974
-1.244,-0.003540515
-1.243,-0.003512926
-1.242,-0.003485337
-1.241,-0.003463879
-1.24,-0.00344242
-1.239,-0.003414831
-1.238,-0.003396438
-1.237,-0.003371914
-1.236,-0.003350456
-1.235,-0.003332063
-1.234,-0.003310604
-1.233,-0.003286081
-1.232,-0.003270753
-1.231,-0.00325236
-1.23,-0.003227836
-1.229,-0.003212509
-1.228,-0.003191051
-1.227,-0.003172658
-1.226,-0.00315733
-1.225001,-0.003138937
-1.224,-0.003120545
-1.223,-0.003105217
-1.222,-0.003086824
-1.221,-0.003068431
-1.22,-0.003059235
-1.219,-0.003037777
-1.218,-0.003025514
-1.217,-0.003013253
-1.216,-0.002991794
-1.215,-0.002979532
-1.214,-0.002964205
-1.213,-0.002948877
-1.212,-0.002936616
-1.211,-0.002924354
-1.21,-0.002905961
-1.209,-0.002896764
-1.208,-0.002881437
-1.207,-0.00286611
-1.206,-0.002856913
-1.205,-0.002841586
-1.204,-0.002829324
-1.203,-0.002820127
-1.202,-0.0028048
-1.201,-0.002792538
-1.2,-0.002783341
-1.199,-0.002768014
-1.198,-0.002755752
-1.197,-0.002746556
-1.196,-0.002731228
-1.195,-0.002722032
-1.194,-0.002712835
-1.193,-0.002697508
-1.192,-0.002688312
-1.191,-0.002676049
-1.19,-0.002666853
-1.189,-0.002654591
-1.188,-0.002645395
-1.187,-0.002633133
-1.186,-0.002627002
-1.185,-0.002611674
-1.184,-0.002599412
-1.183,-0.002593281
-1.182,-0.002584085
-1.181,-0.002568757
-1.18,-0.002562626
-1.179,-0.002550365
-1.178,-0.002541168
-1.177,-0.002535037
-1.176,-0.00251971
-1.175,-0.002510513
-1.174,-0.002504382
-1.173,-0.00249212
-1.172,-0.002482924
-1.171,-0.002473728
-1.17,-0.002464531
-1.169,-0.002455335
-1.168,-0.002446138
-1.167,-0.002433876
-1.166,-0.00242468
-1.165,-0.002415484
-1.164,-0.002406287
-1.163,-0.002400156
-1.162,-0.002384829
-1.161,-0.002378698
-1.16,-0.002369501
-1.159,-0.002360305
-1.158,-0.002351108
-1.157,-0.002344977
-1.156,-0.002332716
-1.155,-0.002323519
-1.154,-0.002314323
-1.153,-0.002305126
-1.152,-0.002298995
-1.151,-0.002292864
-1.15,-0.002280602
-1.149,-0.002271406
-1.148,-0.002262209
-1.147,-0.002253013
-1.146,-0.002246882
-1.145,-0.002240751
-1.144,-0.002228489
-1.143,-0.002219293
-1.142,-0.002210096
-1.141,-0.002203965
-1.14,-0.002194769
-1.139,-0.002188638
-1.138,-0.002176376
-1.137,-0.002170245
-1.136,-0.002161048
-1.135,-0.002148786
-1.134,-0.002145721
-1.133,-0.002136525
-1.132,-0.002124263
-1.131,-0.002121197
-1.13,-0.002112001
-1.129,-0.002102804
-1.128,-0.002096673
-1.127,-0.002087477
-1.126,-0.002075215
-1.125,-0.002069084
-1.124,-0.002062953
-1.123,-0.002050691
-1.122,-0.002047626
-1.121,-0.002035364
-1.12,-0.002026167
-1.119,-0.002020036
-1.118,-0.00201084
-1.117,-0.002001643
-1.116,-0.001995512
-1.115,-0.00198325
-1.114,-0.00197712
-1.113,-0.001967923
-1.112,-0.001955661
-1.111,-0.00194953
-1.11,-0.001940334
-1.109,-0.001928072
-1.108,-0.001918875
-1.107,-0.001912744
-1.106,-0.001897417
-1.105,-0.001891286
-1.104,-0.00188209
-1.103,-0.001866762
-1.102,-0.001860631
-1.101,-0.001851435
-1.100001,-0.001836107
-1.099,-0.001829976
-1.098,-0.001817714
-1.097,-0.001805453
-1.096,-0.001796256
-1.095,-0.001790125
-1.094,-0.001774798
-1.093,-0.001768667
-1.092,-0.001756405
-1.091,-0.001741077
-1.09,-0.001734946
-1.089,-0.001719619
-1.088,-0.001707357
-1.087,-0.001701226
-1.086,-0.001685899
-1.085,-0.001676702
-1.084,-0.00166444
-1.083,-0.001649113
-1.082,-0.001642982
-1.081,-0.00163072
-1.08,-0.001615393
-1.079,-0.001609262
-1.078,-0.001593934
-1.077,-0.00161795
-1.076,-0.00160998
-1.075,-0.001598025
-1.074,-0.001585456
-1.073,-0.00157626
-1.072,-0.001564611
-1.071,-0.001553882
-1.07,-0.001544685
-1.069,-0.001533956
-1.068,-0.001519242
-1.067,-0.001512804
-1.066,-0.001501768
-1.065,-0.0014892
-1.064,-0.001482762
-1.063,-0.00147142
-1.062,-0.001458545
-1.061,-0.00145364
-1.06,-0.001439539
-1.059,-0.001430956
-1.058,-0.001423292
-1.057,-0.001409804
-1.056,-0.00140214
-1.055,-0.001395396
-1.054,-0.001382215
-1.053,-0.001374551
-1.052,-0.001366581
-1.051,-0.001356464
-1.05,-0.001344816
-1.049,-0.001338072
-1.048,-0.001329488
-1.047,-0.001321518
-1.046,-0.001312322
-1.045,-0.001304045
-1.044,-0.001294542
-1.043,-0.001288717
-1.042,-0.00128044
-1.041,-0.001270018
-1.04,-0.001265113
-1.039,-0.001254997
-1.038,-0.00124856
-1.037,-0.001241509
-1.036,-0.001229553
-1.035,-0.001225568
-1.034,-0.001216985
-1.033,-0.001208708
-1.032,-0.00120319
-1.031,-0.001193381
-1.03,-0.001186024
-1.029,-0.001180812
-1.028,-0.001170696
-1.027,-0.001165791
-1.026,-0.001159354
-1.025,-0.001148625
-1.024,-0.001143413
-1.023,-0.001136363
-1.022,-0.001129006
-1.021,-0.001124408
-1.02,-0.001115824
-1.019,-0.001108774
-1.018,-0.001103562
-1.017,-0.001093446
-1.016,-0.001088541
-1.015,-0.001083943
-1.014,-0.001073521
-1.013,-0.001067083
-1.012,-0.001061258
-1.011,-0.001053595
-1.01,-0.001048384
-1.009,-0.001041333
-1.008,-0.001031217
-1.007,-0.001028458
-1.006,-0.001018955
-1.005,-0.001011904
-1.004,-0.001006693
-1.003,-0.0009984161
-1.002,-0.0009913654
-1.001,-0.0009867672
-1,-0.0009781838
-0.9990004,-0.0009714398
-0.9980004,-0.0009659219
-0.9970005,-0.0009588713
-0.9960005,-0.0009505945
-0.9950004,-0.0009453832
-0.9940004,-0.0009398654
-0.9930004,-0.0009312819
-0.9920005,-0.0009266838
-0.9910004,-0.0009181004
-0.9900004,-0.0009107432
-0.9890004,-0.0009064515
-0.9880005,-0.0008972551
-0.9870005,-0.0008923503
-0.9860004,-0.0008856063
-0.9850004,-0.0008767164
-0.9840004,-0.0008721182
-0.9830005,-0.0008659872
-0.9820005,-0.0008570973
-0.9810004,-0.0008531122
-0.9800004,-0.0008460616
-0.9790004,-0.0008374782
-0.9780005,-0.0008316538
-0.9770004,-0.0008252163
-0.9760004,-0.0008169395
-0.9750004,-0.0008117282
-0.9740005,-0.0008052906
-0.9730005,-0.0007970139
-0.9720004,-0.0007911894
-0.9710004,-0.0007847519
-0.9700004,-0.0007780078
-0.9690005,-0.0007721835
-0.9680004,-0.0007654394
-0.9670004,-0.0007580822
-0.9660004,-0.0007525643
-0.9650005,-0.0007461268
-0.9640005,-0.0007360107
-0.9630004,-0.0007332518
-0.9620004,-0.0007255881
-0.9610004,-0.0007176179
-0.9600005,-0.0007142458
-0.9590005,-0.0007050494
-0.9580004,-0.0006979987
-0.9570004,-0.0006943202
-0.9560004,-0.0006857368
-0.9550005,-0.0006799124
-0.9540004,-0.0006759273
-0.9530004,-0.0006658112
-0.9520004,-0.0006605998
-0.9510005,-0.0006560017
-0.9500005,-0.0006483379
-0.9490004,-0.0006443528
-0.9480004,-0.0006369957
-0.9470004,-0.0006296384
-0.9460005,-0.0006250403
-0.9450005,-0.0006167634
-0.9440004,-0.0006118587
-0.9430004,-0.0006066473
-0.9420004,-0.0005986771
-0.9410005,-0.0005943854
-0.9400004,-0.0005888676
-0.9390004,-0.0005808973
-0.9380004,-0.0005778318
-0.9370005,-0.0005710878
-0.9360005,-0.0005637306
-0.9350004,-0.0005603586
-0.9340004,-0.0005548407
-0.9330004,-0.0005484032
-0.9320005,-0.0005434984
-0.9310004,-0.0005361412
-0.9300004,-0.0005318496
-0.9290004,-0.0005278645
-0.9280005,-0.0005217335
-0.9270005,-0.0005162156
-0.9260004,-0.0005131501
-0.9250004,-0.000505793
-0.9240004,-0.0005015013
-0.9230005,-0.0004978227
-0.9220005,-0.0004904656
-0.9210004,-0.0004852542
-0.9200004,-0.0004834149
-0.9190004,-0.0004766709
-0.9180005,-0.0004714596
-0.9170004,-0.0004690072
-0.9160004,-0.000461037
-0.9150004,-0.000458278
-0.9140005,-0.0004561322
-0.9130005,-0.000448775
-0.9120004,-0.000445403
-0.9110004,-0.0004411113
-0.9100004,-0.0004362065
-0.9090005,-0.0004319148
-0.9080005,-0.0004279297
-0.9070004,-0.0004230249
-0.9060004,-0.0004178136
-0.9050004,-0.0004147482
-0.9040005,-0.0004092303
-0.9030004,-0.0004052451
-0.9020004,-0.0004018731
-0.9010004,-0.0003954356
-0.9000005,-0.0003923701
-0.8990005,-0.0003880784
-0.8980004,-0.0003828671
-0.8970004,-0.0003785754
-0.8960004,-0.0003739772
-0.8950005,-0.0003690725
-0.8940005,-0.0003653939
-0.8930004,-0.0003604891
-0.8920004,-0.0003546647
-0.8910004,-0.0003522123
-0.8900005,-0.0003460813
-0.8890004,-0.0003411766
-0.8880004,-0.000337498
-0.8870004,-0.0003322866
-0.8860005,-0.0003267688
-0.8850005,-0.0003243164
-0.8840004,-0.0003169593
-0.8830004,-0.0003135872
-0.8820004,-0.0003086824
-0.8810005,-0.0003022449
-0.8800004,-0.0002991795
-0.8790004,-0.0002936616
-0.8780004,-0.0002887568
-0.8770005,-0.0002847717
-0.8760005,-0.0002789472
-0.8750004,-0.0002734294
-0.8740004,-0.000270977
-0.8730004,-0.0002642329
-0.8720005,-0.0002599413
-0.8710005,-0.0002550365
-0.8700004,-0.0002492121
-0.8690004,-0.0002436942
-0.8680004,-0.000239096
-0.8670005,-0.000232965
-0.8660004,-0.000229593
-0.8650004,-0.0002249948
-0.8640004,-0.0002176376
-0.8630005,-0.0002142656
-0.8620005,-0.0002090542
-0.8610004,-0.0002023102
-0.8600004,-0.0001983251
-0.8590004,-0.0001931137
-0.8580005,-0.0001860631
-0.8570005,-0.0001817715
-0.8560004,-0.0001771732
-0.8550004,-0.0001710423
-0.8540004,-0.0001667506
-0.8530005,-0.0001612327
-0.8520004,-0.0001544887
-0.8510004,-0.0001498904
-0.8500004,-0.0001467128
-0.8490005,-0.0001415015
-0.8480005,-0.0001370872
-0.8470004,-0.0001310482
-0.8460004,-0.0001262661
-0.8450004,-0.0001208708
-0.8440005,-0.00011428
-0.8430004,-0.0001094672
-0.8420004,-0.0001045931
-0.8410004,-9.769576E-05
-0.8400005,-9.349606E-05
-0.8390005,-8.819276E-05
-0.8380004,-8.166328E-05
-0.8370004,-7.70344E-05
-0.8360004,-7.120999E-05
-0.8350005,-6.514033E-05
-0.8340005,-6.057277E-05
-0.8330004,-5.456442E-05
-0.8320004,-4.84028E-05
-0.8310004,-4.319148E-05
-0.8300005,-3.837867E-05
-0.8290004,-3.209443E-05
-0.8280004,-2.633133E-05
-0.8270004,-2.10587E-05
-0.8260005,-1.590869E-05
-0.8250005,-1.048278E-05
-0.8240004,-4.780985E-06
-0.8230004,-9.079714E-08
-0.8220004,5.365762E-06
-0.8210005,1.180327E-05
-0.8200005,1.661608E-05
-0.8190004,2.280836E-05
-0.8180004,2.890867E-05
-0.8170004,3.393606E-05
-0.8160005,3.819708E-05
-0.8150004,4.478787E-05
-0.8140004,4.941675E-05
-0.8130004,5.352449E-05
-0.8120005,6.085099E-05
-0.8110005,6.471351E-05
-0.8100004,6.872928E-05
-0.8090004,7.568793E-05
-0.8080004,7.973437E-05
-0.8070005,8.457783E-05
-0.8060004,9.037159E-05
-0.8050004,9.414214E-05
-0.8040004,9.966001E-05
-0.8030005,0.0001046874
-0.8020005,0.0001091323
-0.8010004,0.0001136693
-0.8000004,7.988764E-05
-0.8009996,3.148367E-05
-0.8019996,-6.344382E-06
-0.8029996,-3.758165E-05
-0.8039996,-6.792993E-05
-0.8049996,-9.518206E-05
-0.8059996,-0.0001207175
-0.8069996,-0.0001446896
-0.8079996,-0.0001667611
-0.8089996,-0.0001886793
-0.8099996,-0.0002095246
-0.8109996,-0.0002284079
-0.8119996,-0.0002480577
-0.8129996,-0.0002651937
-0.8139996,-0.0002828203
-0.8149996,-0.0003002629
-0.8159996,-0.000312361
-0.8169996,-0.000327995
-0.8179996,-0.0003427093
-0.8189996,-0.0003595694
-0.8199996,-0.000372751
-0.8209996,-0.0003868522
-0.8219996,-0.00040126
-0.8229996,-0.0004141351
-0.8239996,-0.0004254773
-0.8249996,-0.000439272
-0.8259996,-0.0004518405
-0.8269996,-0.0004625697
-0.8279996,-0.0004751382
-0.8289996,-0.0004864805
-0.8299996,-0.0004978227
-0.8309996,-0.000509165
-0.8319996,-0.0005192811
-0.8329996,-0.0005306234
-0.8339996,-0.0005407395
-0.8349996,-0.0005514687
-0.8359996,-0.0005621978
-0.8369996,-0.0005713943
-0.8379996,-0.0005812038
-0.8389996,-0.0005916265
-0.8399996,-0.0006002099
-0.8409996,-0.0006100194
-0.8419996,-0.0006198289
-0.8429996,-0.0006281057
-0.8439996,-0.0006382219
-0.8449996,-0.0006474183
-0.8459996,-0.0006553886
-0.8469996,-0.0006642784
-0.8479996,-0.0006728618
-0.8489996,-0.0006823648
-0.8499996,-0.0006906416
-0.8509996,-0.0006992249
-0.8519996,-0.0007068887
-0.8529996,-0.0007166982
-0.8539996,-0.0007234422
-0.8549996,-0.0007320256
-0.8559996,-0.0007399959
-0.8569996,-0.0007482726
-0.8579996,-0.0007556298
-0.8589996,-0.0007639066
-0.8599996,-0.0007712637
-0.8609996,-0.0007786209
-0.8619996,-0.0007875108
-0.8629996,-0.0007951746
-0.8639996,-0.000801612
-0.8649996,-0.0008095824
-0.8659996,-0.0008169395
-0.8669996,-0.0008239901
-0.8679996,-0.0008334931
-0.8689996,-0.0008393175
-0.8699996,-0.0008463681
-0.8709996,-0.0008546449
-0.8719996,-0.0008601628
-0.8729996,-0.0008678265
-0.8739996,-0.0008754902
-0.8749996,-0.000881008
-0.8759996,-0.000889898
-0.8769996,-0.0008963355
-0.8779996,-0.0009018534
-0.8789996,-0.0009098236
-0.8799996,-0.0009181004
-0.8809996,-0.0009230052
-0.8819996,-0.0009306689
-0.8829996,-0.0009380261
-0.8839996,-0.0009435439
-0.8849996,-0.0009505945
-0.8859996,-0.0009579517
-0.8869996,-0.000963163
-0.8879996,-0.0009705202
-0.8889996,-0.0009778773
-0.8899996,-0.0009833951
-0.8909996,-0.0009901392
-0.8919996,-0.0009978029
-0.8929996,-0.001002401
-0.8939996,-0.001008839
-0.8949996,-0.001016809
-0.8959996,-0.001021101
-0.8969996,-0.001029377
-0.8979996,-0.001036122
-0.8989996,-0.001041333
-0.8999996,-0.001048384
-0.9009996,-0.001054821
-0.9019996,-0.001059726
-0.9029996,-0.001068003
-0.9039996,-0.001073214
-0.9049996,-0.001079038
-0.9059996,-0.001086089
-0.9069996,-0.001093446
-0.9079996,-0.001097738
-0.9089996,-0.001105708
-0.9099996,-0.001111532
-0.9109996,-0.001116437
-0.9119996,-0.001124714
-0.9129996,-0.001129006
-0.9139996,-0.001136056
-0.9149996,-0.00114372
-0.9159996,-0.001148931
-0.9169996,-0.001155369
-0.9179996,-0.001162113
-0.9189996,-0.001166711
-0.9199996,-0.001174068
-0.9209996,-0.001181732
-0.9219996,-0.00118633
-0.9229996,-0.001193687
-0.9239996,-0.001201045
-0.9249996,-0.00120503
-0.9259996,-0.001212387
-0.9269996,-0.001218824
-0.9279996,-0.001223729
-0.9289996,-0.001231086
-0.9299996,-0.001236604
-0.9309996,-0.001242122
-0.9319996,-0.001249786
-0.9329996,-0.001255304
-0.9339996,-0.001262354
-0.9349996,-0.001268485
-0.9359996,-0.00127247
-0.9369996,-0.001281054
-0.9379996,-0.001287185
-0.9389996,-0.001292703
-0.9399996,-0.001299447
-0.9409996,-0.001306497
-0.9419996,-0.001311095
-0.9429996,-0.001318759
-0.9439996,-0.00132489
-0.9449996,-0.001331327
-0.9459996,-0.001337459
-0.9469996,-0.001344509
-0.9479996,-0.001350334
-0.9489996,-0.001356158
-0.9499996,-0.001363822
-0.9509996,-0.001369646
-0.9519996,-0.00137547
-0.9529996,-0.001384054
-0.9539996,-0.001388652
-0.9549996,-0.001393863
-0.9559996,-0.00140306
-0.9569996,-0.001408578
-0.9579996,-0.001415322
-0.9589996,-0.001422985
-0.9599996,-0.001426971
-0.9609996,-0.00143678
-0.9619996,-0.001442298
-0.9629996,-0.001446896
-0.9639996,-0.001456399
-0.9649996,-0.00146253
-0.9659996,-0.001467129
-0.9669996,-0.001477551
-0.9679996,-0.001481536
-0.9689996,-0.0014892
-0.9699996,-0.001498703
-0.9709996,-0.001503301
-0.9719996,-0.001510045
-0.9729996,-0.001519548
-0.9739996,-0.001524759
-0.9749996,-0.001529971
-0.9759996,-0.001539167
-0.9769996,-0.001546218
-0.9779996,-0.001552655
-0.9789996,-0.001561239
-0.9799996,-0.001568596
-0.9809996,-0.001572274
-0.9819996,-0.001582391
-0.9829996,-0.001588522
-0.9839996,-0.001594346
-0.9849996,-0.001605382
-0.9859996,-0.001609367
-0.9869996,-0.001617031
-0.9879996,-0.001626534
-0.9889996,-0.001631745
-0.9899996,-0.001640328
-0.9909996,-0.001648298
-0.9919996,-0.001653203
-0.9929996,-0.00166148
-0.9939996,-0.001670983
-0.9949996,-0.001676194
-0.9959996,-0.001685391
-0.9969996,-0.001693361
-0.9979996,-0.001697959
-0.9989996,-0.001707769
-0.9999996,-0.001714206
-1.001,-0.001720644
-1.002,-0.00172984
-1.003,-0.001737198
-1.004,-0.001743022
-1.005,-0.001751299
-1.006,-0.001759882
-1.007,-0.001766013
-1.008,-0.00177429
-1.009,-0.001781953
-1.01,-0.001787165
-1.011,-0.001796668
-1.012,-0.001803718
-1.013,-0.001810769
-1.014,-0.001819046
-1.015,-0.00182579
-1.016,-0.001833454
-1.017,-0.001841424
-1.018,-0.001847248
-1.019,-0.001856138
-1.02,-0.001864108
-1.021,-0.00186932
-1.022,-0.001879436
-1.023,-0.001884954
-1.024,-0.001892311
-1.025,-0.001901814
-1.026,-0.001907332
-1.027,-0.001913463
-1.028,-0.001923885
-1.029,-0.00192787
-1.03,-0.001934308
-1.031,-0.001944424
-1.032,-0.001948103
-1.033,-0.001956073
-1.034,-0.001965269
-1.035,-0.001969868
-1.036,-0.001974466
-1.037,-0.001984582
-1.038,-0.00198918
-1.039,-0.001995618
-1.04,-0.002004201
-1.041,-0.002006653
-1.042,-0.00201493
-1.043,-0.002022287
-1.044,-0.002027805
-1.045,-0.002034243
-1.046,-0.002040374
-1.047,-0.002045278
-1.048,-0.002053248
-1.049,-0.002058767
-1.05,-0.002063058
-1.051,-0.002071028
-1.052,-0.002076853
-1.053,-0.002080225
-1.054,-0.002088808
-1.055,-0.002095552
-1.056,-0.002097392
-1.057,-0.002107508
-1.058,-0.002112412
-1.059,-0.002115171
-1.06,-0.002126207
-1.061,-0.002129273
-1.062,-0.00213479
-1.063,-0.002143067
-1.064,-0.002146133
-1.065,-0.002152877
-1.066,-0.002159314
-1.067,-0.002164832
-1.068,-0.002170963
-1.069,-0.002178933
-1.07,-0.002184758
-1.071,-0.002189049
-1.072,-0.002195181
-1.073,-0.002201618
-1.074,-0.002208056
-1.075,-0.002216026
-1.076,-0.002222157
-1.077,-0.002228901
-1.078,-0.002233499
-1.079,-0.002241776
-1.08,-0.002248213
-1.081,-0.00225649
-1.082,-0.002262314
-1.083,-0.002269672
-1.084,-0.002279175
-1.085,-0.002282547
-1.086,-0.002292356
-1.087,-0.002300633
-1.088,-0.002307377
-1.089,-0.00231688
-1.09,-0.002323931
-1.091,-0.002330675
-1.092,-0.00234263
-1.093,-0.002348761
-1.094,-0.002356731
-1.095,-0.002366541
-1.096,-0.002374205
-1.097,-0.002384934
-1.098,-0.00239505
-1.099,-0.002398116
-1.1,-0.00241283
-1.101,-0.002422946
-1.102,-0.002428157
-1.103,-0.002441339
-1.104,-0.002448696
-1.105,-0.00245636
-1.106,-0.002467396
-1.107,-0.002476285
-1.108,-0.002484562
-1.109,-0.002492532
-1.11,-0.002505714
-1.111,-0.002511232
-1.112,-0.002520428
-1.113,-0.002531157
-1.114,-0.002536369
-1.115,-0.002544032
-1.116,-0.002556294
-1.117,-0.002560892
-1.118,-0.00256917
-1.119,-0.00257622
-1.12,-0.00258419
-1.121,-0.002589708
-1.122,-0.002597065
-1.123,-0.002599211
-1.124,-0.002607181
-1.125,-0.002614232
-1.126,-0.002619137
-1.127,-0.002625268
-1.128,-0.002624655
-1.129,-0.002633545
-1.13,-0.00263661
-1.131,-0.002636303
-1.132,-0.002644887
-1.133,-0.002647646
-1.134,-0.002648565
-1.135,-0.002656229
-1.136,-0.002661134
-1.137,-0.002659295
-1.138,-0.002662667
-1.139,-0.002668798
-1.14,-0.002667571
-1.141,-0.00267217
-1.142,-0.00267922
-1.143,-0.002676461
-1.144,-0.002681673
-1.145,-0.002686884
-1.146,-0.002686577
-1.147,-0.002688417
-1.148,-0.002697613
-1.149,-0.002696387
-1.15,-0.002699452
-1.151,-0.002701292
-1.152,-0.00270589
-1.153,-0.002709875
-1.154,-0.002712327
-1.155,-0.002716313
-1.156,-0.002723363
-1.157,-0.002720604
-1.158,-0.002727655
-1.159,-0.002732866
-1.16,-0.00273072
-1.161,-0.002739917
-1.162,-0.002743595
-1.163,-0.002743289
-1.164,-0.002750339
-1.165,-0.002754018
-1.166,-0.002756777
-1.167,-0.002761682
-1.168,-0.002766893
-1.169,-0.002769958
-1.17,-0.00277517
-1.171,-0.002783753
-1.172,-0.002782527
-1.173,-0.002792337
-1.174,-0.002797854
-1.175,-0.002800307
-1.176,-0.00280797
-1.177,-0.002812569
-1.178,-0.002815021
-1.179,-0.002822685
-1.18,-0.002831268
-1.181,-0.002832494
-1.182,-0.002841384
-1.183,-0.002849048
-1.184,-0.002851194
-1.185,-0.00285947
-1.186,-0.002868974
-1.187,-0.002873265
-1.188,-0.002882462
-1.189,-0.002888899
-1.19,-0.002897176
-1.191,-0.002904533
-1.192,-0.002909744
-1.193,-0.002919554
-1.194,-0.002929057
-1.195,-0.002935801
-1.196,-0.002945304
-1.197,-0.002953887
-1.198,-0.002960325
-1.199,-0.002966763
-1.2,-0.002981477
-1.201,-0.002986075
-1.202,-0.002995271
-1.203,-0.003008147
-1.204,-0.002976467
-1.205,-0.002985663
-1.206,-0.002997925
-1.207,-0.003004056
-1.208,-0.003016318
-1.209,-0.00302858
-1.21,-0.003034711
-1.211,-0.003043907
-1.212,-0.003059235
-1.213,-0.003065366
-1.214,-0.003074562
-1.215,-0.003089889
-1.216,-0.003096021
-1.217,-0.003111348
-1.218,-0.00312361
-1.219,-0.003129741
-1.22,-0.003148134
-1.221,-0.00315733
-1.222,-0.003169592
-1.223,-0.003181854
-1.224,-0.003191051
-1.225,-0.003209443
-1.226,-0.003221706
-1.227,-0.003233967
-1.228,-0.003249295
-1.229,-0.003264622
-1.23,-0.003276884
-1.231,-0.003292212
-1.232,-0.003307539
-1.233,-0.003322866
-1.234,-0.003338194
-1.235,-0.003353521
-1.236,-0.003371914
-1.237,-0.003387242
-1.238,-0.003405634
-1.239,-0.003424027
-1.24,-0.003439354
-1.241,-0.003454682
-1.242,-0.00347614
-1.243,-0.003497599
-1.244,-0.003512926
-1.245,-0.00353745
-1.246,-0.003552777
-1.247,-0.003574236
-1.248,-0.003601825
-1.249,-0.003623284
-1.25,-0.003644742
-1.251,-0.003672331
-1.252,-0.003696855
-1.253,-0.003718314
-1.254,-0.003752034
-1.255,-0.003776558
-1.256,-0.003804147
-1.257,-0.003834802
-1.258,-0.003865457
-1.259,-0.003893046
-1.26,-0.003926767
-1.261,-0.003963552
-1.262,-0.003997272
-1.263,-0.004034058
-1.264,-0.004073909
-1.265,-0.004110695
-1.266,-0.004150547
-1.267,-0.004196529
-1.268,-0.004239446
-1.269,-0.004282362
-1.27,-0.004334475
-1.271,-0.004383523
-1.272,-0.004432571
-1.273,-0.00448775
-1.274,-0.004542928
-1.275,-0.004601172
-1.276,-0.004665548
-1.277,-0.004723792
-1.278,-0.004791233
-1.279,-0.004864804
-1.28,-0.004932245
-1.281,-0.005008881
-1.282,-0.005088584
-1.283,-0.005165222
-1.284,-0.005251055
-1.285,-0.005336888
-1.286,-0.005428853
-1.287,-0.005526948
-1.288,-0.005625044
-1.289,-0.005726204
-1.29,-0.005839627
-1.291,-0.005949985
-1.292,-0.006066473
-1.293,-0.006189092
-1.294,-0.006308646
-1.295,-0.006443528
-1.296,-0.00658454
-1.297,-0.006722487
-1.298,-0.006866564
-1.299,-0.00702597
-1.3,-0.007179243
-1.301,-0.007341714
-1.302,-0.007513381
-1.303,-0.007685048
-1.304,-0.007865911
-1.305,-0.008055971
-1.306,-0.008246032
-1.307,-0.008439157
-1.308,-0.008650675
-1.309,-0.008865259
-1.31,-0.009079843
-1.311,-0.009306688
-1.312,-0.0095366
-1.313,-0.009769576
-1.314,-0.01001482
-1.315,-0.01026005
-1.316,-0.01051142
-1.317,-0.01076892
-1.318,-0.01102949
-1.319,-0.01129925
-1.32,-0.01156901
-1.321,-0.01184797
-1.322,-0.01213306
-1.323,-0.01242122
-1.324,-0.01271244
-1.325,-0.01301286
-1.326,-0.01330714
-1.327,-0.01360756
-1.328,-0.01391717
-1.329,-0.01423598
-1.33,-0.0145456
-1.331,-0.01486441
-1.332,-0.01518935
-1.333,-0.01550509
-1.334,-0.01583617
-1.335,-0.01617644
-1.336,-0.01650444
-1.337,-0.01684471
-1.338,-0.01718191
-1.339,-0.01752218
-1.34,-0.01786858
-1.341,-0.01822418
-1.342,-0.01857058
-1.343,-0.01892617
-1.344,-0.0192879
-1.345,-0.0196343
-1.346,-0.01999296
-1.347,-0.02036388
-1.348,-0.02071641
-1.349,-0.02108121
-1.35,-0.02145519
-1.351,-0.02181692
-1.352,-0.02218478
-1.353,-0.02256797
-1.354,-0.02293582
-1.355,-0.02330368
-1.356,-0.02368687
-1.357,-0.02406392
-1.358,-0.02445017
-1.359,-0.02484255
-1.36,-0.02521654
-1.361,-0.02559973
-1.362,-0.02599211
-1.363,-0.02636916
-1.364,-0.02675235
-1.365,-0.02714167
-1.366,-0.02752792
-1.367,-0.02791723
-1.368,-0.02830655
-1.369,-0.0286928
-1.37,-0.02908518
-1.371,-0.0294745
-1.372,-0.02986075
-1.373,-0.03026539
-1.374,-0.03077628
-1.375,-0.03117479
-1.376,-0.03154265
-1.377,-0.03194116
-1.378,-0.03233967
-1.379,-0.03273819
-1.38,-0.03316735
-1.381,-0.03356587
-1.382,-0.03396438
-1.383,-0.03436289
-1.384,-0.03476141
-1.385,-0.03519057
-1.386,-0.03558908
-1.387,-0.0359876
-1.388,-0.03638611
-1.389,-0.03681528
-1.39,-0.03721379
-1.391,-0.0376123
-1.392,-0.03801082
-1.393,-0.03840933
-1.394,-0.03886915
-1.395,-0.03926767
-1.396,-0.03966618
-1.397,-0.04009534
-1.398,-0.04049386
-1.399,-0.04092303
-1.4,-0.04132154
-1.401,-0.04172005
-1.402,-0.04217988
-1.403,-0.04257839
-1.404,-0.04300755
-1.405,-0.04343672
-1.406,-0.04383523
-1.407,-0.04423375
-1.408,-0.04466292
-1.409,-0.04509208
-1.41,-0.04552125
-1.411,-0.04595042
-1.412,-0.04634893
-1.413,-0.0467781
-1.414,-0.04720726
-1.415,-0.04763643
-1.416,-0.04803495
-1.417,-0.04846412
-1.418,-0.04886262
-1.419,-0.04929179
-1.42,-0.04975162
-1.421,-0.05015013
-1.422,-0.0505793
-1.423,-0.05100846
-1.424,-0.05143763
-1.425,-0.05183614
-1.426,-0.05229596
-1.427,-0.05272513
-1.428,-0.05312365
-1.429,-0.05358347
-1.43,-0.05401264
-1.431,-0.05444181
-1.432,-0.05490163
-1.433,-0.05530014
-1.434,-0.05572931
-1.435,-0.05618913
-1.436,-0.05658764
-1.437,-0.05701681
-1.438,-0.05744598
-1.439,-0.05787515
-1.44,-0.05830431
-1.441,-0.05873348
-1.442,-0.05916265
-1.443,-0.05962247
-1.444,-0.06005164
-1.445,-0.06045015
-1.446,-0.06090998
-1.447,-0.06133914
-1.448,-0.0617683
-1.449,-0.06219748
-1.45,-0.06262664
-1.451,-0.06305581
-1.452,-0.06351563
-1.453,-0.0639448
-1.454,-0.06437397
-1.455,-0.06483379
-1.456,-0.0652323
-1.457,-0.06569213
-1.458,-0.06615195
-1.459,-0.06655046
-1.46,-0.06697963
-1.461,-0.06740879
-1.462,-0.06783796
-1.463,-0.06829779
-1.464,-0.06875761
-1.465,-0.06918678
-1.466,-0.06961595
-1.467,-0.07007577
-1.468,-0.07050493
-1.469,-0.0709341
-1.47,-0.07136327
-1.471,-0.07182309
-1.472,-0.07225226
-1.473,-0.07268143
-1.474,-0.0731106
-1.475,-0.07357042
-1.476,-0.07399958
-1.477,-0.07442875
-1.478,-0.07488858
-1.479,-0.07531774
-1.48,-0.07571625
-1.481,-0.07620674
-1.482,-0.0766359
-1.483,-0.07706507
-1.484,-0.07752489
-1.485,-0.07795405
-1.486,-0.07841388
-1.487,-0.0788737
-1.488,-0.07930287
-1.489,-0.07973204
-1.49,-0.08022251
-1.491,-0.08062103
-1.492,-0.08105019
-1.493,-0.08151001
-1.494,-0.08196984
-1.495,-0.082399
-1.496,-0.08285882
-1.497,-0.083288
-1.498,-0.08374782
-1.499,-0.08420765
-1.5,-0.08429961
-1.499001,-0.08387043
-1.498001,-0.08344127
-1.497001,-0.08298145
-1.496001,-0.08252162
-1.495001,-0.08212312
-1.494001,-0.08163264
-1.493001,-0.08120347
-1.492001,-0.0807743
-1.491001,-0.08028382
-1.490001,-0.079824
-1.489001,-0.07939483
-1.488001,-0.07893501
-1.487001,-0.07850584
-1.486001,-0.07804602
-1.485001,-0.0775862
-1.484001,-0.07712638
-1.483001,-0.07669721
-1.482001,-0.07620674
-1.481001,-0.07574691
-1.480001,-0.07537905
-1.479001,-0.07488858
-1.478001,-0.0744594
-1.477001,-0.07399958
-1.476001,-0.07353976
-1.475001,-0.0731106
-1.474001,-0.07265078
-1.473001,-0.0722216
-1.472001,-0.07176178
-1.471001,-0.07130196
-1.470001,-0.07084214
-1.469001,-0.07041297
-1.468001,-0.06995314
-1.467001,-0.06952398
-1.466001,-0.06909481
-1.465001,-0.06863499
-1.464001,-0.06817517
-1.463001,-0.067746
-1.462001,-0.06731683
-1.461001,-0.06685701
-1.460001,-0.06642784
-1.459001,-0.06599867
-1.458001,-0.06553885
-1.457001,-0.06507903
-1.456001,-0.06464987
-1.455001,-0.06419004
-1.454001,-0.06376087
-1.453001,-0.06333171
-1.452001,-0.06287188
-1.451001,-0.06241206
-1.450001,-0.06201354
-1.449001,-0.06155372
-1.448001,-0.06112456
-1.447001,-0.06069539
-1.446001,-0.06023557
-1.445001,-0.0598064
-1.444001,-0.05937723
-1.443001,-0.05894807
-1.442001,-0.05848824
-1.441001,-0.05805907
-1.440001,-0.05766056
-1.439001,-0.05720074
-1.438001,-0.05677157
-1.437001,-0.05637306
-1.436001,-0.05591324
-1.435001,-0.05548407
-1.434001,-0.0550549
-1.433001,-0.05459508
-1.432001,-0.05416591
-1.431001,-0.05373674
-1.430001,-0.05330757
-1.429001,-0.05290907
-1.428001,-0.05244924
-1.427001,-0.05205073
-1.426001,-0.05162156
-1.425001,-0.05122305
-1.424001,-0.05076323
-1.423001,-0.05036471
-1.422001,-0.04993555
-1.421001,-0.04950638
-1.420001,-0.04910786
-1.419001,-0.04864804
-1.418001,-0.04824953
-1.417001,-0.04782036
-1.416001,-0.04742185
-1.415001,-0.04699268
-1.414001,-0.04656351
-1.413001,-0.046165
-1.412001,-0.04573583
-1.411001,-0.04533732
-1.410001,-0.04493881
-1.409001,-0.04450964
-1.408001,-0.04411113
-1.407001,-0.04368196
-1.406001,-0.04328345
-1.405001,-0.04288493
-1.404001,-0.04245577
-1.403001,-0.04205726
-1.402001,-0.04162809
-1.401001,-0.04122957
-1.400001,-0.04083106
-1.399001,-0.04040189
-1.398001,-0.04000338
-1.397001,-0.03960487
-1.396001,-0.03923701
-1.395001,-0.03880784
-1.394001,-0.03840933
-1.393001,-0.03801082
-1.392001,-0.0376123
-1.391001,-0.03721379
-1.390001,-0.03684593
-1.389001,-0.03641677
-1.388001,-0.03601825
-1.387001,-0.03561974
-1.386001,-0.03522123
-1.385001,-0.03482271
-1.384001,-0.03445486
-1.383001,-0.03405635
-1.382001,-0.03368849
-1.381001,-0.03328998
-1.380001,-0.03289146
-1.379001,-0.0325236
-1.378001,-0.03212509
-1.377001,-0.03175723
-1.376001,-0.03135872
-1.375001,-0.03099086
-1.374001,-0.030623
-1.373001,-0.03025514
-1.372001,-0.02988729
-1.371001,-0.02948878
-1.370001,-0.02912092
-1.369001,-0.02875306
-1.368001,-0.0283852
-1.367001,-0.02798669
-1.366001,-0.02764949
-1.365001,-0.02731228
-1.364001,-0.02691377
-1.363001,-0.02657657
-1.362001,-0.02620871
-1.361001,-0.02587151
-1.360001,-0.0255343
-1.359001,-0.02513579
-1.358001,-0.02479859
-1.357001,-0.02446138
-1.356001,-0.02409353
-1.355001,-0.02375632
-1.354001,-0.02341912
-1.353001,-0.02305126
-1.352001,-0.02274471
-1.351001,-0.02237686
-1.350001,-0.02203965
-1.349001,-0.02170245
-1.348001,-0.02136525
-1.347001,-0.0210587
-1.346001,-0.0207215
-1.345001,-0.02038429
-1.344001,-0.02004709
-1.343001,-0.01974054
-1.342001,-0.01943399
-1.341001,-0.01912744
-1.340001,-0.01879024
-1.339001,-0.01848369
-1.338001,-0.01817714
-1.337001,-0.0178706
-1.336001,-0.01756405
-1.335001,-0.0172575
-1.334001,-0.01695095
-1.333001,-0.0166444
-1.332001,-0.01636851
-1.331001,-0.01606196
-1.330001,-0.01586989
-1.329001,-0.01559399
-1.328001,-0.01531503
-1.327001,-0.01503608
-1.326001,-0.01475712
-1.325001,-0.01448122
-1.324001,-0.0142084
-1.323001,-0.01395089
-1.322001,-0.0136842
-1.321001,-0.01343283
-1.320001,-0.01318146
-1.319001,-0.01292089
-1.318001,-0.01267565
-1.317001,-0.01243348
-1.316001,-0.01218824
-1.315001,-0.01195527
-1.314001,-0.01171922
-1.313001,-0.01149544
-1.312001,-0.01127779
-1.311001,-0.01105401
-1.310001,-0.0108333
-1.309001,-0.01062485
-1.308001,-0.0104072
-1.307001,-0.01019874
-1.306001,-0.009996422
-1.305001,-0.009787968
-1.304001,-0.009588713
-1.303001,-0.009392521
-1.302001,-0.009196331
-1.301001,-0.009009337
-1.300001,-0.008825407
-1.299001,-0.008638413
-1.298001,-0.008460615
-1.297001,-0.008295079
-1.296001,-0.008126478
-1.295001,-0.007957876
-1.294001,-0.007801536
-1.293001,-0.007639066
-1.292001,-0.007485792
-1.291001,-0.007344779
-1.290001,-0.007194571
-1.289001,-0.007050493
-1.288001,-0.006921743
-1.287001,-0.006780731
-1.286001,-0.006648915
-1.285001,-0.006529361
-1.284001,-0.006397545
-1.283001,-0.006281057
-1.282001,-0.006167634
-1.281001,-0.006051145
-1.280001,-0.005943854
-1.279001,-0.005836562
-1.278001,-0.005732335
-1.277001,-0.005628109
-1.276001,-0.005533079
-1.275001,-0.005431918
-1.274001,-0.005346085
-1.273001,-0.005257186
-1.272001,-0.005165222
-1.271001,-0.005088584
-1.270001,-0.005002751
-1.269001,-0.004923048
-1.268001,-0.004849477
-1.267001,-0.00477284
-1.266001,-0.004702333
-1.265001,-0.004631828
-1.264001,-0.004564387
-1.263001,-0.004503077
-1.262001,-0.004441767
-1.261001,-0.004380458
-1.260001,-0.004325279
-1.259001,-0.004270101
-1.258001,-0.004214922
-1.257001,-0.004162808
-1.256001,-0.004113761
-1.255001,-0.004061648
-1.254001,-0.004015665
-1.253001,-0.003966617
-1.252001,-0.003923701
-1.251001,-0.00388385
-1.250001,-0.003837867
-1.249001,-0.003801082
-1.248001,-0.003764296
-1.247001,-0.003721379
-1.246001,-0.003687659
-1.245001,-0.003650873
-1.244001,-0.003614087
-1.243001,-0.003580367
-1.242001,-0.003549712
-1.241001,-0.003519057
-1.240001,-0.003488402
-1.239001,-0.003460813
-1.238001,-0.003424027
-1.237001,-0.003402569
-1.236001,-0.003371914
-1.235001,-0.003344325
-1.234001,-0.003322866
-1.233001,-0.003292212
-1.232001,-0.003267688
-1.231001,-0.003246229
-1.230001,-0.00321864
-1.229001,-0.003197182
-1.228001,-0.003175723
-1.227001,-0.003151199
-1.226001,-0.003132806
-1.225001,-0.003114413
-1.224001,-0.003089889
-1.223001,-0.003074562
-1.222001,-0.003050038
-1.221001,-0.003031645
-1.220001,-0.003016318
-1.219001,-0.002997925
-1.218001,-0.002976467
-1.217001,-0.002961139
-1.216001,-0.002942747
-1.215001,-0.002924354
-1.214001,-0.002909026
-1.213001,-0.002893699
-1.212001,-0.002875306
-1.211001,-0.002863044
-1.210001,-0.002844651
-1.209001,-0.002826258
-1.208001,-0.002817062
-1.207001,-0.002801734
-1.206001,-0.002783341
-1.205001,-0.00277108
-1.204001,-0.002755752
-1.203001,-0.002740425
-1.202001,-0.002731228
-1.201001,-0.002715901
-1.200001,-0.002700574
-1.199001,-0.002688312
-1.198001,-0.002676049
-1.197001,-0.002660722
-1.196001,-0.00264846
-1.195001,-0.002639264
-1.194001,-0.002623936
-1.193001,-0.002611674
-1.192001,-0.002599412
-1.191001,-0.002584085
-1.190001,-0.002577954
-1.189001,-0.002562626
-1.188001,-0.002550365
-1.187001,-0.002541168
-1.186001,-0.002525841
-1.185001,-0.002516645
-1.184001,-0.002507448
-1.183001,-0.002495186
-1.182001,-0.00248599
-1.181001,-0.002476793
-1.180001,-0.0024584
-1.179001,-0.002452269
-1.178001,-0.002443073
-1.177001,-0.002430811
-1.176001,-0.00242468
-1.175001,-0.002412418
-1.174001,-0.002397091
-1.173001,-0.002394025
-1.172001,-0.002381763
-1.171001,-0.002372567
-1.170001,-0.002366436
-1.169001,-0.002351108
-1.168001,-0.002341912
-1.167001,-0.002335781
-1.166001,-0.002320454
-1.165001,-0.002314323
-1.164001,-0.002305126
-1.163001,-0.002292864
-1.162001,-0.002283668
-1.161001,-0.002277537
-1.160001,-0.002265275
-1.159001,-0.002256078
-1.158001,-0.002246882
-1.157001,-0.002237685
-1.156001,-0.002228489
-1.155001,-0.002219293
-1.154001,-0.002210096
-1.153001,-0.0022009
-1.152001,-0.002191703
-1.151001,-0.002179441
-1.150001,-0.00217331
-1.149001,-0.002164114
-1.148001,-0.002154917
-1.147001,-0.002145721
-1.146001,-0.002133459
-1.145001,-0.002127328
-1.144001,-0.002121197
-1.143001,-0.002108935
-1.142001,-0.002099739
-1.141001,-0.002093608
-1.140001,-0.00207828
-1.139001,-0.002069084
-1.138001,-0.002066019
-1.137001,-0.002053756
-1.136001,-0.00204456
-1.135001,-0.002041495
-1.134001,-0.002026167
-1.133001,-0.002016971
-1.132001,-0.00201084
-1.131001,-0.001998578
-1.130001,-0.001992447
-1.129001,-0.001986316
-1.128001,-0.001974054
-1.127001,-0.001967923
-1.126001,-0.001958727
-1.125001,-0.001946465
-1.124001,-0.001940334
-1.123001,-0.001934203
-1.122001,-0.001921941
-1.121001,-0.00191581
-1.120001,-0.001906613
-1.119001,-0.001894351
-1.118001,-0.00188822
-1.117001,-0.00188209
-1.116001,-0.001869828
-1.115001,-0.001860631
-1.114001,-0.0018545
-1.113001,-0.001842238
-1.112001,-0.001833042
-1.111001,-0.001826911
-1.110001,-0.001814649
-1.109001,-0.001805453
-1.108001,-0.001796256
-1.107001,-0.001783994
-1.106001,-0.001774798
-1.105001,-0.001768667
-1.104001,-0.001753339
-1.103001,-0.001747208
-1.102001,-0.001738012
-1.101001,-0.00172575
-1.100001,-0.001716554
-1.099001,-0.001704292
-1.098001,-0.00169203
-1.097001,-0.001682833
-1.096001,-0.001670571
-1.095001,-0.001661375
-1.094001,-0.001652178
-1.093001,-0.001639916
-1.092001,-0.001627655
-1.091001,-0.001618458
-1.090001,-0.001606196
-1.089001,-0.001630519
-1.088001,-0.001622855
-1.087001,-0.001608141
-1.086001,-0.001595879
-1.085001,-0.001588828
-1.084001,-0.001573194
-1.083001,-0.001565224
-1.082001,-0.001556334
-1.081001,-0.001541926
-1.080001,-0.001533036
-1.079001,-0.00152384
-1.078001,-0.001510352
-1.077001,-0.001502075
-1.076001,-0.001491652
-1.075001,-0.001476938
-1.074001,-0.001470807
-1.073001,-0.001458239
-1.072001,-0.001445364
-1.071001,-0.001439232
-1.070001,-0.001428503
-1.069001,-0.001417161
-1.068001,-0.001410417
-1.067001,-0.001399075
-1.066001,-0.001389572
-1.065001,-0.001380375
-1.064001,-0.001373018
-1.063001,-0.00136045
-1.062001,-0.001350947
-1.061001,-0.001344203
-1.060001,-0.001330408
-1.059001,-0.001323664
-1.058001,-0.001315694
-1.057001,-0.001303738
-1.056001,-0.001297301
-1.055001,-0.001286878
-1.054001,-0.001277375
-1.053001,-0.001273696
-1.052001,-0.001259902
-1.051001,-0.001252851
-1.050001,-0.001247333
-1.049001,-0.001235684
-1.048001,-0.001229247
-1.047001,-0.001221277
-1.046001,-0.001211467
-1.045001,-0.001206256
-1.044001,-0.001196446
-1.043001,-0.001186637
-1.042001,-0.001181119
-1.041001,-0.001171616
-1.040001,-0.001165178
-1.039001,-0.001156288
-1.038001,-0.001149238
-1.037001,-0.001140348
-1.036001,-0.001133297
-1.035001,-0.001127473
-1.034001,-0.001117663
-1.033001,-0.001110919
-1.032001,-0.001106321
-1.031001,-0.001097431
-1.030001,-0.001087928
-1.029001,-0.001083943
-1.028001,-0.001075053
-1.027001,-0.001067696
-1.026001,-0.001062485
-1.025001,-0.001055128
-1.024001,-0.001045624
-1.023001,-0.0010398
-1.022001,-0.001033363
-1.021001,-0.001025086
-1.020001,-0.001016809
-1.019001,-0.001014357
-1.018001,-0.001005467
-1.017001,-0.0009968834
-1.016001,-0.0009932048
-1.015001,-0.0009852345
-1.014001,-0.0009778773
-1.013001,-0.0009735856
-1.012001,-0.0009646958
-1.011001,-0.0009567254
-1.010001,-0.0009527404
-1.009001,-0.000944157
-1.008001,-0.0009380261
-1.007001,-0.0009337344
-1.006001,-0.0009239248
-1.005001,-0.0009199397
-1.004001,-0.0009135022
-1.003001,-0.0009043057
-1.002001,-0.0009006272
-1.001001,-0.0008941896
-1.000001,-0.0008859128
-0.9990007,-0.0008819277
-0.9980007,-0.0008748771
-0.9970006,-0.0008666003
-0.9960006,-0.0008595497
-0.9950007,-0.0008549515
-0.9940007,-0.0008469812
-0.9930006,-0.0008411568
-0.9920006,-0.0008365586
-0.9910007,-0.0008273621
-0.9900007,-0.0008230705
-0.9890007,-0.0008163264
-0.9880006,-0.0008074365
-0.9870006,-0.0008034513
-0.9860007,-0.0007960942
-0.9850007,-0.0007878174
-0.9840007,-0.0007850585
-0.9830006,-0.0007761685
-0.9820006,-0.0007688114
-0.9810007,-0.0007654394
-0.9800007,-0.0007571626
-0.9790006,-0.0007510316
-0.9780006,-0.0007458202
-0.9770007,-0.0007357041
-0.9760007,-0.0007329452
-0.9750007,-0.0007258946
-0.9740006,-0.0007185375
-0.9730006,-0.0007121
-0.9720007,-0.0007062756
-0.9710007,-0.0006995315
-0.9700007,-0.0006937071
-0.9690006,-0.0006866565
-0.9680007,-0.0006805255
-0.9670007,-0.0006734749
-0.9660007,-0.0006685701
-0.9650006,-0.0006621326
-0.9640006,-0.0006547754
-0.9630007,-0.0006492576
-0.9620007,-0.0006419004
-0.9610007,-0.0006351563
-0.9600006,-0.0006302515
-0.9590006,-0.0006222813
-0.9580007,-0.0006158438
-0.9570007,-0.0006115522
-0.9560006,-0.0006023557
-0.9550006,-0.0005959182
-0.9540007,-0.0005931592
-0.9530007,-0.0005845759
-0.9520007,-0.0005799776
-0.9510006,-0.0005744598
-0.9500006,-0.0005646503
-0.9490007,-0.0005612782
-0.9480007,-0.0005545341
-0.9470007,-0.000547177
-0.9460006,-0.0005434984
-0.9450006,-0.0005358347
-0.9440007,-0.0005303168
-0.9430007,-0.0005251055
-0.9420006,-0.0005177484
-0.9410006,-0.0005128436
-0.9400007,-0.0005073257
-0.9390007,-0.0005015013
-0.9380007,-0.0004959835
-0.9370006,-0.0004889328
-0.9360006,-0.0004843346
-0.9350007,-0.0004782036
-0.9340007,-0.0004720727
-0.9330007,-0.0004665548
-0.9320006,-0.0004601173
-0.9310006,-0.0004570518
-0.9300007,-0.0004500012
-0.9290007,-0.0004460161
-0.9280006,-0.0004411113
-0.9270006,-0.0004337541
-0.9260007,-0.0004303821
-0.9250007,-0.0004251708
-0.9240007,-0.0004175071
-0.9230006,-0.0004150547
-0.9220006,-0.0004095368
-0.9210007,-0.0004024862
-0.9200007,-0.0003994207
-0.9190007,-0.0003951291
-0.9180006,-0.0003880784
-0.9170007,-0.0003859326
-0.9160007,-0.0003801082
-0.9150007,-0.00037551
-0.9140006,-0.0003715248
-0.9130006,-0.0003657004
-0.9120007,-0.0003601825
-0.9110007,-0.0003589563
-0.9100007,-0.0003519058
-0.9090006,-0.0003482272
-0.9080006,-0.0003433224
-0.9070007,-0.0003381111
-0.9060007,-0.0003350456
-0.9050006,-0.0003295277
-0.9040006,-0.0003255426
-0.9030007,-0.0003215575
-0.9020007,-0.0003163462
-0.9010007,-0.0003108283
-0.9000006,-0.0003074562
-0.8990006,-0.0003025515
-0.8980007,-0.0002985664
-0.8970007,-0.000293355
-0.8960007,-0.0002893699
-0.8950006,-0.0002850782
-0.8940006,-0.0002798669
-0.8930007,-0.0002758818
-0.8920007,-0.0002700574
-0.8910006,-0.0002660722
-0.8900006,-0.0002627002
-0.8890007,-0.000255343
-0.8880007,-0.0002522776
-0.8870007,-0.0002470662
-0.8860006,-0.0002406287
-0.8850006,-0.0002384829
-0.8840007,-0.0002314323
-0.8830007,-0.0002274471
-0.8820007,-0.0002237686
-0.8810006,-0.000217331
-0.8800007,-0.0002133459
-0.8790007,-0.0002087477
-0.8780007,-0.0002023102
-0.8770006,-0.0001992447
-0.8760006,-0.0001937268
-0.8750007,-0.000188209
-0.8740007,-0.0001845304
-0.8730007,-0.0001790125
-0.8720006,-0.0001734946
-0.8710006,-0.0001688964
-0.8700007,-0.0001639917
-0.8690007,-0.0001581672
-0.8680006,-0.0001538755
-0.8670006,-0.0001486642
-0.8660007,-0.0001428398
-0.8650007,-0.0001409497
-0.8640007,-0.0001359836
-0.8630006,-0.0001305577
-0.8620006,-0.0001260515
-0.8610007,-0.0001203497
-0.8600007,-0.0001145253
-0.8590007,-0.0001110306
-0.8580006,-0.0001047157
-0.8570006,-9.944309E-05
-0.8560007,-9.561123E-05
-0.8550007,-8.898979E-05
-0.8540006,-8.411567E-05
-0.8530006,-7.994661E-05
-0.8520007,-7.280405E-05
-0.8510007,-6.848171E-05
-0.8500007,-6.403676E-05
-0.8490006,-5.75686E-05
-0.8480006,-5.303168E-05
-0.8470007,-4.861738E-05
-0.8460007,-4.162809E-05
-0.8450007,-3.831736E-05
-0.8440006,-3.187985E-05
-0.8430007,-2.571823E-05
-0.8420007,-2.188638E-05
-0.8410007,-1.615392E-05
-0.8400006,-1.023754E-05
-0.8390006,-6.65093E-06
-0.8380007,1.167331E-09
-0.8370007,4.538082E-06
-0.8360007,8.645829E-06
-0.8350006,1.477679E-05
-0.8340006,1.952829E-05
-0.8330007,2.40652E-05
-0.8320007,3.028813E-05
-0.8310006,3.491702E-05
-0.8300006,3.89328E-05
-0.8290007,4.518638E-05
-0.8280007,4.999919E-05
-0.8270007,5.38617E-05
-0.8260006,6.017659E-05
-0.8250006,6.563315E-05
-0.8240007,6.860667E-05
-0.8230007,7.538139E-05
-0.8220007,8.050074E-05
-0.8210006,8.338229E-05
-0.8200006,9.018766E-05
-0.8190007,9.616536E-05
-0.8180007,9.867905E-05
-0.8170006,0.0001049633
-0.8160006,0.0001097761
-0.8150007,0.0001131175
-0.8140007,0.0001189112
-0.8130007,0.000123019
-0.8120006,0.0001269121
-0.8110006,0.0001327059
-0.8100007,0.0001367523
-0.8090007,0.0001400324
-0.8080007,0.0001454276
-0.8070006,0.0001493208
-0.8060006,0.0001529381
-0.8050007,0.000158364
-0.8040007,0.0001612762
-0.8030006,0.0001656598
-0.8020006,0.0001701661
-0.8010007,0.0001734155
-0.8000007,0.0001341773
-0.8009993,8.37808E-05
-0.8019994,4.411346E-05
-0.8029994,8.492554E-06
-0.8039994,-2.23462E-05
-0.8049994,-5.232662E-05
-0.8059993,-7.979335E-05
-0.8069994,-0.0001045931
-0.8079994,-0.0001283812
-0.8089994,-0.0001511271
-0.8099993,-0.0001724629
-0.8109994,-0.0001935227
-0.8119994,-0.0002132951
-0.8129994,-0.0002326383
-0.8139994,-0.000250694
-0.8149993,-0.0002675541
-0.8159994,-0.0002846289
-0.8169994,-0.0002988729
-0.8179994,-0.0003138937
-0.8189994,-0.0003301408
-0.8199994,-0.0003457748
-0.8209994,-0.0003580367
-0.8219994,-0.0003721379
-0.8229994,-0.0003871588
-0.8239993,-0.0003985011
-0.8249994,-0.0004129088
-0.8259994,-0.0004257839
-0.8269994,-0.0004371261
-0.8279994,-0.0004500012
-0.8289993,-0.0004619566
-0.8299994,-0.0004723792
-0.8309994,-0.0004846411
-0.8319994,-0.00049629
-0.8329993,-0.0005060995
-0.8339994,-0.0005180549
-0.8349994,-0.0005287841
-0.8359994,-0.0005385936
-0.8369994,-0.0005490163
-0.8379993,-0.0005585193
-0.8389994,-0.0005686354
-0.8399994,-0.0005793645
-0.8409994,-0.000588561
-0.8419994,-0.0005971444
-0.8429993,-0.0006066473
-0.8439994,-0.0006161503
-0.8449994,-0.0006250403
-0.8459994,-0.0006348498
-0.8469993,-0.0006431266
-0.8479994,-0.0006507903
-0.8489994,-0.000661213
-0.8499994,-0.0006691832
-0.8509994,-0.0006768469
-0.8519993,-0.000686963
-0.8529994,-0.0006946267
-0.8539994,-0.0007022904
-0.8549994,-0.0007117934
-0.8559994,-0.000718844
-0.8569994,-0.0007258946
-0.8579994,-0.0007360107
-0.8589994,-0.0007424483
-0.8599994,-0.0007510316
-0.8609993,-0.0007602281
-0.8619994,-0.0007666656
-0.8629994,-0.0007743293
-0.8639994,-0.000782606
-0.8649994,-0.000788737
-0.8659993,-0.0007973204
-0.8669994,-0.0008059037
-0.8679994,-0.0008120347
-0.8689994,-0.0008190853
-0.8699993,-0.0008279752
-0.8709994,-0.0008334931
-0.8719994,-0.000839624
-0.8729994,-0.0008500467
-0.8739994,-0.0008543384
-0.8749993,-0.0008629217
-0.8759994,-0.0008715051
-0.8769994,-0.0008764099
-0.8779994,-0.0008840736
-0.8789994,-0.0008917373
-0.8799993,-0.0008972551
-0.8809994,-0.0009055319
-0.8819994,-0.000912276
-0.8829994,-0.0009187135
-0.8839993,-0.0009260707
-0.8849994,-0.0009328147
-0.8859994,-0.0009395588
-0.8869994,-0.0009469159
-0.8879994,-0.0009527404
-0.8889993,-0.0009600975
-0.8899994,-0.0009668416
-0.8909994,-0.0009729725
-0.8919994,-0.0009800232
-0.8929994,-0.0009867672
-0.8939994,-0.0009935113
-0.8949994,-0.001000562
-0.8959994,-0.001006999
-0.8969994,-0.001012517
-0.8979993,-0.001020488
-0.8989994,-0.001026312
-0.8999994,-0.00103183
-0.9009994,-0.0010398
-0.9019994,-0.001046544
-0.9029993,-0.001051756
-0.9039994,-0.001059113
-0.9049994,-0.001065857
-0.9059994,-0.001071375
-0.9069993,-0.001078119
-0.9079994,-0.001086089
-0.9089994,-0.001090381
-0.9099994,-0.001096818
-0.9109994,-0.001105401
-0.9119993,-0.001109693
-0.9129994,-0.001116131
-0.9139994,-0.001124714
-0.9149994,-0.001129312
-0.9159994,-0.001135443
-0.9169993,-0.001143107
-0.9179994,-0.001148012
-0.9189994,-0.001153223
-0.9199994,-0.001160887
-0.9209993,-0.001167324
-0.9219994,-0.001173455
-0.9229994,-0.001179893
-0.9239994,-0.001186024
-0.9249994,-0.001191848
-0.9259993,-0.001198899
-0.9269994,-0.00120503
-0.9279994,-0.001210548
-0.9289994,-0.001219131
-0.9299994,-0.001223729
-0.9309993,-0.001229247
-0.9319994,-0.001237524
-0.9329994,-0.001242122
-0.9339994,-0.001249173
-0.9349993,-0.00125561
-0.9359994,-0.001261435
-0.9369994,-0.001268485
-0.9379994,-0.001274923
-0.9389994,-0.001279827
-0.9399993,-0.001288104
-0.9409994,-0.001293929
-0.9419994,-0.00130006
-0.9429994,-0.001307723
-0.9439994,-0.001311095
-0.9449994,-0.001319679
-0.9459994,-0.001327956
-0.9469994,-0.001332247
-0.9479994,-0.001338991
-0.9489993,-0.001348188
-0.9499994,-0.001351253
-0.9509994,-0.001359223
-0.9519994,-0.001365967
-0.9529994,-0.001372098
-0.9539993,-0.001379456
-0.9549994,-0.001387119
-0.9559994,-0.001392024
-0.9569994,-0.001399688
-0.9579993,-0.001407658
-0.9589994,-0.001412563
-0.9599994,-0.001419613
-0.9609994,-0.001429116
-0.9619994,-0.001433408
-0.9629993,-0.001440152
-0.9639994,-0.001449042
-0.9649994,-0.001452414
-0.9659994,-0.001461917
-0.9669994,-0.001469581
-0.9679993,-0.001474179
-0.9689994,-0.001483069
-0.9699994,-0.001490119
-0.9709994,-0.001495637
-0.9719993,-0.001504834
-0.9729994,-0.001511271
-0.9739994,-0.001517096
-0.9749994,-0.001525679
-0.9759994,-0.001533956
-0.9769993,-0.001539167
-0.9779994,-0.00154867
-0.9789994,-0.001555721
-0.9799994,-0.001561239
-0.9809994,-0.001570742
-0.9819994,-0.001577792
-0.9829994,-0.001585763
-0.9839994,-0.001593426
-0.9849994,-0.001599864
-0.9859993,-0.001607834
-0.9869994,-0.001615498
-0.9879994,-0.001622548
-0.9889994,-0.001630519
-0.9899994,-0.001638489
-0.9909993,-0.001645846
-0.9919994,-0.001655349
-0.9929994,-0.001662093
-0.9939994,-0.001668531
-0.9949993,-0.001677727
-0.9959994,-0.00168723
-0.9969994,-0.001692748
-0.9979994,-0.001702251
-0.9989994,-0.001707462
-0.9999993,-0.001715739
-1.000999,-0.001726468
-1.001999,-0.001733825
-1.002999,-0.00173965
-1.003999,-0.001750072
-1.004999,-0.001757123
-1.005999,-0.001764787
-1.006999,-0.001772757
-1.007999,-0.001780727
-1.008999,-0.001788085
-1.009999,-0.001796361
-1.010999,-0.001804945
-1.011999,-0.001812302
-1.012999,-0.001819046
-1.013999,-0.001829162
-1.014999,-0.001834373
-1.015999,-0.00184357
-1.016999,-0.001852153
-1.017999,-0.001857364
-1.018999,-0.001867787
-1.019999,-0.001875144
-1.020999,-0.001881582
-1.021999,-0.001892004
-1.022999,-0.001898748
-1.023999,-0.001907332
-1.024999,-0.001917448
-1.025999,-0.001922659
-1.026999,-0.001930936
-1.027999,-0.001940132
-1.028999,-0.00194657
-1.029999,-0.001954234
-1.030999,-0.001963123
-1.031999,-0.001969561
-1.032999,-0.001977225
-1.033999,-0.001984888
-1.034999,-0.001991939
-1.035999,-0.001998683
-1.036999,-0.002007573
-1.037999,-0.002014623
-1.038999,-0.002021674
-1.039999,-0.002028112
-1.040999,-0.002035775
-1.041999,-0.002042213
-1.042999,-0.002050183
-1.043999,-0.00205754
-1.044999,-0.002063978
-1.045999,-0.002070109
-1.046999,-0.00207624
-1.047999,-0.002085129
-1.048999,-0.002092793
-1.049999,-0.002097392
-1.050999,-0.002103829
-1.051999,-0.002112412
-1.052999,-0.002116704
-1.053999,-0.002124368
-1.054999,-0.002131418
-1.055999,-0.00213663
-1.056999,-0.002142454
-1.057999,-0.002151344
-1.058999,-0.002157168
-1.059999,-0.002162687
-1.060999,-0.002170963
-1.061999,-0.002178014
-1.062999,-0.00218016
-1.063999,-0.002189969
-1.064999,-0.00219702
-1.065999,-0.002201618
-1.066999,-0.002208362
-1.067999,-0.002216026
-1.068999,-0.00222277
-1.069999,-0.002228288
-1.070999,-0.002234112
-1.071999,-0.002242696
-1.072999,-0.002250053
-1.073999,-0.002254957
-1.074999,-0.002263234
-1.075999,-0.002272124
-1.076999,-0.002275803
-1.077999,-0.002283773
-1.078999,-0.002292356
-1.079999,-0.002296648
-1.080999,-0.002304925
-1.081999,-0.002315347
-1.082999,-0.002318719
-1.083999,-0.002326383
-1.084999,-0.002337112
-1.085999,-0.002341404
-1.086999,-0.0023506
-1.087999,-0.002358877
-1.088999,-0.002365315
-1.089999,-0.002372672
-1.090999,-0.002382788
-1.091999,-0.002390145
-1.092999,-0.002397502
-1.093999,-0.002409764
-1.094999,-0.002414669
-1.095999,-0.002422946
-1.096999,-0.002434901
-1.097999,-0.00243858
-1.098999,-0.002453294
-1.099999,-0.002460651
-1.100999,-0.002465863
-1.101999,-0.002478431
-1.102999,-0.002487015
-1.103999,-0.002492532
-1.104999,-0.002504794
-1.105999,-0.002512151
-1.106999,-0.002521348
-1.107999,-0.002532077
-1.108999,-0.002536982
-1.109999,-0.002546178
-1.110999,-0.002555681
-1.111999,-0.002560892
-1.112999,-0.002572235
-1.113999,-0.002581738
-1.114999,-0.002583884
-1.115999,-0.002594613
-1.116999,-0.002598905
-1.117999,-0.002605649
-1.118999,-0.002612393
-1.119999,-0.00261883
-1.120999,-0.002622202
-1.121999,-0.002630479
-1.122999,-0.002632012
-1.123999,-0.002635384
-1.124999,-0.002641821
-1.125999,-0.0026455
-1.126999,-0.002647952
-1.127999,-0.002653164
-1.128999,-0.002654696
-1.129999,-0.002656229
-1.130999,-0.002659908
-1.131999,-0.002660214
-1.132999,-0.002663893
-1.133999,-0.002666958
-1.134999,-0.002667571
-1.135999,-0.002667878
-1.136999,-0.002672783
-1.137999,-0.002672783
-1.138999,-0.002674315
-1.139999,-0.002677994
-1.140999,-0.002675541
-1.141999,-0.002679833
-1.142999,-0.002684431
-1.143999,-0.002678914
-1.144999,-0.002687804
-1.145999,-0.002689643
-1.146999,-0.002685045
-1.147999,-0.002694241
-1.148999,-0.002695161
-1.149999,-0.002691482
-1.150999,-0.002700065
-1.151999,-0.002700065
-1.152999,-0.002699452
-1.153999,-0.002706809
-1.154999,-0.002708036
-1.155999,-0.002708036
-1.156999,-0.002715393
-1.157999,-0.002713247
-1.158999,-0.002717845
-1.159999,-0.00272367
-1.160999,-0.00272275
-1.161999,-0.002726429
-1.162999,-0.002733173
-1.163999,-0.002735319
-1.164999,-0.002737158
-1.165999,-0.002743902
-1.166999,-0.002743902
-1.167999,-0.00274758
-1.168999,-0.002757084
-1.169999,-0.002758003
-1.170999,-0.002761682
-1.171999,-0.002769652
-1.172999,-0.002771491
-1.173999,-0.002775476
-1.174999,-0.00278406
-1.175999,-0.002785592
-1.176999,-0.002791417
-1.177999,-0.002800307
-1.178999,-0.002800613
-1.179999,-0.002809503
-1.180999,-0.00281686
-1.181999,-0.002817167
-1.182999,-0.002828509
-1.183999,-0.002833721
-1.184999,-0.002836786
-1.185999,-0.002848741
-1.186999,-0.002852726
-1.187999,-0.002860084
-1.188999,-0.002871426
-1.189999,-0.002875718
-1.190999,-0.002882155
-1.191999,-0.002893804
-1.192999,-0.002901774
-1.193999,-0.002906373
-1.194999,-0.00291986
-1.195999,-0.002923539
-1.196999,-0.002936108
-1.197999,-0.00294837
-1.198999,-0.002955114
-1.199999,-0.002961244
-1.200999,-0.002977185
-1.201999,-0.002983623
-1.202999,-0.002993125
-1.203999,-0.003005694
-1.204999,-0.002979532
-1.205999,-0.002982598
-1.206999,-0.003000991
-1.207999,-0.003010187
-1.208999,-0.003019383
-1.209999,-0.003034711
-1.210999,-0.003043907
-1.211999,-0.003053104
-1.212999,-0.003068431
-1.213999,-0.003077628
-1.214999,-0.003092955
-1.215999,-0.003105217
-1.216999,-0.003120545
-1.217999,-0.003129741
-1.218999,-0.003142003
-1.219999,-0.003160396
-1.220999,-0.003169592
-1.221999,-0.003187985
-1.222999,-0.003200247
-1.223999,-0.003209443
-1.224999,-0.003233967
-1.225999,-0.003246229
-1.226999,-0.003258491
-1.227999,-0.003283015
-1.228999,-0.003295277
-1.229999,-0.003310604
-1.230999,-0.003332063
-1.231999,-0.003344325
-1.232999,-0.003362718
-1.233999,-0.003387242
-1.234999,-0.003396438
-1.235999,-0.003420962
-1.236999,-0.003445486
-1.237999,-0.003457748
-1.238999,-0.003482271
-1.239999,-0.003506796
-1.240999,-0.003522123
-1.241999,-0.003549712
-1.242999,-0.003574236
-1.243999,-0.003592629
-1.244999,-0.003620218
-1.245999,-0.003647808
-1.246999,-0.0036662
-1.247999,-0.003699921
-1.248999,-0.003730575
-1.249999,-0.003752034
-1.250999,-0.003785754
-1.251999,-0.003819474
-1.252999,-0.003843998
-1.253999,-0.003880784
-1.254999,-0.00391757
-1.255999,-0.003948225
-1.256999,-0.003988076
-1.257999,-0.004027927
-1.258999,-0.004064713
-1.259999,-0.00410763
-1.260999,-0.004153612
-1.261999,-0.004190398
-1.262999,-0.004239446
-1.263999,-0.004291559
-1.264999,-0.004337541
-1.265999,-0.004389654
-1.266999,-0.004447898
-1.267999,-0.004496946
-1.268999,-0.004558256
-1.269999,-0.004622631
-1.270999,-0.004680875
-1.271999,-0.004748316
-1.272999,-0.004821887
-1.273999,-0.004886262
-1.274999,-0.0049629
-1.275999,-0.005045668
-1.276999,-0.005122304
-1.277999,-0.005208138
-1.278999,-0.005300103
-1.279999,-0.005385936
-1.280999,-0.005487097
-1.281999,-0.005588258
-1.282999,-0.005686353
-1.283999,-0.00579671
-1.284999,-0.005910133
-1.285999,-0.006023556
-1.286999,-0.006146176
-1.287999,-0.006271861
-1.288999,-0.006403676
-1.289999,-0.006538557
-1.290999,-0.00667957
-1.291999,-0.006823647
-1.292999,-0.006976922
-1.293999,-0.007136327
-1.294999,-0.007301863
-1.295999,-0.007470464
-1.296999,-0.007642131
-1.297999,-0.007822994
-1.298999,-0.008013055
-1.299999,-0.008209245
-1.300999,-0.008402371
-1.301999,-0.008607758
-1.302999,-0.008822342
-1.303999,-0.009033861
-1.304999,-0.009257641
-1.305999,-0.009484487
-1.306999,-0.009711332
-1.307999,-0.00995657
-1.308999,-0.01019568
-1.309999,-0.01044092
-1.310999,-0.01070148
-1.311999,-0.01095592
-1.312999,-0.01121955
-1.313999,-0.01149238
-1.314999,-0.01176214
-1.315999,-0.0120411
-1.316999,-0.01232619
-1.317999,-0.01261434
-1.318999,-0.01290557
-1.319999,-0.01320598
-1.320999,-0.01350947
-1.321999,-0.01381295
-1.322999,-0.01412563
-1.323999,-0.01444137
-1.324999,-0.01474792
-1.325999,-0.01507286
-1.326999,-0.01539167
-1.327999,-0.01570742
-1.328999,-0.01605075
-1.329999,-0.01638795
-1.330999,-0.01672516
-1.331999,-0.01706849
-1.332999,-0.01741182
-1.333999,-0.01773983
-1.334999,-0.01809849
-1.335999,-0.01843876
-1.336999,-0.0187821
-1.337999,-0.01913463
-1.338999,-0.01948409
-1.339999,-0.01983969
-1.340999,-0.02019835
-1.341999,-0.02055394
-1.342999,-0.0209218
-1.343999,-0.02129272
-1.344999,-0.02165445
-1.345999,-0.02202844
-1.346999,-0.0223871
-1.347999,-0.02274576
-1.348999,-0.02312282
-1.349999,-0.02349681
-1.350999,-0.02385547
-1.351999,-0.02422946
-1.352999,-0.02461877
-1.353999,-0.02499276
-1.354999,-0.02536982
-1.355999,-0.0257622
-1.356999,-0.02613925
-1.357999,-0.02651937
-1.358999,-0.02691482
-1.359999,-0.02729494
-1.360999,-0.02768426
-1.361999,-0.0280797
-1.362999,-0.02847208
-1.363999,-0.0288522
-1.364999,-0.02924459
-1.365999,-0.02963084
-1.366999,-0.03001709
-1.367999,-0.03042786
-1.368999,-0.03092955
-1.369999,-0.03129741
-1.370999,-0.03172658
-1.371999,-0.03209443
-1.372999,-0.0325236
-1.373999,-0.03292212
-1.374999,-0.03332063
-1.375999,-0.03371914
-1.376999,-0.03411765
-1.377999,-0.03451617
-1.378999,-0.03491468
-1.379999,-0.03534385
-1.380999,-0.03574236
-1.381999,-0.03614087
-1.382999,-0.03657004
-1.383999,-0.03696856
-1.384999,-0.03736707
-1.385999,-0.03776558
-1.386999,-0.03819475
-1.387999,-0.03859326
-1.388999,-0.03899177
-1.389999,-0.03942094
-1.390999,-0.03981945
-1.391999,-0.04024862
-1.392999,-0.04067779
-1.393999,-0.0410763
-1.394999,-0.04147482
-1.395999,-0.04190398
-1.396999,-0.04233315
-1.397999,-0.04273166
-1.398999,-0.04316083
-1.399999,-0.04355934
-1.400999,-0.04398851
-1.401999,-0.04441768
-1.402999,-0.04481619
-1.403999,-0.0452147
-1.404999,-0.04564387
-1.405999,-0.04607304
-1.406999,-0.04647155
-1.407999,-0.04690072
-1.408999,-0.04729923
-1.409999,-0.04775905
-1.410999,-0.04815757
-1.411999,-0.04858673
-1.412999,-0.0490159
-1.413999,-0.04947572
-1.414999,-0.04987423
-1.415999,-0.0503034
-1.416999,-0.05073257
-1.417999,-0.05113108
-1.418999,-0.05156025
-1.419999,-0.05202007
-1.420999,-0.05241859
-1.421999,-0.05284775
-1.422999,-0.05327692
-1.423999,-0.05370609
-1.424999,-0.05413526
-1.425999,-0.05453377
-1.426999,-0.05499359
-1.427999,-0.05542276
-1.428999,-0.05585193
-1.429999,-0.0562811
-1.430999,-0.05671026
-1.431999,-0.05713943
-1.432999,-0.05759925
-1.433999,-0.05799776
-1.434999,-0.05842693
-1.435999,-0.0588561
-1.436999,-0.05931592
-1.437999,-0.05971443
-1.438999,-0.06017426
-1.439999,-0.06060342
-1.440999,-0.06100194
-1.441999,-0.06146176
-1.442999,-0.06189093
-1.443999,-0.06228944
-1.444999,-0.06274926
-1.445999,-0.06317843
-1.446999,-0.0636076
-1.447999,-0.06406742
-1.448999,-0.06452724
-1.449999,-0.06492575
-1.450999,-0.06538557
-1.451999,-0.06581475
-1.452999,-0.06621326
-1.453999,-0.06670374
-1.454999,-0.06713291
-1.455999,-0.06756207
-1.456999,-0.06799124
-1.457999,-0.0684204
-1.458999,-0.06884957
-1.459999,-0.0693094
-1.460999,-0.06973856
-1.461999,-0.07016773
-1.462999,-0.07062756
-1.463999,-0.07102606
-1.464999,-0.07148589
-1.465999,-0.07194571
-1.466999,-0.07234422
-1.467999,-0.07280405
-1.468999,-0.07326387
-1.469999,-0.07369304
-1.470999,-0.07412221
-1.471999,-0.07458203
-1.472999,-0.07501119
-1.473999,-0.07544036
-1.474999,-0.07586952
-1.475999,-0.07632935
-1.476999,-0.07675852
-1.477999,-0.07721835
-1.478999,-0.07761686
-1.479999,-0.07807668
-1.480999,-0.0785365
-1.481999,-0.07896566
-1.482999,-0.07939483
-1.483999,-0.07985466
-1.484999,-0.08031448
-1.485999,-0.08074365
-1.486999,-0.08120347
-1.487999,-0.08163264
-1.488999,-0.08209246
-1.489999,-0.08255228
-1.490999,-0.08298145
-1.491999,-0.08344127
-1.492999,-0.08390109
-1.493999,-0.08433026
-1.494999,-0.08479008
-1.495999,-0.08521925
-1.496999,-0.08564842
-1.497999,-0.08610824
-1.498999,-0.08653741
-1.499999,-0.08669069
-1.499001,-0.08623086
-1.498001,-0.08577104
-1.497001,-0.08534187
-1.496001,-0.0849127
-1.495001,-0.08445288
-1.494001,-0.08399305
-1.493001,-0.08353323
-1.492001,-0.08310407
-1.491001,-0.08261359
-1.490001,-0.08218443
-1.489001,-0.0817246
-1.488001,-0.08123412
-1.487001,-0.08080496
-1.486001,-0.08031448
-1.485001,-0.07988531
-1.484001,-0.07939483
-1.483001,-0.07896566
-1.482001,-0.07850584
-1.481001,-0.07804602
-1.480001,-0.0775862
-1.479001,-0.07715704
-1.478001,-0.07672786
-1.477001,-0.07626804
-1.476001,-0.07580822
-1.475001,-0.0753484
-1.474001,-0.07491923
-1.473001,-0.07449006
-1.472001,-0.07403024
-1.471001,-0.07357042
-1.470001,-0.07314125
-1.469001,-0.07268143
-1.468001,-0.0722216
-1.467001,-0.07176178
-1.466001,-0.07133261
-1.465001,-0.07090344
-1.464001,-0.07044362
-1.463001,-0.07001445
-1.462001,-0.06952398
-1.461001,-0.06912547
-1.460001,-0.06863499
-1.459001,-0.06817517
-1.458001,-0.06780731
-1.457001,-0.06734749
-1.456001,-0.06688767
-1.455001,-0.06645849
-1.454001,-0.06596802
-1.453001,-0.06556951
-1.452001,-0.06514034
-1.451001,-0.06468052
-1.450001,-0.06419004
-1.449001,-0.06379153
-1.448001,-0.06336236
-1.447001,-0.06290253
-1.446001,-0.06247337
-1.445001,-0.0620442
-1.444001,-0.06158438
-1.443001,-0.06118587
-1.442001,-0.06072604
-1.441001,-0.06029687
-1.440001,-0.05986771
-1.439001,-0.05940789
-1.438001,-0.05897872
-1.437001,-0.05854955
-1.436001,-0.05808973
-1.435001,-0.05766056
-1.434001,-0.05723139
-1.433001,-0.05680222
-1.432001,-0.05637306
-1.431001,-0.05594389
-1.430001,-0.05548407
-1.429001,-0.05508556
-1.428001,-0.05462573
-1.427001,-0.05419657
-1.426001,-0.05376739
-1.425001,-0.05333823
-1.424001,-0.05287841
-1.423001,-0.05244924
-1.422001,-0.05202007
-1.421001,-0.05162156
-1.420001,-0.05119239
-1.419001,-0.05076323
-1.418001,-0.05033405
-1.417001,-0.04993555
-1.416001,-0.04950638
-1.415001,-0.04904656
-1.414001,-0.04864804
-1.413001,-0.04821887
-1.412001,-0.0477897
-1.411001,-0.04739119
-1.410001,-0.04696203
-1.409001,-0.04653286
-1.408001,-0.04613435
-1.407001,-0.04570518
-1.406001,-0.04527601
-1.405001,-0.0448775
-1.404001,-0.04444833
-1.403001,-0.04404982
-1.402001,-0.04365131
-1.401001,-0.04322214
-1.400001,-0.04282362
-1.399001,-0.04239446
-1.398001,-0.04199595
-1.397001,-0.04159743
-1.396001,-0.04116827
-1.395001,-0.04076975
-1.394001,-0.04034058
-1.393001,-0.03994207
-1.392001,-0.03954356
-1.391001,-0.03914505
-1.390001,-0.03874653
-1.389001,-0.03831736
-1.388001,-0.03791885
-1.387001,-0.037551
-1.386001,-0.03712183
-1.385001,-0.03675397
-1.384001,-0.03635546
-1.383001,-0.03595695
-1.382001,-0.03552778
-1.381001,-0.03515992
-1.380001,-0.03473075
-1.379001,-0.03436289
-1.378001,-0.03396438
-1.377001,-0.03356587
-1.376001,-0.03319801
-1.375001,-0.0327995
-1.374001,-0.03240098
-1.373001,-0.03200247
-1.372001,-0.03163461
-1.371001,-0.0312361
-1.370001,-0.03086824
-1.369001,-0.03046973
-1.368001,-0.03010187
-1.367001,-0.02976467
-1.366001,-0.02936616
-1.365001,-0.0289983
-1.364001,-0.02863044
-1.363001,-0.02823193
-1.362001,-0.02786407
-1.361001,-0.02749621
-1.360001,-0.02712835
-1.359001,-0.02672984
-1.358001,-0.02642329
-1.357001,-0.02605543
-1.356001,-0.02568758
-1.355001,-0.02531972
-1.354001,-0.02495186
-1.353001,-0.024584
-1.352001,-0.0242468
-1.351001,-0.02387894
-1.350001,-0.02354174
-1.349001,-0.02320454
-1.348001,-0.02286733
-1.347001,-0.02249948
-1.346001,-0.02219293
-1.345001,-0.02185572
-1.344001,-0.02151852
-1.343001,-0.02118132
-1.342001,-0.02081346
-1.341001,-0.02047626
-1.340001,-0.02013905
-1.339001,-0.0198325
-1.338001,-0.0194953
-1.337001,-0.01918875
-1.336001,-0.01885155
-1.335001,-0.018545
-1.334001,-0.01823845
-1.333001,-0.01793191
-1.332001,-0.0175947
-1.331001,-0.01728815
-1.330001,-0.01698161
-1.329001,-0.01667506
-1.328001,-0.01636851
-1.327001,-0.01609262
-1.326001,-0.01590974
-1.325001,-0.01562465
-1.324001,-0.01533649
-1.323001,-0.0150514
-1.322001,-0.01476938
-1.321001,-0.01448122
-1.320001,-0.01421453
-1.319001,-0.01394476
-1.318001,-0.01367194
-1.317001,-0.01341444
-1.316001,-0.01316
-1.315001,-0.01289943
-1.314001,-0.01265113
-1.313001,-0.01240589
-1.312001,-0.01216065
-1.311001,-0.01192461
-1.310001,-0.01168244
-1.309001,-0.01144946
-1.308001,-0.01122261
-1.307001,-0.0109927
-1.306001,-0.01075973
-1.305001,-0.01054821
-1.304001,-0.01033363
-1.303001,-0.01011598
-1.302001,-0.009913653
-1.301001,-0.009708267
-1.300001,-0.009502879
-1.299001,-0.009309754
-1.298001,-0.009110497
-1.297001,-0.008920438
-1.296001,-0.008739574
-1.295001,-0.00855258
-1.294001,-0.008371716
-1.293001,-0.008203114
-1.292001,-0.008031447
-1.291001,-0.007865911
-1.290001,-0.007706506
-1.289001,-0.007550166
-1.288001,-0.007396893
-1.287001,-0.007243618
-1.286001,-0.00709954
-1.285001,-0.006952398
-1.284001,-0.006817516
-1.283001,-0.00667957
-1.282001,-0.006550819
-1.281001,-0.006422069
-1.280001,-0.006296384
-1.279001,-0.006173765
-1.278001,-0.006057276
-1.277001,-0.005946919
-1.276001,-0.005833496
-1.275001,-0.005726204
-1.274001,-0.005625044
-1.273001,-0.005517752
-1.272001,-0.005422722
-1.271001,-0.005327692
-1.270001,-0.005232662
-1.269001,-0.005146828
-1.268001,-0.00505793
-1.267001,-0.004972096
-1.266001,-0.004895459
-1.265001,-0.004815756
-1.264001,-0.004739119
-1.263001,-0.004668613
-1.262001,-0.004598107
-1.261001,-0.004524535
-1.260001,-0.004463226
-1.259001,-0.004401916
-1.258001,-0.004340607
-1.257001,-0.004282362
-1.256001,-0.004221053
-1.255001,-0.004165874
-1.254001,-0.004113761
-1.253001,-0.004058582
-1.252001,-0.004009534
-1.251001,-0.003966617
-1.250001,-0.003911439
-1.249001,-0.003868522
-1.248001,-0.003825605
-1.247001,-0.003779623
-1.246001,-0.003742838
-1.245001,-0.003702986
-1.244001,-0.003657004
-1.243001,-0.003623284
-1.242001,-0.003589563
-1.241001,-0.003549712
-1.240001,-0.003522123
-1.239001,-0.003485337
-1.238001,-0.003454682
-1.237001,-0.003424027
-1.236001,-0.003393373
-1.235001,-0.003359652
-1.234001,-0.003338194
-1.233001,-0.003307539
-1.232001,-0.003276884
-1.231001,-0.00325236
-1.230001,-0.003224771
-1.229001,-0.003197182
-1.228001,-0.003175723
-1.227001,-0.003151199
-1.226001,-0.003126675
-1.225001,-0.003105217
-1.224001,-0.003083759
-1.223001,-0.003059235
-1.222001,-0.003037777
-1.221001,-0.003019383
-1.220001,-0.002997925
-1.219001,-0.002973401
-1.218001,-0.002961139
-1.217001,-0.00293355
-1.216001,-0.002918222
-1.215001,-0.002902895
-1.214001,-0.002881437
-1.213001,-0.002859978
-1.212001,-0.002844651
-1.211001,-0.002826258
-1.210001,-0.002813996
-1.209001,-0.002795603
-1.208001,-0.00277721
-1.207001,-0.002764949
-1.206001,-0.00274349
-1.205001,-0.002731228
-1.204001,-0.002718966
-1.203001,-0.002697508
-1.202001,-0.002691377
-1.201001,-0.002676049
-1.200001,-0.002654591
-1.199001,-0.002642329
-1.198001,-0.002630068
-1.197001,-0.00261474
-1.196001,-0.002602478
-1.195001,-0.002590216
-1.194001,-0.002574889
-1.193001,-0.002562626
-1.192001,-0.002550365
-1.191001,-0.002535037
-1.190001,-0.002522775
-1.189001,-0.002513579
-1.188001,-0.002498251
-1.187001,-0.00248599
-1.186001,-0.002476793
-1.185001,-0.002461466
-1.184001,-0.002449204
-1.183001,-0.002440007
-1.182001,-0.002427745
-1.181001,-0.002412418
-1.180001,-0.002403222
-1.179001,-0.002394025
-1.178001,-0.002381763
-1.177001,-0.002372567
-1.176001,-0.002360305
-1.175001,-0.002348043
-1.174001,-0.002338846
-1.173001,-0.002326585
-1.172001,-0.002314323
-1.171001,-0.002305126
-1.170001,-0.00229593
-1.169001,-0.002283668
-1.168001,-0.002274471
-1.167001,-0.002265275
-1.166001,-0.002249948
-1.165001,-0.002243817
-1.164001,-0.00223462
-1.163001,-0.002219293
-1.162001,-0.002213162
-1.161001,-0.002203965
-1.160001,-0.002191703
-1.159001,-0.002182507
-1.158001,-0.00217331
-1.157001,-0.002161048
-1.156001,-0.002148786
-1.155001,-0.002145721
-1.154001,-0.002130394
-1.153001,-0.002124263
-1.152001,-0.002115066
-1.151001,-0.002099739
-1.150001,-0.002093608
-1.149001,-0.002084411
-1.148001,-0.002072149
-1.147001,-0.002066019
-1.146001,-0.002056822
-1.145001,-0.00204456
-1.144001,-0.002038429
-1.143001,-0.002026167
-1.142001,-0.002016971
-1.141001,-0.00201084
-1.140001,-0.001998578
-1.139001,-0.001989381
-1.138001,-0.00198325
-1.137001,-0.001970988
-1.136001,-0.001961792
-1.135001,-0.001955661
-1.134001,-0.001943399
-1.133001,-0.001940334
-1.132001,-0.001928072
-1.131001,-0.001912744
-1.130001,-0.001909679
-1.129001,-0.001903548
-1.128001,-0.00188822
-1.127001,-0.001885155
-1.126001,-0.001872893
-1.125001,-0.001863697
-1.124001,-0.001857566
-1.123001,-0.001848369
-1.122001,-0.001839173
-1.121001,-0.001829976
-1.120001,-0.001823845
-1.119001,-0.001811583
-1.118001,-0.001802387
-1.117001,-0.001796256
-1.116001,-0.00178706
-1.115001,-0.001780929
-1.114001,-0.001768667
-1.113001,-0.001756405
-1.112001,-0.001750274
-1.111001,-0.001738012
-1.110001,-0.001728815
-1.109001,-0.001722684
-1.108001,-0.001710422
-1.107001,-0.001701226
-1.106001,-0.00169203
-1.105001,-0.001682833
-1.104001,-0.001670571
-1.103001,-0.001661375
-1.102001,-0.001652178
-1.101001,-0.001639916
-1.100001,-0.00163072
-1.099001,-0.001618458
-1.098001,-0.001609262
-1.097001,-0.001600065
-1.096001,-0.001623468
-1.095001,-0.001613045
-1.094001,-0.001602929
-1.093001,-0.001593733
-1.092001,-0.001578099
-1.091001,-0.001573194
-1.090001,-0.001562772
-1.089001,-0.001546831
-1.088001,-0.001540087
-1.087001,-0.001528745
-1.086001,-0.001516483
-1.085001,-0.001507899
-1.084001,-0.001495024
-1.083001,-0.001486134
-1.082001,-0.001475712
-1.081001,-0.001463143
-1.080001,-0.00145364
-1.079001,-0.001442605
-1.078001,-0.001432489
-1.077001,-0.001422372
-1.076001,-0.001410417
-1.075001,-0.001401834
-1.074001,-0.001389878
-1.073001,-0.001383134
-1.072001,-0.001373018
-1.071001,-0.001359223
-1.070001,-0.001352786
-1.069001,-0.00134175
-1.068001,-0.001330101
-1.067001,-0.001322131
-1.066001,-0.001312628
-1.065001,-0.001304045
-1.064001,-0.001294235
-1.063001,-0.001284732
-1.062001,-0.001276149
-1.061001,-0.001266646
-1.060001,-0.001258063
-1.059001,-0.001251012
-1.058001,-0.001241509
-1.057001,-0.001229553
-1.056001,-0.001224342
-1.055001,-0.001213613
-1.054001,-0.00120411
-1.053001,-0.001200738
-1.052001,-0.001187863
-1.051001,-0.001182958
-1.050001,-0.001178053
-1.049001,-0.001164565
-1.048001,-0.001159967
-1.047001,-0.001151997
-1.046001,-0.001140348
-1.045001,-0.001136363
-1.044001,-0.001127473
-1.043001,-0.001117357
-1.042001,-0.001112452
-1.041001,-0.001105095
-1.040001,-0.001095285
-1.039001,-0.001090074
-1.038001,-0.001082104
-1.037001,-0.001072601
-1.036001,-0.00106647
-1.035001,-0.001061258
-1.034001,-0.001051142
-1.033001,-0.001047464
-1.032001,-0.001040107
-1.031001,-0.00103091
-1.030001,-0.001025086
-1.029001,-0.001017116
-1.028001,-0.001009452
-1.027001,-0.001005467
-1.026001,-0.0009959637
-1.025001,-0.0009895262
-1.024001,-0.0009830886
-1.023001,-0.000976038
-1.022001,-0.0009683743
-1.021001,-0.0009646958
-1.020001,-0.0009558058
-1.019001,-0.0009484487
-1.018001,-0.0009435439
-1.017001,-0.0009349606
-1.016001,-0.0009282165
-1.015001,-0.0009236183
-1.014001,-0.0009153415
-1.013001,-0.000908904
-1.012001,-0.0009033861
-1.011001,-0.0008972551
-1.010001,-0.0008902045
-1.009001,-0.0008831539
-1.008001,-0.0008776361
-1.007001,-0.0008699723
-1.006001,-0.0008644544
-1.005001,-0.0008589366
-1.004001,-0.000849127
-1.003001,-0.0008445288
-1.002001,-0.0008402371
-1.001001,-0.00083288
-1.000001,-0.0008270555
-0.9990008,-0.0008212312
-0.9980009,-0.0008141805
-0.9970009,-0.0008086627
-0.9960009,-0.0008013055
-0.9950009,-0.0007954811
-0.9940009,-0.0007893501
-0.9930009,-0.0007832192
-0.9920009,-0.0007770882
-0.9910009,-0.00077249
-0.9900008,-0.0007620673
-0.9890009,-0.0007599215
-0.9880009,-0.0007519512
-0.9870009,-0.0007433679
-0.9860009,-0.000740609
-0.9850008,-0.0007329452
-0.9840009,-0.0007268143
-0.9830009,-0.0007237488
-0.9820009,-0.0007142458
-0.9810008,-0.0007087279
-0.9800009,-0.0007038232
-0.9790009,-0.0006958529
-0.9780009,-0.0006909482
-0.9770009,-0.0006857368
-0.9760008,-0.0006799124
-0.9750009,-0.0006722487
-0.9740009,-0.0006670374
-0.9730009,-0.0006609064
-0.9720009,-0.0006532427
-0.9710009,-0.0006492576
-0.9700009,-0.0006409807
-0.9690009,-0.000636076
-0.9680009,-0.0006320909
-0.9670008,-0.0006225879
-0.9660009,-0.0006164569
-0.9650009,-0.0006130849
-0.9640009,-0.000604195
-0.9630009,-0.0005986771
-0.9620008,-0.0005940789
-0.9610009,-0.0005839628
-0.9600009,-0.0005805907
-0.9590009,-0.0005769122
-0.9580009,-0.0005658764
-0.9570009,-0.0005649568
-0.9560009,-0.0005575996
-0.9550009,-0.0005484032
-0.9540009,-0.0005456443
-0.9530008,-0.0005395133
-0.9520009,-0.0005318496
-0.9510009,-0.0005293972
-0.9500009,-0.0005226531
-0.9490009,-0.0005152959
-0.9480008,-0.0005100847
-0.9470009,-0.0005054864
-0.9460009,-0.0004990489
-0.9450009,-0.0004947572
-0.9440009,-0.0004892393
-0.9430009,-0.0004831084
-0.9420009,-0.0004778971
-0.9410009,-0.0004717661
-0.9400009,-0.0004665548
-0.9390008,-0.0004619566
-0.9380009,-0.0004558256
-0.9370009,-0.0004515339
-0.9360009,-0.0004463226
-0.9350009,-0.0004395786
-0.9340008,-0.0004352869
-0.9330009,-0.0004300755
-0.9320009,-0.0004227184
-0.9310009,-0.000420266
-0.9300008,-0.0004147482
-0.9290009,-0.000407391
-0.9280009,-0.0004030993
-0.9270009,-0.0003988076
-0.9260009,-0.0003911439
-0.9250008,-0.0003868522
-0.9240009,-0.0003828671
-0.9230009,-0.0003779623
-0.9220009,-0.0003715248
-0.9210009,-0.0003657004
-0.9200009,-0.0003617153
-0.9190009,-0.0003561974
-0.9180009,-0.0003528254
-0.9170009,-0.000347001
-0.9160008,-0.0003424028
-0.9150009,-0.0003378045
-0.9140009,-0.0003322866
-0.9130009,-0.0003258491
-0.9120009,-0.0003221706
-0.9110008,-0.000318492
-0.9100009,-0.0003135872
-0.9090009,-0.0003086824
-0.9080009,-0.000302858
-0.9070009,-0.000299486
-0.9060009,-0.0002939681
-0.9050009,-0.0002893699
-0.9040009,-0.0002859978
-0.9030009,-0.0002798669
-0.9020008,-0.0002752687
-0.9010009,-0.0002712836
-0.9000009,-0.0002645395
-0.8990009,-0.000261474
-0.8980009,-0.000258102
-0.8970008,-0.0002507448
-0.8960009,-0.0002473728
-0.8950009,-0.0002421615
-0.8940009,-0.0002369501
-0.8930008,-0.0002335781
-0.8920009,-0.0002280602
-0.8910009,-0.0002210096
-0.8900009,-0.0002179441
-0.8890009,-0.0002124263
-0.8880008,-0.0002081346
-0.8870009,-0.0002026167
-0.8860009,-0.0001980185
-0.8850009,-0.0001928072
-0.8840009,-0.0001869828
-0.8830009,-0.0001829976
-0.8820009,-0.0001777863
-0.8810009,-0.0001716554
-0.8800009,-0.0001679768
-0.8790008,-0.0001627655
-0.8780009,-0.0001566345
-0.8770009,-0.0001523428
-0.8760009,-0.0001465184
-0.8750009,-0.0001437087
-0.8740008,-0.0001397848
-0.8730009,-0.0001339298
-0.8720009,-0.0001289637
-0.8710009,-0.0001238137
-0.8700009,-0.0001184184
-0.8690009,-0.0001137282
-0.8680009,-0.0001067696
-0.8670009,-0.0001022327
-0.8660009,-9.726659E-05
-0.8650008,-9.294426E-05
-0.8640009,-8.653741E-05
-0.8630009,-8.230704E-05
-0.8620009,-7.700375E-05
-0.8610009,-7.120999E-05
-0.8600008,-6.498706E-05
-0.8590009,-6.14311E-05
-0.8580009,-5.526948E-05
-0.8570009,-4.956769E-05
-0.8560008,-4.542928E-05
-0.8550009,-3.95129E-05
-0.8540009,-3.427093E-05
-0.8530009,-2.970336E-05
-0.8520009,-2.378698E-05
-0.8510008,-1.762536E-05
-0.8500009,-1.342565E-05
-0.8490009,-7.4173E-06
-0.8480009,-2.880386E-06
-0.8470009,1.748492E-06
-0.8460009,7.940767E-06
-0.8450009,1.174197E-05
-0.8440009,1.725983E-05
-0.8430009,2.342145E-05
-0.8420008,2.700807E-05
-0.8410009,3.206612E-05
-0.8400009,3.795184E-05
-0.8390009,4.196762E-05
-0.8380009,4.766942E-05
-0.8370008,5.321795E-05
-0.8360009,5.744831E-05
-0.8350009,6.226111E-05
-0.8340009,6.774833E-05
-0.8330009,7.216263E-05
-0.8320009,7.712871E-05
-0.8310009,8.319836E-05
-0.8300009,8.733677E-05
-0.8290009,9.147517E-05
-0.8280008,9.656387E-05
-0.8270009,0.0001007329
-0.8260009,0.0001059749
-0.8250009,0.0001118606
-0.8240009,0.0001146196
-0.8230008,0.0001202907
-0.8220009,0.0001245824
-0.8210009,0.0001278011
-0.8200009,0.0001337482
-0.8190009,0.0001392047
-0.8180009,0.0001422396
-0.8170009,0.0001484625
-0.8160009,0.0001509762
-0.8150009,0.0001547774
-0.8140008,0.0001603259
-0.8130009,0.0001631155
-0.8120009,0.0001677137
-0.8110009,0.0001724652
-0.8100009,0.0001754694
-0.8090008,0.0001790253
-0.8080009,0.0001835009
-0.8070009,0.0001867504
-0.8060009,0.0001907355
-0.8050008,0.0001953031
-0.8040009,0.0001973569
-0.8030009,0.0002017712
-0.8020009,0.0002056031
-0.8010009,0.000208362
-0.8000008,0.0001671313
-0.8009992,0.0001141291
-0.8019992,7.207066E-05
-0.8029991,3.767595E-05
-0.8039991,3.679747E-06
-0.8049992,-2.633133E-05
-0.8059992,-5.333823E-05
-0.8069991,-8.034513E-05
-0.8079991,-0.0001056047
-0.8089992,-0.0001279521
-0.8099992,-0.0001501462
-0.8109992,-0.0001717885
-0.8119991,-0.0001907332
-0.8129991,-0.0002116397
-0.8139992,-0.0002303698
-0.8149992,-0.0002465249
-0.8159992,-0.0002650711
-0.8169991,-0.0002820232
-0.8179991,-0.000293355
-0.8189992,-0.0003114414
-0.8199992,-0.0003261557
-0.8209991,-0.0003396438
-0.8219991,-0.0003546647
-0.8229992,-0.0003678463
-0.8239992,-0.0003798016
-0.8249992,-0.0003951291
-0.8259991,-0.0004067779
-0.8269991,-0.0004190398
-0.8279992,-0.0004325279
-0.8289992,-0.0004438702
-0.8299991,-0.000454906
-0.8309991,-0.0004665548
-0.8319992,-0.0004785102
-0.8329992,-0.0004880132
-0.8339992,-0.0005008882
-0.8349991,-0.0005103912
-0.8359991,-0.0005202008
-0.8369992,-0.0005312365
-0.8379992,-0.0005407395
-0.8389992,-0.000550549
-0.8399991,-0.0005609716
-0.8409991,-0.0005701681
-0.8419992,-0.0005796711
-0.8429992,-0.0005894807
-0.8439991,-0.0005983706
-0.8449991,-0.0006069539
-0.8459992,-0.00061707
-0.8469992,-0.0006256534
-0.8479992,-0.0006333171
-0.8489991,-0.0006437397
-0.8499991,-0.0006514034
-0.8509992,-0.0006593736
-0.8519992,-0.0006691832
-0.8529992,-0.0006771535
-0.8539991,-0.000684204
-0.8549991,-0.0006943202
-0.8559992,-0.0007013708
-0.8569992,-0.0007087279
-0.8579991,-0.0007170048
-0.8589991,-0.0007255881
-0.8599992,-0.0007326387
-0.8609992,-0.0007409155
-0.8619992,-0.0007491923
-0.8629991,-0.0007559364
-0.8639991,-0.0007639066
-0.8649992,-0.0007715704
-0.8659992,-0.0007783144
-0.8669991,-0.0007859781
-0.8679991,-0.0007942549
-0.8689992,-0.0008019186
-0.8699992,-0.0008095824
-0.8709992,-0.0008163264
-0.8719991,-0.0008224574
-0.8729991,-0.0008325735
-0.8739992,-0.0008365586
-0.8749992,-0.0008439157
-0.8759992,-0.000852499
-0.8769991,-0.0008589366
-0.8779991,-0.0008650676
-0.8789992,-0.000874264
-0.8799992,-0.0008791688
-0.8809991,-0.0008868325
-0.8819991,-0.0008948027
-0.8829992,-0.0009009338
-0.8839992,-0.0009073712
-0.8849992,-0.0009150349
-0.8859991,-0.0009205528
-0.8869991,-0.0009276034
-0.8879992,-0.000934654
-0.8889992,-0.0009426242
-0.8899992,-0.0009490618
-0.8909991,-0.0009558058
-0.8919991,-0.0009625499
-0.8929992,-0.000969294
-0.8939992,-0.0009751184
-0.8949991,-0.0009818624
-0.8959991,-0.000988913
-0.8969992,-0.0009956572
-0.8979992,-0.001002095
-0.8989992,-0.001008226
-0.8999991,-0.001015276
-0.9009991,-0.001021407
-0.9019992,-0.001026925
-0.9029992,-0.001035508
-0.9039991,-0.001039494
-0.9049991,-0.001046544
-0.9059991,-0.001054514
-0.9069992,-0.001059419
-0.9079992,-0.001067389
-0.9089991,-0.001072601
-0.9099991,-0.001080264
-0.9109992,-0.001085782
-0.9119992,-0.001090994
-0.9129992,-0.001098657
-0.9139991,-0.001105708
-0.9149991,-0.001110613
-0.9159992,-0.001118583
-0.9169992,-0.001124714
-0.9179991,-0.001130232
-0.9189991,-0.001136669
-0.9199992,-0.001144333
-0.9209992,-0.001148931
-0.9219992,-0.001155982
-0.9229991,-0.001163646
-0.9239991,-0.001167937
-0.9249992,-0.001175601
-0.9259992,-0.001182345
-0.9269992,-0.00118725
-0.9279991,-0.001194914
-0.9289991,-0.001201964
-0.9299992,-0.001207482
-0.9309992,-0.001214839
-0.9319991,-0.001221277
-0.9329991,-0.001226795
-0.9339992,-0.001234458
-0.9349992,-0.001240283
-0.9359992,-0.001247333
-0.9369991,-0.001254997
-0.9379991,-0.001260208
-0.9389992,-0.001267259
-0.9399992,-0.001275229
-0.9409992,-0.001279521
-0.9419991,-0.001288104
-0.9429991,-0.001295155
-0.9439992,-0.001298833
-0.9449992,-0.001308643
-0.9459991,-0.001314467
-0.9469991,-0.001319679
-0.9479992,-0.001329182
-0.9489992,-0.0013347
-0.9499992,-0.001340217
-0.9509991,-0.001350027
-0.9519991,-0.001354932
-0.9529992,-0.001361369
-0.9539992,-0.001369953
-0.9549991,-0.001373018
-0.9559991,-0.001382521
-0.9569992,-0.001391411
-0.9579992,-0.001396316
-0.9589992,-0.001402753
-0.9599991,-0.001411337
-0.9609991,-0.001417161
-0.9619992,-0.001424212
-0.9629992,-0.001431569
-0.9639992,-0.001438926
-0.9649991,-0.00144475
-0.9659991,-0.001453334
-0.9669992,-0.001459465
-0.9679992,-0.001464983
-0.9689991,-0.001474486
-0.9699991,-0.001481536
-0.9709992,-0.001487974
-0.9719992,-0.001496864
-0.9729992,-0.001503608
-0.9739991,-0.001508819
-0.9749991,-0.001518935
-0.9759992,-0.001524453
-0.9769992,-0.00153181
-0.9779992,-0.00153978
-0.9789991,-0.001549283
-0.9799991,-0.001553575
-0.9809992,-0.001562158
-0.9819992,-0.001570435
-0.9829991,-0.001575646
-0.9839991,-0.001586069
-0.9849992,-0.001594039
-0.9859992,-0.001600783
-0.9869992,-0.001611206
-0.9879991,-0.00161795
-0.9889991,-0.001624388
-0.9899992,-0.001633584
-0.9909992,-0.001641554
-0.9919991,-0.001647379
-0.9929991,-0.001657801
-0.9939992,-0.001664546
-0.9949992,-0.001670983
-0.9959992,-0.001683245
-0.9969991,-0.001689989
-0.9979991,-0.0016952
-0.9989992,-0.001707156
-0.9999992,-0.001712674
-1.000999,-0.001720337
-1.001999,-0.001730453
-1.002999,-0.001737504
-1.003999,-0.001745781
-1.004999,-0.001753751
-1.005999,-0.001762641
-1.006999,-0.001769385
-1.007999,-0.001776436
-1.008999,-0.001786245
-1.009999,-0.001792989
-1.010999,-0.001803718
-1.011999,-0.001810769
-1.012999,-0.001819965
-1.013999,-0.001829775
-1.014999,-0.001834986
-1.015999,-0.001844489
-1.016999,-0.001853992
-1.017999,-0.001859817
-1.018999,-0.00187024
-1.019999,-0.001878516
-1.020999,-0.001884341
-1.021999,-0.001895376
-1.022999,-0.001903653
-1.023999,-0.001910704
-1.024999,-0.00192174
-1.025999,-0.001929097
-1.026999,-0.001934921
-1.027999,-0.001945957
-1.028999,-0.001953007
-1.029999,-0.001959751
-1.030999,-0.001970787
-1.031999,-0.001975999
-1.032999,-0.001983662
-1.033999,-0.001993165
-1.034999,-0.002000216
-1.035999,-0.00200788
-1.036999,-0.002017383
-1.037999,-0.002025353
-1.038999,-0.002032097
-1.039999,-0.002038841
-1.040999,-0.002047424
-1.041999,-0.002054168
-1.042999,-0.002063058
-1.043999,-0.002069802
-1.044999,-0.002075933
-1.045999,-0.002085436
-1.046999,-0.00209218
-1.047999,-0.002097698
-1.048999,-0.002105975
-1.049999,-0.002115171
-1.050999,-0.00211793
-1.051999,-0.002129579
-1.052999,-0.002135403
-1.053999,-0.002140308
-1.054999,-0.002151344
-1.055999,-0.002156555
-1.056999,-0.002161154
-1.057999,-0.00217127
-1.058999,-0.002177094
-1.059999,-0.002182918
-1.060999,-0.002192728
-1.061999,-0.002197939
-1.062999,-0.00220407
-1.063999,-0.002214799
-1.064999,-0.002219398
-1.065999,-0.002227368
-1.066999,-0.002235338
-1.067999,-0.002238097
-1.068999,-0.002247293
-1.069999,-0.00225649
-1.070999,-0.002260475
-1.071999,-0.002268139
-1.072999,-0.002277948
-1.073999,-0.002280707
-1.074999,-0.002292356
-1.075999,-0.002300633
-1.076999,-0.002302166
-1.077999,-0.002312589
-1.078999,-0.002323318
-1.079999,-0.002325157
-1.080999,-0.002336499
-1.081999,-0.002345696
-1.082999,-0.002348455
-1.083999,-0.00235949
-1.084999,-0.002366847
-1.085999,-0.002370526
-1.086999,-0.002384627
-1.087999,-0.002389839
-1.088999,-0.002395357
-1.089999,-0.002409151
-1.090999,-0.002414363
-1.091999,-0.002421413
-1.092999,-0.002432755
-1.093999,-0.002441645
-1.094999,-0.002446243
-1.095999,-0.002457279
-1.096999,-0.002461571
-1.097999,-0.00247322
-1.098999,-0.002484562
-1.099999,-0.002490386
-1.100999,-0.00249989
-1.101999,-0.002511845
-1.102999,-0.00251491
-1.103999,-0.002527172
-1.104999,-0.002536675
-1.105999,-0.002542193
-1.106999,-0.002553535
-1.107999,-0.002561506
-1.108999,-0.002564878
-1.109999,-0.0025753
-1.110999,-0.00258419
-1.111999,-0.002586949
-1.112999,-0.002598291
-1.113999,-0.002606875
-1.114999,-0.002608101
-1.115999,-0.002617911
-1.116999,-0.002624348
-1.117999,-0.00262772
-1.118999,-0.002638143
-1.119999,-0.002639982
-1.120999,-0.002639982
-1.121999,-0.002651631
-1.122999,-0.002650405
-1.123999,-0.002655309
-1.124999,-0.002661747
-1.125999,-0.002661134
-1.126999,-0.002667265
-1.127999,-0.002669104
-1.128999,-0.002668184
-1.129999,-0.002674315
-1.130999,-0.002676155
-1.131999,-0.002673702
-1.132999,-0.002679833
-1.133999,-0.00268014
-1.134999,-0.002678914
-1.135999,-0.002684431
-1.136999,-0.002683819
-1.137999,-0.002684738
-1.138999,-0.00268903
-1.139999,-0.00268811
-1.140999,-0.00268903
-1.141999,-0.002692708
-1.142999,-0.002690562
-1.143999,-0.002692402
-1.144999,-0.002699146
-1.145999,-0.002695467
-1.146999,-0.002695161
-1.147999,-0.002703744
-1.148999,-0.002699146
-1.149999,-0.00270589
-1.150999,-0.002711714
-1.151999,-0.002701598
-1.152999,-0.002712941
-1.153999,-0.002717232
-1.154999,-0.002709568
-1.155999,-0.002721524
-1.156999,-0.002722137
-1.157999,-0.002719378
-1.158999,-0.002729494
-1.159999,-0.002729801
-1.160999,-0.002730107
-1.161999,-0.002737771
-1.162999,-0.002738077
-1.163999,-0.002740223
-1.164999,-0.002749113
-1.165999,-0.002746967
-1.166999,-0.002750646
-1.167999,-0.002756777
-1.168999,-0.002760762
-1.169999,-0.002763215
-1.170999,-0.002772104
-1.171999,-0.002774557
-1.172999,-0.002778848
-1.173999,-0.002786819
-1.174999,-0.002785286
-1.175999,-0.002796628
-1.176999,-0.002801533
-1.177999,-0.002801226
-1.178999,-0.002810729
-1.179999,-0.002818393
-1.180999,-0.002819313
-1.181999,-0.002833107
-1.182999,-0.002837706
-1.183999,-0.002841078
-1.184999,-0.002853646
-1.185999,-0.002858244
-1.186999,-0.002863149
-1.187999,-0.002876331
-1.188999,-0.002880316
-1.189999,-0.002889206
-1.190999,-0.002901161
-1.191999,-0.00290392
-1.192999,-0.002915262
-1.193999,-0.002929057
-1.194999,-0.002931509
-1.195999,-0.002943158
-1.196999,-0.00295634
-1.197999,-0.002965536
-1.198999,-0.002970748
-1.199999,-0.002979944
-1.200999,-0.002992206
-1.201999,-0.003004161
-1.202999,-0.002979532
-1.203999,-0.002991794
-1.204999,-0.003000991
-1.205999,-0.003013253
-1.206999,-0.003025514
-1.207999,-0.003031645
-1.208999,-0.003050038
-1.209999,-0.003059235
-1.210999,-0.003074562
-1.211999,-0.003089889
-1.212999,-0.003099086
-1.213999,-0.003114413
-1.214999,-0.003126675
-1.215999,-0.003135872
-1.216999,-0.00315733
-1.217999,-0.003172658
-1.218999,-0.003181854
-1.219999,-0.003203312
-1.220999,-0.00321864
-1.221999,-0.003224771
-1.222999,-0.00325236
-1.223999,-0.003261557
-1.224999,-0.00327995
-1.225999,-0.003298342
-1.226999,-0.00331367
-1.227999,-0.003332063
-1.228999,-0.003353521
-1.229999,-0.003368848
-1.230999,-0.003390307
-1.231999,-0.0034087
-1.232999,-0.003427093
-1.233999,-0.003445486
-1.234999,-0.003470009
-1.235999,-0.003491468
-1.236999,-0.003512926
-1.237999,-0.00353745
-1.238999,-0.003558908
-1.239999,-0.003580367
-1.240999,-0.003607956
-1.241999,-0.00363248
-1.242999,-0.003657004
-1.243999,-0.003690724
-1.244999,-0.003712183
-1.245999,-0.003742838
-1.246999,-0.003773492
-1.247999,-0.003801082
-1.248999,-0.003834802
-1.249999,-0.003871588
-1.250999,-0.003893046
-1.251999,-0.003935963
-1.252999,-0.003969683
-1.253999,-0.004000338
-1.254999,-0.004043255
-1.255999,-0.004083106
-1.256999,-0.004119892
-1.257999,-0.004168939
-1.258999,-0.004211857
-1.259999,-0.004254773
-1.260999,-0.004306886
-1.261999,-0.004352869
-1.262999,-0.004404982
-1.263999,-0.00446016
-1.264999,-0.004512274
-1.265999,-0.004567452
-1.266999,-0.004631828
-1.267999,-0.004693137
-1.268999,-0.004754446
-1.269999,-0.004828018
-1.270999,-0.004892393
-1.271999,-0.004969031
-1.272999,-0.005051799
-1.273999,-0.005122304
-1.274999,-0.005205072
-1.275999,-0.005300103
-1.276999,-0.00538287
-1.277999,-0.005480966
-1.278999,-0.005579061
-1.279999,-0.005674092
-1.280999,-0.005784449
-1.281999,-0.005894806
-1.282999,-0.006002098
-1.283999,-0.006124718
-1.284999,-0.006250402
-1.285999,-0.006373021
-1.286999,-0.006514033
-1.287999,-0.006645849
-1.288999,-0.006786862
-1.289999,-0.006940136
-1.290999,-0.00709341
-1.291999,-0.007249749
-1.292999,-0.007424482
-1.293999,-0.007593083
-1.294999,-0.007761685
-1.295999,-0.00794868
-1.296999,-0.00813874
-1.297999,-0.008328799
-1.298999,-0.008534187
-1.299999,-0.008745705
-1.300999,-0.008948027
-1.301999,-0.009174872
-1.302999,-0.009395587
-1.303999,-0.009622433
-1.304999,-0.009861541
-1.305999,-0.01010065
-1.306999,-0.01034282
-1.307999,-0.01060032
-1.308999,-0.01084863
-1.309999,-0.01111226
-1.310999,-0.01137589
-1.311999,-0.01163952
-1.312999,-0.01192154
-1.313999,-0.0122005
-1.314999,-0.01247946
-1.315999,-0.01277375
-1.316999,-0.01306497
-1.317999,-0.01335313
-1.318999,-0.01365967
-1.319999,-0.01396009
-1.320999,-0.01426051
-1.321999,-0.01458545
-1.322999,-0.01489506
-1.323999,-0.01520774
-1.324999,-0.01553268
-1.325999,-0.01585456
-1.326999,-0.01617337
-1.327999,-0.01650444
-1.328999,-0.01683858
-1.329999,-0.01716352
-1.330999,-0.01750992
-1.331999,-0.01785632
-1.332999,-0.01819046
-1.333999,-0.01854299
-1.334999,-0.01888939
-1.335999,-0.01922966
-1.336999,-0.01958219
-1.337999,-0.01992246
-1.338999,-0.02027498
-1.339999,-0.02064591
-1.340999,-0.02099231
-1.341999,-0.0213479
-1.342999,-0.02171576
-1.343999,-0.02207136
-1.344999,-0.02243922
-1.345999,-0.02280401
-1.346999,-0.0231596
-1.347999,-0.02352746
-1.348999,-0.02390145
-1.349999,-0.02427544
-1.350999,-0.02463717
-1.351999,-0.02500809
-1.352999,-0.02539434
-1.353999,-0.02577139
-1.354999,-0.02615765
-1.355999,-0.02653777
-1.356999,-0.02692095
-1.357999,-0.027298
-1.358999,-0.02766893
-1.359999,-0.02805824
-1.360999,-0.02844756
-1.361999,-0.02882461
-1.362999,-0.029217
-1.363999,-0.02961551
-1.364999,-0.02999256
-1.365999,-0.03037268
-1.366999,-0.0308989
-1.367999,-0.0312361
-1.368999,-0.03166527
-1.369999,-0.03209443
-1.370999,-0.0324623
-1.371999,-0.03286081
-1.372999,-0.03325932
-1.373999,-0.03365783
-1.374999,-0.034087
-1.375999,-0.03448552
-1.376999,-0.03485337
-1.377999,-0.03528254
-1.378999,-0.03568105
-1.379999,-0.03607956
-1.380999,-0.03647808
-1.381999,-0.03690724
-1.382999,-0.03730575
-1.383999,-0.03770427
-1.384999,-0.03813344
-1.385999,-0.03853195
-1.386999,-0.03893046
-1.387999,-0.03935963
-1.388999,-0.03975814
-1.389999,-0.04018731
-1.390999,-0.04058582
-1.391999,-0.04098434
-1.392999,-0.04144416
-1.393999,-0.04184267
-1.394999,-0.04224118
-1.395999,-0.04267035
-1.396999,-0.04306886
-1.397999,-0.04346738
-1.398999,-0.04389654
-1.399999,-0.04429505
-1.400999,-0.04472422
-1.401999,-0.04515339
-1.402999,-0.04555191
-1.403999,-0.04595042
-1.404999,-0.04637958
-1.405999,-0.04680875
-1.406999,-0.04723792
-1.407999,-0.04766709
-1.408999,-0.0480656
-1.409999,-0.04849477
-1.410999,-0.04892394
-1.411999,-0.04929179
-1.412999,-0.04975162
-1.413999,-0.05018078
-1.414999,-0.0505793
-1.415999,-0.05100846
-1.416999,-0.05143763
-1.417999,-0.0518668
-1.418999,-0.05229596
-1.419999,-0.05272513
-1.420999,-0.05312365
-1.421999,-0.05358347
-1.422999,-0.05401264
-1.423999,-0.05441115
-1.424999,-0.05487097
-1.425999,-0.05530014
-1.426999,-0.05572931
-1.427999,-0.05615847
-1.428999,-0.05658764
-1.429999,-0.05701681
-1.430999,-0.05744598
-1.431999,-0.05787515
-1.432999,-0.05830431
-1.433999,-0.05876414
-1.434999,-0.05916265
-1.435999,-0.05959181
-1.436999,-0.06005164
-1.437999,-0.0604808
-1.438999,-0.06087932
-1.439999,-0.0613698
-1.440999,-0.06179896
-1.441999,-0.06219748
-1.442999,-0.06262664
-1.443999,-0.06305581
-1.444999,-0.06348498
-1.445999,-0.0639448
-1.446999,-0.06437397
-1.447999,-0.06480314
-1.448999,-0.06526296
-1.449999,-0.06569213
-1.450999,-0.0661213
-1.451999,-0.06658112
-1.452999,-0.06697963
-1.453999,-0.06743945
-1.454999,-0.06786862
-1.455999,-0.06829779
-1.456999,-0.06872695
-1.457999,-0.06918678
-1.458999,-0.06961595
-1.459999,-0.07004511
-1.460999,-0.07050493
-1.461999,-0.07090344
-1.462999,-0.07139393
-1.463999,-0.07182309
-1.464999,-0.0722216
-1.465999,-0.07271209
-1.466999,-0.07314125
-1.467999,-0.07353976
-1.468999,-0.07403024
-1.469999,-0.0744594
-1.470999,-0.07488858
-1.471999,-0.07531774
-1.472999,-0.07574691
-1.473999,-0.07617608
-1.474999,-0.07666656
-1.475999,-0.07709572
-1.476999,-0.07752489
-1.477999,-0.07798471
-1.478999,-0.07841388
-1.479999,-0.07884305
-1.480999,-0.07933352
-1.481999,-0.07976269
-1.482999,-0.08019186
-1.483999,-0.08065169
-1.484999,-0.08108085
-1.485999,-0.08151001
-1.486999,-0.08196984
-1.487999,-0.082399
-1.488999,-0.08285882
-1.489999,-0.08331865
-1.490999,-0.08374782
-1.491999,-0.08417699
-1.492999,-0.08466747
-1.493999,-0.08506598
-1.494999,-0.08549514
-1.495999,-0.08595496
-1.496999,-0.08638413
-1.497999,-0.08684396
-1.498999,-0.08730378
-1.499999,-0.08745705
-1.499001,-0.08699723
-1.498001,-0.08656806
-1.497001,-0.08610824
-1.496001,-0.08567908
-1.495001,-0.08521925
-1.494001,-0.08479008
-1.493001,-0.08429961
-1.492001,-0.08387043
-1.491001,-0.08344127
-1.490001,-0.08295079
-1.489001,-0.08252162
-1.488001,-0.08209246
-1.487001,-0.08163264
-1.486001,-0.08117282
-1.485001,-0.080713
-1.484001,-0.08025317
-1.483001,-0.07979335
-1.482001,-0.07933352
-1.481001,-0.0788737
-1.480001,-0.07847519
-1.479001,-0.07798471
-1.478001,-0.07749423
-1.477001,-0.07709572
-1.476001,-0.0766359
-1.475001,-0.07617608
-1.474001,-0.07571625
-1.473001,-0.07528709
-1.472001,-0.07485792
-1.471001,-0.07439809
-1.470001,-0.07396893
-1.469001,-0.07347845
-1.468001,-0.07304928
-1.467001,-0.07262012
-1.466001,-0.07212964
-1.465001,-0.07166982
-1.464001,-0.07124065
-1.463001,-0.07078083
-1.462001,-0.07032101
-1.461001,-0.06989183
-1.460001,-0.06946267
-1.459001,-0.0690335
-1.458001,-0.06857368
-1.457001,-0.06814452
-1.456001,-0.06771534
-1.455001,-0.06722487
-1.454001,-0.0667957
-1.453001,-0.06636653
-1.452001,-0.06590671
-1.451001,-0.06547754
-1.450001,-0.06504837
-1.449001,-0.06458855
-1.448001,-0.06415939
-1.447001,-0.06373022
-1.446001,-0.0632704
-1.445001,-0.06284123
-1.444001,-0.06238141
-1.443001,-0.06195223
-1.442001,-0.06149241
-1.441001,-0.06106325
-1.440001,-0.06063408
-1.439001,-0.06020491
-1.438001,-0.05977575
-1.437001,-0.05934658
-1.436001,-0.05891741
-1.435001,-0.05845758
-1.434001,-0.05802842
-1.433001,-0.0575686
-1.432001,-0.05713943
-1.431001,-0.05671026
-1.430001,-0.0562811
-1.429001,-0.05585193
-1.428001,-0.05542276
-1.427001,-0.05499359
-1.426001,-0.05456442
-1.425001,-0.05413526
-1.424001,-0.05370609
-1.423001,-0.05327692
-1.422001,-0.0528171
-1.421001,-0.05241859
-1.420001,-0.05198942
-1.419001,-0.05156025
-1.418001,-0.05116174
-1.417001,-0.05073257
-1.416001,-0.05027274
-1.415001,-0.04987423
-1.414001,-0.04944507
-1.413001,-0.0490159
-1.412001,-0.04858673
-1.411001,-0.04815757
-1.410001,-0.0477284
-1.409001,-0.04732988
-1.408001,-0.04690072
-1.407001,-0.04647155
-1.406001,-0.04607304
-1.405001,-0.04564387
-1.404001,-0.0452147
-1.403001,-0.04481619
-1.402001,-0.04441768
-1.401001,-0.04398851
-1.400001,-0.04358999
-1.399001,-0.04316083
-1.398001,-0.04276232
-1.397001,-0.0423638
-1.396001,-0.04196529
-1.395001,-0.04153612
-1.394001,-0.04110695
-1.393001,-0.04070844
-1.392001,-0.04027928
-1.391001,-0.03988076
-1.390001,-0.03948225
-1.389001,-0.03908373
-1.388001,-0.03865457
-1.387001,-0.03825606
-1.386001,-0.03785754
-1.385001,-0.03745903
-1.384001,-0.03709117
-1.383001,-0.03669266
-1.382001,-0.03626349
-1.381001,-0.03586498
-1.380001,-0.03546647
-1.379001,-0.03506796
-1.378001,-0.03466944
-1.377001,-0.03427093
-1.376001,-0.03387242
-1.375001,-0.03350456
-1.374001,-0.03310604
-1.373001,-0.03270753
-1.372001,-0.03233967
-1.371001,-0.03197182
-1.370001,-0.03157331
-1.369001,-0.03120545
-1.368001,-0.03080693
-1.367001,-0.03040842
-1.366001,-0.03007122
-1.365001,-0.0296727
-1.364001,-0.02930485
-1.363001,-0.02893699
-1.362001,-0.02853847
-1.361001,-0.02817062
-1.360001,-0.02783342
-1.359001,-0.0274349
-1.358001,-0.02706704
-1.357001,-0.02669919
-1.356001,-0.02636199
-1.355001,-0.02599413
-1.354001,-0.02562627
-1.353001,-0.02525841
-1.352001,-0.02489055
-1.351001,-0.02452269
-1.350001,-0.02418549
-1.349001,-0.02381763
-1.348001,-0.02348043
-1.347001,-0.02314323
-1.346001,-0.02280602
-1.345001,-0.02246882
-1.344001,-0.02210096
-1.343001,-0.02179441
-1.342001,-0.02145721
-1.341001,-0.02112001
-1.340001,-0.0207828
-1.339001,-0.0204456
-1.338001,-0.0201084
-1.337001,-0.0197712
-1.336001,-0.01943399
-1.335001,-0.01909679
-1.334001,-0.01879024
-1.333001,-0.01848369
-1.332001,-0.01814649
-1.331001,-0.0178706
-1.330001,-0.01756405
-1.329001,-0.01722685
-1.328001,-0.0169203
-1.327001,-0.01661375
-1.326001,-0.0163072
-1.325001,-0.01603131
-1.324001,-0.01581777
-1.323001,-0.01553268
-1.322001,-0.01525066
-1.321001,-0.01497477
-1.320001,-0.01469581
-1.319001,-0.01442298
-1.318001,-0.01415015
-1.317001,-0.01388039
-1.316001,-0.01361369
-1.315001,-0.01335006
-1.314001,-0.01309256
-1.313001,-0.01283813
-1.312001,-0.01258369
-1.311001,-0.01233232
-1.310001,-0.01208708
-1.309001,-0.01184491
-1.308001,-0.01160887
-1.307001,-0.01137282
-1.306001,-0.01114904
-1.305001,-0.0109222
-1.304001,-0.01070455
-1.303001,-0.0104869
-1.302001,-0.01026005
-1.301001,-0.01005773
-1.300001,-0.009843147
-1.299001,-0.009634695
-1.298001,-0.009444634
-1.297001,-0.009239248
-1.296001,-0.009049187
-1.295001,-0.008862193
-1.294001,-0.008675199
-1.293001,-0.008494335
-1.292001,-0.008319603
-1.291001,-0.00813874
-1.290001,-0.007973203
-1.289001,-0.007810732
-1.288001,-0.007642131
-1.287001,-0.007485792
-1.286001,-0.007332517
-1.285001,-0.007182309
-1.284001,-0.007041297
-1.283001,-0.006897219
-1.282001,-0.006750076
-1.281001,-0.006621325
-1.280001,-0.006492575
-1.279001,-0.006360759
-1.278001,-0.00623814
-1.277001,-0.006118587
-1.276001,-0.005999033
-1.275001,-0.005891741
-1.274001,-0.005784449
-1.273001,-0.005671026
-1.272001,-0.005575996
-1.271001,-0.005474835
-1.270001,-0.005376739
-1.269001,-0.005287841
-1.268001,-0.005195876
-1.267001,-0.005106977
-1.266001,-0.005027275
-1.265001,-0.004944507
-1.264001,-0.004861739
-1.263001,-0.004791233
-1.262001,-0.004714595
-1.261001,-0.004641024
-1.260001,-0.004576649
-1.259001,-0.004509208
-1.258001,-0.004441767
-1.257001,-0.004383523
-1.256001,-0.004319148
-1.255001,-0.004260904
-1.254001,-0.004208791
-1.253001,-0.004150547
-1.252001,-0.004095368
-1.251001,-0.00404632
-1.250001,-0.003997272
-1.249001,-0.003948225
-1.248001,-0.003902242
-1.247001,-0.00385626
-1.246001,-0.003810278
-1.245001,-0.003773492
-1.244001,-0.00372751
-1.243001,-0.003690724
-1.242001,-0.003653938
-1.241001,-0.003611021
-1.240001,-0.003580367
-1.239001,-0.003543581
-1.238001,-0.003506796
-1.237001,-0.00347614
-1.236001,-0.003445486
-1.235001,-0.0034087
-1.234001,-0.003384176
-1.233001,-0.003353521
-1.232001,-0.003319801
-1.231001,-0.003298342
-1.230001,-0.003273819
-1.229001,-0.003240098
-1.228001,-0.003212509
-1.227001,-0.003191051
-1.226001,-0.003163461
-1.225001,-0.003142003
-1.224001,-0.003120545
-1.223001,-0.003086824
-1.222001,-0.003068431
-1.221001,-0.003046973
-1.220001,-0.003022449
-1.219001,-0.003004056
-1.218001,-0.002985663
-1.217001,-0.002961139
-1.216001,-0.002939681
-1.215001,-0.002924354
-1.214001,-0.00289983
-1.213001,-0.002881437
-1.212001,-0.00286611
-1.211001,-0.002844651
-1.210001,-0.002826258
-1.209001,-0.002810931
-1.208001,-0.002789472
-1.207001,-0.002774145
-1.206001,-0.002761883
-1.205001,-0.00274349
-1.204001,-0.002725097
-1.203001,-0.00270977
-1.202001,-0.002697508
-1.201001,-0.002676049
-1.200001,-0.002666853
-1.199001,-0.002651526
-1.198001,-0.002633133
-1.197001,-0.002620871
-1.196001,-0.002605543
-1.195001,-0.002590216
-1.194001,-0.002577954
-1.193001,-0.002562626
-1.192001,-0.002547299
-1.191001,-0.002535037
-1.190001,-0.002522775
-1.189001,-0.002507448
-1.188001,-0.002495186
-1.187001,-0.002482924
-1.186001,-0.002467597
-1.185001,-0.002455335
-1.184001,-0.002443073
-1.183001,-0.002427745
-1.182001,-0.002418549
-1.181001,-0.002409352
-1.180001,-0.00239096
-1.179001,-0.002381763
-1.178001,-0.002369501
-1.177001,-0.002357239
-1.176001,-0.002351108
-1.175001,-0.002338846
-1.174001,-0.002320454
-1.173001,-0.002311257
-1.172001,-0.002302061
-1.171001,-0.002286733
-1.170001,-0.002277537
-1.169001,-0.00226834
-1.168001,-0.002253013
-1.167001,-0.002243817
-1.166001,-0.00223462
-1.165001,-0.002219293
-1.164001,-0.002210096
-1.163001,-0.0022009
-1.162001,-0.002191703
-1.161001,-0.002176376
-1.160001,-0.002170245
-1.159001,-0.002157983
-1.158001,-0.002145721
-1.157001,-0.002142655
-1.156001,-0.002124263
-1.155001,-0.002115066
-1.154001,-0.002108935
-1.153001,-0.002096673
-1.152001,-0.002084411
-1.151001,-0.00207828
-1.150001,-0.002066019
-1.149001,-0.002056822
-1.148001,-0.002047626
-1.147001,-0.002035364
-1.146001,-0.002026167
-1.145001,-0.002016971
-1.144001,-0.002004709
-1.143001,-0.001995512
-1.142001,-0.001986316
-1.141001,-0.00197712
-1.140001,-0.001964858
-1.139001,-0.001955661
-1.138001,-0.00194953
-1.137001,-0.001934203
-1.136001,-0.001928072
-1.135001,-0.001918875
-1.134001,-0.001906613
-1.133001,-0.001900482
-1.132001,-0.001891286
-1.131001,-0.00188209
-1.130001,-0.001872893
-1.129001,-0.001863697
-1.128001,-0.0018545
-1.127001,-0.001845304
-1.126001,-0.001836107
-1.125001,-0.001826911
-1.124001,-0.001817714
-1.123001,-0.001811583
-1.122001,-0.001799321
-1.121001,-0.001790125
-1.120001,-0.001783994
-1.119001,-0.001774798
-1.118001,-0.001762536
-1.117001,-0.00175947
-1.116001,-0.001744143
-1.115001,-0.001738012
-1.114001,-0.001731881
-1.113001,-0.001716554
-1.112001,-0.001707357
-1.111001,-0.001701226
-1.110001,-0.001688964
-1.109001,-0.001679768
-1.108001,-0.001670571
-1.107001,-0.001661375
-1.106001,-0.001652178
-1.105001,-0.001642982
-1.104001,-0.001627655
-1.103001,-0.001618458
-1.102001,-0.001612327
-1.101001,-0.001633278
-1.100001,-0.001623775
-1.099001,-0.001614885
-1.098001,-0.001603849
-1.097001,-0.001590974
-1.096001,-0.001584536
-1.095001,-0.001571048
-1.094001,-0.001559706
-1.093001,-0.001552349
-1.092001,-0.001539167
-1.091001,-0.001528745
-1.090001,-0.001518015
-1.089001,-0.001508819
-1.088001,-0.001495944
-1.087001,-0.001487974
-1.086001,-0.001477245
-1.085001,-0.001462837
-1.084001,-0.001456093
-1.083001,-0.001443524
-1.082001,-0.001433102
-1.081001,-0.001423905
-1.080001,-0.001412256
-1.079001,-0.001402447
-1.078001,-0.001392944
-1.077001,-0.001381601
-1.076001,-0.001371792
-1.075001,-0.001362595
-1.074001,-0.00135064
-1.073001,-0.001343283
-1.072001,-0.001334087
-1.071001,-0.001320905
-1.070001,-0.001314774
-1.069001,-0.001305577
-1.068001,-0.001293622
-1.067001,-0.001286571
-1.066001,-0.001278908
-1.065001,-0.001266646
-1.064001,-0.001258063
-1.063001,-0.001250705
-1.062001,-0.001240896
-1.061001,-0.001232619
-1.060001,-0.001223116
-1.059001,-0.001213306
-1.058001,-0.001208402
-1.057001,-0.001196446
-1.056001,-0.001185411
-1.055001,-0.001181732
-1.054001,-0.001172229
-1.053001,-0.001162726
-1.052001,-0.001156595
-1.051001,-0.001146479
-1.050001,-0.001138509
-1.049001,-0.001133297
-1.048001,-0.001123181
-1.047001,-0.001114598
-1.046001,-0.001109387
-1.045001,-0.001102029
-1.044001,-0.001089768
-1.043001,-0.00108425
-1.042001,-0.001076586
-1.041001,-0.001068616
-1.040001,-0.001064017
-1.039001,-0.001054514
-1.038001,-0.001045011
-1.037001,-0.001042253
-1.036001,-0.001029991
-1.035001,-0.00102386
-1.034001,-0.001020181
-1.033001,-0.001009145
-1.032001,-0.00100608
-1.031001,-0.0009984161
-1.030001,-0.0009870738
-1.029001,-0.0009843148
-1.028001,-0.0009775708
-1.027001,-0.0009674546
-1.026001,-0.0009650023
-1.025001,-0.0009576452
-1.024001,-0.0009466094
-1.023001,-0.000944157
-1.022001,-0.0009361868
-1.021001,-0.0009276034
-1.020001,-0.0009211659
-1.019001,-0.0009171807
-1.018001,-0.000908904
-1.017001,-0.0009018534
-1.016001,-0.0008981748
-1.015001,-0.0008892849
-1.014001,-0.0008831539
-1.013001,-0.0008791688
-1.012001,-0.0008690527
-1.011001,-0.0008641479
-1.010001,-0.0008595497
-1.009001,-0.0008497401
-1.008001,-0.0008445288
-1.007001,-0.0008402371
-1.006001,-0.0008319604
-1.005001,-0.0008264424
-1.004001,-0.0008206181
-1.003001,-0.0008135674
-1.002001,-0.00080713
-1.001001,-0.000801612
-1.000001,-0.0007954811
-0.9990011,-0.0007878174
-0.9980011,-0.0007844454
-0.9970011,-0.0007767816
-0.9960011,-0.0007681983
-0.9950011,-0.0007648263
-0.9940011,-0.0007583887
-0.9930011,-0.0007498054
-0.9920011,-0.0007461268
-0.9910011,-0.0007384631
-0.9900011,-0.0007320256
-0.9890011,-0.0007295733
-0.9880011,-0.0007200702
-0.9870011,-0.0007130196
-0.9860011,-0.0007114868
-0.9850011,-0.0007007577
-0.9840011,-0.0006970791
-0.9830011,-0.000693094
-0.9820011,-0.0006832844
-0.9810011,-0.000680219
-0.9800011,-0.0006737814
-0.9790011,-0.000664585
-0.9780011,-0.0006615195
-0.9770011,-0.0006566148
-0.9760011,-0.000648951
-0.9750011,-0.00064282
-0.9740011,-0.0006376088
-0.9730011,-0.0006284123
-0.9720011,-0.0006250403
-0.9710011,-0.0006207486
-0.9700011,-0.0006106325
-0.9690011,-0.0006066473
-0.9680011,-0.0006032753
-0.9670011,-0.0005928527
-0.9660011,-0.0005891741
-0.9650011,-0.000585189
-0.9640011,-0.0005753795
-0.9630011,-0.0005720074
-0.9620011,-0.0005658764
-0.9610011,-0.0005572931
-0.9600011,-0.0005545341
-0.9590011,-0.0005477901
-0.9580011,-0.0005392068
-0.9570011,-0.0005370609
-0.9560011,-0.0005297037
-0.9550011,-0.0005223466
-0.9540011,-0.0005183615
-0.9530011,-0.000512537
-0.9520011,-0.0005054864
-0.9510011,-0.0005018078
-0.9500011,-0.0004950638
-0.9490011,-0.0004877066
-0.9480011,-0.0004843346
-0.9470011,-0.0004769774
-0.9460011,-0.0004714596
-0.9450011,-0.0004665548
-0.9440011,-0.0004604238
-0.9430011,-0.0004545994
-0.9420011,-0.0004496947
-0.9410011,-0.0004429506
-0.9400011,-0.0004374327
-0.9390011,-0.000433141
-0.9380011,-0.0004260904
-0.9370011,-0.0004214922
-0.9360011,-0.0004172005
-0.9350011,-0.0004098434
-0.9340011,-0.0004055517
-0.9330011,-0.00040126
-0.9320011,-0.0003929832
-0.9310011,-0.0003905308
-0.9300011,-0.0003859326
-0.9290011,-0.000378882
-0.9280011,-0.00037551
-0.9270011,-0.0003696856
-0.9260011,-0.0003632481
-0.9250011,-0.0003595694
-0.9240011,-0.0003540516
-0.9230011,-0.0003482272
-0.9220011,-0.0003439355
-0.9210011,-0.0003387242
-0.9200011,-0.0003325932
-0.9190011,-0.000327995
-0.9180011,-0.0003233968
-0.9170011,-0.0003175724
-0.9160011,-0.0003129741
-0.9150011,-0.0003086824
-0.9140011,-0.0003025515
-0.9130011,-0.0002979533
-0.9120011,-0.0002936616
-0.9110011,-0.0002878372
-0.9100011,-0.0002829324
-0.9090011,-0.0002792538
-0.9080011,-0.0002728163
-0.9070011,-0.0002676049
-0.9060011,-0.0002654591
-0.9050011,-0.0002571823
-0.9040011,-0.0002541168
-0.9030011,-0.0002504383
-0.9020011,-0.000242468
-0.9010011,-0.0002394025
-0.9000011,-0.0002348043
-0.8990011,-0.0002280602
-0.8980011,-0.0002262209
-0.8970011,-0.0002194769
-0.8960011,-0.0002142656
-0.8950011,-0.000210587
-0.8940011,-0.0002047626
-0.8930011,-0.0002001643
-0.8920011,-0.0001955661
-0.8910011,-0.0001900483
-0.8900011,-0.0001842238
-0.8890011,-0.0001805453
-0.8880011,-0.0001753339
-0.8870011,-0.0001701226
-0.8860011,-0.0001652178
-0.8850011,-0.0001603131
-0.8840011,-0.0001538755
-0.8830011,-0.0001495839
-0.8820011,-0.0001437595
-0.8810011,-0.000140306
-0.8800011,-0.0001382215
-0.8790011,-0.0001319372
-0.8780011,-0.000125561
-0.8770011,-0.0001228021
-0.8760011,-0.0001152916
-0.8750011,-0.0001106628
-0.8740011,-0.0001065244
-0.8730011,-0.0001003014
-0.8720011,-9.496748E-05
-0.8710011,-8.987878E-05
-0.8700011,-8.383978E-05
-0.8690011,-7.850584E-05
-0.8680011,-7.430613E-05
-0.8670011,-6.829778E-05
-0.8660011,-6.330105E-05
-0.8650011,-5.910133E-05
-0.8640011,-5.208138E-05
-0.8630011,-4.846411E-05
-0.8620011,-4.352869E-05
-0.8610011,-3.72751E-05
-0.8600011,-3.310604E-05
-0.8590011,-2.786407E-05
-0.8580011,-2.121197E-05
-0.8570011,-1.69816E-05
-0.8560011,-1.244469E-05
-0.8550011,-5.792594E-06
-0.8540011,-1.623538E-06
-0.8530011,2.668137E-06
-0.8520011,1.060774E-05
-0.8510011,1.425566E-05
-0.8500011,1.86393E-05
-0.8490011,2.526074E-05
-0.8480011,2.872474E-05
-0.8470011,3.350689E-05
-0.8460011,4.126256E-05
-0.8450011,4.337774E-05
-0.8440011,4.996853E-05
-0.8430011,5.508789E-05
-0.8420011,5.904236E-05
-0.8410011,6.471351E-05
-0.8400011,6.952632E-05
-0.8390011,7.372602E-05
-0.8380011,8.004092E-05
-0.8370011,8.335164E-05
-0.8360011,8.865492E-05
-0.8350011,9.386624E-05
-0.8340011,9.874036E-05
-0.8330011,0.0001029401
-0.8320011,0.0001076916
-0.8310011,0.0001125657
-0.8300011,0.0001167961
-0.8290011,0.0001224978
-0.8280011,0.0001261458
-0.8270011,0.0001311425
-0.8260011,0.0001362925
-0.8250011,0.0001400937
-0.8240011,0.000144508
-0.8230011,0.0001496887
-0.8220011,0.0001526315
-0.8210011,0.0001572604
-0.8200011,0.0001624717
-0.8190011,0.0001665488
-0.8180011,0.0001710857
-0.8170011,0.0001756227
-0.8160011,0.0001782896
-0.8150011,0.0001828572
-0.8140011,0.0001867504
-0.8130011,0.0001895399
-0.8120011,0.0001950885
-0.8110011,0.000197265
-0.8100011,0.0002008516
-0.8090011,0.0002056337
-0.8080011,0.0002078102
-0.8070011,0.000211121
-0.8060011,0.0002156272
-0.8050011,0.0002175585
-0.8040011,0.0002216662
-0.8030011,0.0002256207
-0.8020011,0.0002275826
-0.8010011,0.0002310772
