EXPID. 1301
[电化学]: CV : 0 >> 0.7 >> 0 >> 0(V) @ 0.01(V/s) X 10(Seg)
起始电位 (V),0
上限电位 (V),0.7
下限电位 (V),0
终止电位 (V),0
扫速 (V/s),0.01
电解液 信息:
KOH,1
0.001,1.879258E-06
0.002,2.52914E-06
0.003,2.964438E-06
0.004,3.488636E-06
0.005,3.758398E-06
0.006,4.107863E-06
0.007,4.601406E-06
0.008,4.914085E-06
0.009,5.202241E-06
0.01,5.64367E-06
0.011,5.809206E-06
0.012,6.244505E-06
0.013,6.477482E-06
0.014,6.658345E-06
0.015,6.983286E-06
0.016,7.179477E-06
0.017,7.440043E-06
0.018,7.61171E-06
0.019,7.902931E-06
0.02,8.191086E-06
0.021,8.365819E-06
0.022,8.660105E-06
0.023,8.939064E-06
0.024,9.230284E-06
0.025,9.460196E-06
0.026,9.702369E-06
0.027,9.981328E-06
0.028,1.030627E-05
0.029,1.053005E-05
0.03,1.073544E-05
0.031,1.101439E-05
0.032,1.133627E-05
0.033,1.149874E-05
0.034,1.17777E-05
0.035,1.190338E-05
0.036,1.216395E-05
0.037,1.241839E-05
0.038,1.258699E-05
0.039,1.281077E-05
0.04,1.312651E-05
0.041,1.330124E-05
0.042,1.352809E-05
0.043,1.373961E-05
0.044,1.401857E-05
0.045,1.429753E-05
0.046,1.452131E-05
0.047,1.477268E-05
0.048,1.507003E-05
0.049,1.526622E-05
0.05,1.564634E-05
0.051,1.577202E-05
0.052,1.610616E-05
0.053,1.634833E-05
0.054,1.649241E-05
0.055,1.681122E-05
0.056,1.700435E-05
0.057,1.715456E-05
0.058,1.754387E-05
0.059,1.771247E-05
0.06,1.789947E-05
0.061,1.813244E-05
0.062,1.8252E-05
0.063,1.858001E-05
0.064,1.874861E-05
0.065,1.895706E-05
0.066,1.92023E-05
0.067,1.944447E-05
0.068,1.974795E-05
0.069,2.000239E-05
0.07,2.025683E-05
0.071,2.05879E-05
0.072,2.072891E-05
0.073,2.100174E-05
0.074,2.122245E-05
0.075,2.14401E-05
0.076,2.18049E-05
0.077,2.196737E-05
0.078,2.216355E-05
0.079,2.254368E-05
0.08,2.274906E-05
0.081,2.336014E-05
0.082,2.351342E-05
0.083,2.375866E-05
0.084,2.397324E-05
0.085,2.415717E-05
0.086,2.440241E-05
0.087,2.464765E-05
0.088,2.483158E-05
0.089,2.513812E-05
0.09,2.535271E-05
0.091,2.556729E-05
0.092,2.587384E-05
0.093,2.611908E-05
0.094,2.62417E-05
0.095,2.664021E-05
0.096,2.685479E-05
0.097,2.697741E-05
0.098,2.740658E-05
0.099,2.75292E-05
0.1,2.78664E-05
0.101,2.81423E-05
0.102,2.838754E-05
0.103,2.860212E-05
0.104,2.887801E-05
0.105,2.912325E-05
0.106,2.939914E-05
0.107,2.961373E-05
0.108,2.992028E-05
0.109,3.016552E-05
0.11,3.044141E-05
0.111,3.077861E-05
0.112,3.09932E-05
0.113,3.120778E-05
0.114,3.154498E-05
0.115,3.182088E-05
0.116,3.209677E-05
0.117,3.240332E-05
0.118,3.26179E-05
0.119,3.292445E-05
0.12,3.326165E-05
0.121,3.350689E-05
0.122,3.38441E-05
0.123,3.402802E-05
0.124,3.433457E-05
0.125,3.467178E-05
0.126,3.488636E-05
0.127,3.525422E-05
0.128,3.54688E-05
0.129,3.574469E-05
0.13,3.60819E-05
0.131,3.632714E-05
0.132,3.669499E-05
0.133,3.694023E-05
0.134,3.724678E-05
0.135,3.758398E-05
0.136,3.792119E-05
0.137,3.822774E-05
0.138,3.856494E-05
0.139,3.890214E-05
0.14,3.920869E-05
0.141,3.951524E-05
0.142,3.991375E-05
0.143,4.034292E-05
0.144,4.061881E-05
0.145,4.101732E-05
0.146,4.138518E-05
0.147,4.175304E-05
0.148,4.224352E-05
0.149,4.258072E-05
0.15,4.294858E-05
0.151,4.34084E-05
0.152,4.380691E-05
0.153,4.414412E-05
0.154,4.466525E-05
0.155,4.506376E-05
0.156,4.555424E-05
0.157,4.601406E-05
0.158,4.644323E-05
0.159,4.693371E-05
0.16,4.730156E-05
0.161,4.791466E-05
0.162,4.840514E-05
0.163,4.889561E-05
0.164,4.950871E-05
0.165,4.999919E-05
0.166,5.055097E-05
0.167,5.116407E-05
0.168,5.16852E-05
0.169,5.220633E-05
0.17,5.294205E-05
0.171,5.352449E-05
0.172,5.422956E-05
0.173,5.484265E-05
0.174,5.545575E-05
0.175,5.616081E-05
0.176,5.689652E-05
0.177,5.757093E-05
0.178,5.830665E-05
0.179,5.907302E-05
0.18,5.993135E-05
0.181,6.063641E-05
0.182,6.14641E-05
0.183,6.229177E-05
0.184,6.311945E-05
0.185,6.394713E-05
0.186,6.483612E-05
0.187,6.560249E-05
0.188,6.66141E-05
0.189,6.741113E-05
0.19,6.833077E-05
0.191,6.928107E-05
0.192,7.020072E-05
0.193,7.105905E-05
0.194,7.210132E-05
0.195,7.299031E-05
0.196,7.403257E-05
0.197,7.501352E-05
0.198,7.596382E-05
0.199,7.706739E-05
0.2,7.807901E-05
0.201,7.902931E-05
0.202,8.001026E-05
0.203,8.102187E-05
0.204,8.206413E-05
0.205,8.322902E-05
0.206,8.420997E-05
0.207,8.528289E-05
0.208,8.626385E-05
0.209,8.733677E-05
0.21,8.844034E-05
0.211,8.942129E-05
0.212,9.052487E-05
0.213,9.168975E-05
0.214,9.264005E-05
0.215,9.377428E-05
0.216,9.478589E-05
0.217,9.582815E-05
0.218,9.696238E-05
0.219,9.794333E-05
0.22,9.904691E-05
0.221,0.0001001198
0.222,0.0001011314
0.223,0.0001022043
0.224,0.0001032466
0.225,0.0001043195
0.226,0.0001054231
0.227,0.0001063734
0.228,0.0001075076
0.229,0.0001084579
0.23,0.0001093776
0.231,0.0001106038
0.232,0.0001115234
0.233,0.0001125657
0.234,0.0001137306
0.235,0.0001146502
0.236,0.0001155698
0.237,0.0001166428
0.238,0.0001175011
0.239,0.0001184514
0.24,0.0001195243
0.241,0.0001204746
0.242,0.0001215782
0.243,0.0001226511
0.244,0.0001236321
0.245,0.0001245824
0.246,0.000125502
0.247,0.0001265749
0.248,0.0001274639
0.249,0.0001285982
0.25,0.0001295178
0.251,0.0001302842
0.252,0.0001313571
0.253,0.0001322767
0.254,0.0001330738
0.255,0.0001341467
0.256,0.0001351583
0.257,0.000135894
0.258,0.0001370589
0.259,0.0001378253
0.26,0.0001388369
0.261,0.0001398178
0.262,0.0001406761
0.263,0.0001417184
0.264,0.0001427607
0.265,0.0001435884
0.266,0.0001444467
0.267,0.0001454276
0.268,0.0001465006
0.269,0.0001474815
0.27,0.0001482786
0.271,0.0001494434
0.272,0.0001503631
0.273,0.0001512827
0.274,0.0001522637
0.275,0.000153122
0.276,0.0001542562
0.277,0.0001550839
0.278,0.0001560649
0.279,0.0001571378
0.28,0.0001579348
0.281,0.0001588238
0.282,0.0001599887
0.283,0.000160847
0.284,0.0001618893
0.285,0.0001629929
0.286,0.0001637592
0.287,0.0001649854
0.288,0.000165997
0.289,0.0001668554
0.29,0.0001679589
0.291,0.0001690319
0.292,0.0001701354
0.293,0.0001710857
0.294,0.0001721587
0.295,0.0001733848
0.296,0.0001743352
0.297,0.0001753161
0.298,0.0001765116
0.299,0.0001774313
0.3,0.0001787495
0.301,0.000179853
0.302,0.0001807727
0.303,0.0001821521
0.304,0.000183317
0.305,0.000184298
0.306,0.0001856468
0.307,0.0001869956
0.308,0.0001881605
0.309,0.0001893867
0.31,0.0001904596
0.311,0.0001919004
0.312,0.0001931572
0.313,0.0001942608
0.314,0.0001958242
0.315,0.0001968051
0.316,0.0001983685
0.317,0.000199748
0.318,0.0002008516
0.319,0.0002024763
0.32,0.0002039171
0.321,0.0002051433
0.322,0.0002066453
0.323,0.0002077183
0.324,0.0002094963
0.325,0.0002109064
0.326,0.0002121326
0.327,0.0002138799
0.328,0.0002151367
0.329,0.0002166388
0.33,0.0002181716
0.331,0.0002195817
0.332,0.0002215129
0.333,0.0002229537
0.334,0.0002243638
0.335,0.0002262951
0.336,0.0002277972
0.337,0.0002293912
0.338,0.0002312918
0.339,0.0002328859
0.34,0.0002347558
0.341,0.0002365338
0.342,0.0002381278
0.343,0.0002401511
0.344,0.0002419597
0.345,0.000243707
0.346,0.0002458835
0.347,0.0002476308
0.348,0.00024993
0.349,0.0002517079
0.35,0.0002535166
0.351,0.0002556317
0.352,0.0002578082
0.353,0.0002596169
0.354,0.0002618547
0.355,0.0002638166
0.356,0.0002661157
0.357,0.0002682002
0.358,0.0002706526
0.359,0.0002728598
0.36,0.0002748524
0.361,0.0002773047
0.362,0.0002797571
0.363,0.0002816577
0.364,0.0002845086
0.365,0.0002906194
0.366,0.0002921522
0.367,0.0002949111
0.368,0.0002973635
0.369,0.0002998159
0.37,0.0003025748
0.371,0.0003050272
0.372,0.0003077862
0.373,0.0003105451
0.374,0.0003126909
0.375,0.0003160629
0.376,0.0003185153
0.377,0.0003212743
0.378,0.0003246463
0.379,0.0003267921
0.38,0.0003301642
0.381,0.0003335362
0.382,0.0003359886
0.383,0.0003393606
0.384,0.0003421196
0.385,0.0003454916
0.386,0.0003491702
0.387,0.0003516225
0.388,0.0003553011
0.389,0.0003586731
0.39,0.0003617386
0.391,0.0003654172
0.392,0.0003687892
0.393,0.0003718548
0.394,0.0003761464
0.395,0.0003789053
0.396,0.0003828905
0.397,0.0003868756
0.398,0.0003899411
0.399,0.0003942328
0.4,0.0003976048
0.401,0.0004015899
0.402,0.0004061882
0.403,0.0004095602
0.404,0.0004138518
0.405,0.0004181435
0.406,0.0004215155
0.407,0.0004264203
0.408,0.0004300989
0.409,0.0004353102
0.41,0.000440215
0.411,0.000443587
0.412,0.0004484918
0.413,0.00045309
0.414,0.0004570751
0.415,0.000462593
0.416,0.0004671912
0.417,0.0004717895
0.418,0.0004766943
0.419,0.0004812925
0.42,0.0004871169
0.421,0.0004917151
0.422,0.0004966198
0.423,0.0005024443
0.424,0.0005070425
0.425,0.0005125604
0.426,0.0005180782
0.427,0.0005226765
0.428,0.000529114
0.429,0.0005346319
0.43,0.0005398432
0.431,0.0005462807
0.432,0.000551492
0.433,0.0005573165
0.434,0.0005640605
0.435,0.0005689653
0.436,0.0005760159
0.437,0.0005824534
0.438,0.0005882778
0.439,0.0005950219
0.44,0.0006014594
0.441,0.0006078969
0.442,0.0006152541
0.443,0.0006216916
0.444,0.0006293553
0.445,0.0006357929
0.446,0.0006428434
0.447,0.0006511202
0.448,0.0006575577
0.449,0.0006652214
0.45,0.0006731917
0.451,0.0006799357
0.452,0.0006897453
0.453,0.0006967959
0.454,0.0007044596
0.455,0.0007142691
0.456,0.0007213198
0.457,0.0007299031
0.458,0.0007394061
0.459,0.0007470698
0.46,0.0007571859
0.461,0.0007666889
0.462,0.0007749657
0.463,0.0007856949
0.464,0.0007945848
0.465,0.0008043944
0.466,0.0008145105
0.467,0.00082432
0.468,0.0008356623
0.469,0.0008451653
0.47,0.000856201
0.471,0.0008681564
0.472,0.0008779659
0.473,0.0008902278
0.474,0.0009021832
0.475,0.0009132189
0.476,0.0009267071
0.477,0.000938356
0.478,0.0009506179
0.479,0.0009644126
0.48,0.0009775942
0.481,0.0009910823
0.482,0.001005796
0.483,0.001019898
0.484,0.001035838
0.485,0.001049939
0.486,0.00106496
0.487,0.00108274
0.488,0.001098374
0.489,0.001116154
0.49,0.001134547
0.491,0.00115202
0.492,0.001173172
0.493,0.001192484
0.494,0.00121333
0.495,0.001236321
0.496,0.001256553
0.497,0.001281997
0.498,0.00130652
0.499,0.00133227
0.5,0.001361392
0.501,0.001388369
0.502,0.001418717
0.503,0.001451824
0.504,0.001483399
0.505,0.001519571
0.506,0.001557583
0.507,0.001595902
0.508,0.001639432
0.509,0.001682349
0.51,0.001728944
0.511,0.001780138
0.512,0.001834397
0.513,0.001890188
0.514,0.001950272
0.515,0.002011888
0.516,0.002082394
0.517,0.002151367
0.518,0.002227698
0.519,0.002309546
0.52,0.002392621
0.521,0.002483972
0.522,0.002579309
0.523,0.002678937
0.524,0.002787455
0.525,0.002899959
0.526,0.00301706
0.527,0.003172891
0.528,0.003301642
0.529,0.003436523
0.53,0.0035806
0.531,0.003730809
0.532,0.003890214
0.533,0.004052685
0.534,0.004224352
0.535,0.004405215
0.536,0.004586079
0.537,0.004779204
0.538,0.004975395
0.539,0.005177717
0.54,0.0053923
0.541,0.00560995
0.542,0.005830665
0.543,0.006063641
0.544,0.006302749
0.545,0.006544922
0.546,0.006796291
0.547,0.007047662
0.548,0.007311293
0.549,0.007574924
0.55,0.007847751
0.551,0.008123646
0.552,0.00840567
0.553,0.008693825
0.554,0.00898198
0.555,0.009276267
0.556,0.00957975
0.557,0.009880167
0.558,0.01019285
0.559,0.01050552
0.56,0.0108182
0.561,0.01114621
0.562,0.01146809
0.563,0.01179609
0.564,0.0121333
0.565,0.01246437
0.566,0.01280157
0.567,0.01314491
0.568,0.01348824
0.569,0.01383464
0.57,0.01418717
0.571,0.0145397
0.572,0.0148953
0.573,0.01525089
0.574,0.01561568
0.575,0.01597741
0.576,0.0163422
0.577,0.01671619
0.578,0.01708099
0.579,0.01745497
0.58,0.01783203
0.581,0.01820295
0.582,0.01858307
0.583,0.01896932
0.584,0.01934025
0.585,0.01973263
0.586,0.02011888
0.587,0.020499
0.588,0.02089445
0.589,0.02128376
0.59,0.02167001
0.591,0.02207159
0.592,0.02246397
0.593,0.02286249
0.594,0.023261
0.595,0.02366258
0.596,0.02406722
0.597,0.02446267
0.598,0.02487038
0.599,0.02527502
0.6,0.0256766
0.601,0.02609044
0.602,0.02649815
0.603,0.02690586
0.604,0.02732276
0.605,0.02773047
0.606,0.02814431
0.607,0.02856122
0.608,0.02897506
0.609,0.02939196
0.61,0.029815
0.611,0.03022884
0.612,0.03142237
0.613,0.03182088
0.614,0.03225004
0.615,0.03267921
0.616,0.03310838
0.617,0.03353755
0.618,0.03396672
0.619,0.03439588
0.62,0.03482505
0.621,0.03525422
0.622,0.03568339
0.623,0.03614321
0.624,0.03657238
0.625,0.03700154
0.626,0.03743071
0.627,0.03785988
0.628,0.0383197
0.629,0.03874887
0.63,0.03917804
0.631,0.03963786
0.632,0.04006703
0.633,0.04052685
0.634,0.04095602
0.635,0.04141584
0.636,0.04184501
0.637,0.04227417
0.638,0.04273399
0.639,0.04316316
0.64,0.04362299
0.641,0.04408281
0.642,0.04451197
0.643,0.0449718
0.644,0.04540097
0.645,0.04586079
0.646,0.04632061
0.647,0.04674978
0.648,0.0472096
0.649,0.04766942
0.65,0.04809859
0.651,0.04855841
0.652,0.04901823
0.653,0.0494474
0.654,0.04990723
0.655,0.05036705
0.656,0.05079622
0.657,0.05125604
0.658,0.05171586
0.659,0.05217568
0.66,0.0526355
0.661,0.05309533
0.662,0.05352449
0.663,0.05401497
0.664,0.0544748
0.665,0.05493462
0.666,0.05539444
0.667,0.05585426
0.668,0.05631408
0.669,0.05677391
0.67,0.05723373
0.671,0.05769355
0.672,0.05815337
0.673,0.05861319
0.674,0.05907302
0.675,0.05953284
0.676,0.05999266
0.677,0.06045249
0.678,0.06094296
0.679,0.06140279
0.68,0.06186261
0.681,0.06232243
0.682,0.06278225
0.683,0.06324207
0.684,0.06373256
0.685,0.06419238
0.686,0.0646522
0.687,0.06514268
0.688,0.06557184
0.689,0.06606232
0.69,0.06652214
0.691,0.06698196
0.692,0.06744178
0.693,0.06793226
0.694,0.06839209
0.695,0.06885191
0.696,0.06931173
0.697,0.06980221
0.698,0.07026203
0.699,0.07075251
0.7,0.07087513
0.6990001,0.0704153
0.6980001,0.06998613
0.6970001,0.06949566
0.6960001,0.06906649
0.6950001,0.06860667
0.6940001,0.06817751
0.6930001,0.06771768
0.6920001,0.06725786
0.6910001,0.06682869
0.6900001,0.06636887
0.6890001,0.0659397
0.6880001,0.06547987
0.6870001,0.06502005
0.6860001,0.06459089
0.6850001,0.06413107
0.6840001,0.0637019
0.6830001,0.06324207
0.6820001,0.06278225
0.6810001,0.06235309
0.6800001,0.06192392
0.6790001,0.0614641
0.6780001,0.06100427
0.6770001,0.06057511
0.6760001,0.06011529
0.6750001,0.05968611
0.6740001,0.05925695
0.6730001,0.05879712
0.6720001,0.0583373
0.6710001,0.05790814
0.6700001,0.05747896
0.6690001,0.05701914
0.6680001,0.05658998
0.6670001,0.05616081
0.6660001,0.05570099
0.6650001,0.05524116
0.6640001,0.054812
0.6630001,0.05438283
0.6620001,0.05392301
0.6610001,0.05349384
0.6600001,0.05306467
0.6590001,0.05260485
0.6580001,0.05217568
0.6570001,0.05174651
0.6560001,0.05131735
0.6550001,0.05085753
0.6540001,0.05042836
0.6530001,0.04999919
0.6520001,0.04957002
0.6510001,0.04914085
0.6500001,0.04868103
0.6490001,0.04828252
0.6480001,0.04785335
0.6470001,0.04742418
0.6460001,0.04696436
0.6450001,0.04653519
0.6440001,0.04610603
0.6430001,0.04567686
0.6420001,0.04524769
0.6410001,0.04481852
0.6400001,0.04438936
0.6390001,0.04396019
0.6380001,0.04353102
0.6370001,0.04310185
0.6360001,0.04267269
0.6350001,0.04224352
0.6340001,0.04181435
0.6330001,0.04138518
0.6320001,0.04098667
0.6310001,0.0405575
0.6300001,0.04012834
0.6290001,0.03969917
0.6280001,0.03927
0.6270001,0.03884083
0.6260001,0.03844232
0.6250001,0.03801315
0.6240001,0.03758398
0.6230001,0.03718547
0.6220001,0.0367563
0.6210001,0.03632713
0.6200001,0.03592863
0.6190001,0.03549946
0.6180001,0.03507029
0.6170001,0.03467178
0.6160001,0.03427326
0.6150001,0.03384409
0.6140001,0.03344558
0.6130001,0.03301642
0.6120001,0.0326179
0.6110001,0.03221939
0.6100001,0.03179022
0.6090001,0.03139171
0.6080001,0.0309932
0.6070001,0.03059468
0.6060001,0.03016552
0.6050001,0.029767
0.6040001,0.02936849
0.6030001,0.02896998
0.6020001,0.02854081
0.6010001,0.02817295
0.6000001,0.02777444
0.5990001,0.02737593
0.5980001,0.02697741
0.5970001,0.0265789
0.5960001,0.02618039
0.5950001,0.02578188
0.5940001,0.02538336
0.5930001,0.02501551
0.5920001,0.02461699
0.5910001,0.02421848
0.5900001,0.02385062
0.5890001,0.02345211
0.5880001,0.02308425
0.5870001,0.02268574
0.5860001,0.02228723
0.5850001,0.02191937
0.5840001,0.02155151
0.5830001,0.021153
0.5820001,0.02078514
0.5810001,0.02041728
0.5800001,0.02004942
0.5790001,0.01968157
0.5780001,0.01931371
0.5770001,0.01894585
0.5760001,0.01857799
0.5750001,0.01821013
0.5740001,0.01787293
0.5730001,0.01750507
0.5720001,0.01713721
0.5710001,0.01680001
0.5700001,0.01643215
0.5690001,0.01609495
0.5680001,0.01575775
0.5670001,0.01538989
0.5660001,0.01505269
0.5650001,0.01471548
0.5640001,0.01434763
0.5630001,0.01401042
0.5620001,0.01367322
0.5610001,0.01333602
0.5600001,0.01253487
0.5590001,0.01220993
0.5580001,0.01189419
0.5570001,0.01157538
0.5560001,0.01125963
0.5550001,0.01095309
0.5540001,0.01064347
0.5530001,0.01033386
0.5520001,0.01003651
0.5510001,0.009733024
0.5500001,0.009438737
0.5490001,0.009147516
0.5480001,0.008856296
0.5470001,0.008574272
0.5460001,0.008292247
0.5450001,0.008013288
0.5440001,0.00774046
0.5430001,0.007470698
0.5420001,0.007204001
0.5410001,0.006943435
0.5400001,0.006682869
0.5390001,0.006431499
0.5380001,0.006183195
0.5370001,0.005937956
0.5360001,0.005701914
0.5350001,0.005462807
0.5340001,0.005232896
0.5330001,0.005009115
0.5320001,0.004788401
0.5310001,0.004573816
0.5300001,0.004359233
0.5290001,0.004153845
0.5280001,0.003957655
0.5270001,0.003758398
0.5260001,0.003568338
0.5250001,0.003384409
0.5240001,0.003203546
0.5230001,0.003031879
0.5220001,0.002863277
0.5210001,0.002697741
0.5200001,0.002541402
0.5190001,0.002388128
0.5180001,0.002240984
0.5170001,0.002099972
0.5160001,0.001962026
0.5150001,0.001833275
0.5140001,0.001710656
0.5130001,0.001588037
0.5120001,0.001471548
0.5110001,0.001364256
0.5100001,0.00126003
0.5090001,0.001128722
0.5080001,0.001033999
0.5070001,0.0009457131
0.5060001,0.0008595731
0.5050001,0.0007774181
0.5040001,0.0007032334
0.5030001,0.0006287422
0.5020001,0.000560995
0.5010001,0.0004969264
0.5000001,0.0004346971
0.4990001,0.0003782923
0.4980001,0.0003243398
0.4970001,0.0002740658
0.4960001,0.0002290032
0.4950001,0.0001817948
0.4940001,0.000141637
0.4930001,0.0001042381
0.4920001,6.622611E-05
0.4910001,2.982831E-05
0.4900001,-2.134165E-07
0.4890001,-3.019383E-05
0.4880001,-5.511621E-05
0.4870001,-8.132608E-05
0.4860001,-0.0001042252
0.4850001,-0.0001240589
0.4840001,-0.0001464982
0.4830001,-0.0001635117
0.4820001,-0.000179912
0.4810001,-0.0001966189
0.4800001,-0.0002098924
0.4790001,-0.0002241162
0.4780001,-0.0002357038
0.4770001,-0.0002462797
0.4760001,-0.0002578365
0.4750001,-0.000266144
0.4740001,-0.0002751872
0.4730001,-0.0002835253
0.4720001,-0.0002875306
0.4710001,-0.000293355
0.4700001,-0.0002982598
0.4690001,-0.000302858
0.4680001,-0.0003096021
0.4670001,-0.000312361
0.4660001,-0.0003157331
0.4650001,-0.0003203313
0.4640001,-0.0003212509
0.4630001,-0.0003258491
0.4620001,-0.000327995
0.4610001,-0.0003292212
0.4600001,-0.0003322866
0.4590001,-0.0003325932
0.4580001,-0.0003328998
0.4570001,-0.000334739
0.4560001,-0.0003341259
0.4550001,-0.0003359652
0.4540001,-0.0003359652
0.4530001,-0.0003353521
0.4520001,-0.0003365783
0.4510001,-0.0003356587
0.4500001,-0.0003356587
0.4490001,-0.0003356587
0.4480001,-0.0003344325
0.4470001,-0.0003353521
0.4460001,-0.0003338194
0.4450001,-0.0003319801
0.4440001,-0.0003325932
0.4430001,-0.0003301408
0.4420001,-0.0003295277
0.4410001,-0.0003292212
0.4400001,-0.0003261557
0.4390001,-0.0003267688
0.4380001,-0.0003255426
0.4370001,-0.0003227837
0.4360001,-0.0003224771
0.4350001,-0.0003203313
0.4340001,-0.000318492
0.4330001,-0.0003181854
0.4320001,-0.0003151199
0.4310001,-0.0003142003
0.4300001,-0.000312361
0.4290001,-0.0003108283
0.4280001,-0.0003092955
0.4270001,-0.0003068431
0.4260001,-0.0003053104
0.4250001,-0.0003034711
0.4240001,-0.0003010187
0.4230001,-0.0003004056
0.4220001,-0.0002985664
0.4210001,-0.0002955009
0.4200001,-0.0002951943
0.4190001,-0.0002918223
0.4180001,-0.000289983
0.4170001,-0.0002887568
0.4160001,-0.0002853848
0.4150001,-0.0002841586
0.4140001,-0.0002820127
0.4130001,-0.0002795603
0.4120001,-0.0002786407
0.4110001,-0.0002758818
0.4100001,-0.0002752687
0.4090001,-0.0002734294
0.4080001,-0.0002694443
0.4070001,-0.0002679115
0.4060001,-0.0002657657
0.4050001,-0.0002630067
0.4040001,-0.000261474
0.4030001,-0.0002590216
0.4020001,-0.0002565692
0.4010001,-0.0002550365
0.4000001,-0.0002522776
0.3990001,-0.0002507448
0.3980001,-0.000248599
0.3970001,-0.0002461466
0.3960001,-0.0002449204
0.3950001,-0.0002421615
0.3940001,-0.0002400156
0.3930001,-0.0002381763
0.3920001,-0.0002354174
0.3910001,-0.0002338847
0.3900001,-0.0002320454
0.3890001,-0.0002292864
0.3880001,-0.0002280602
0.3870001,-0.0002259144
0.3860001,-0.000223462
0.3850001,-0.0002219293
0.3840001,-0.0002194769
0.3830001,-0.0002176376
0.3820001,-0.0002157983
0.3810001,-0.0002133459
0.3800001,-0.0002121197
0.3790001,-0.0002099739
0.3780001,-0.0002078281
0.3770001,-0.0002062953
0.3760001,-0.0002035364
0.3750001,-0.0002023102
0.3740001,-0.0002004709
0.3730001,-0.000197712
0.3720001,-0.0001967923
0.3710001,-0.000194953
0.3700001,-0.0001928072
0.3690001,-0.0001912744
0.3680001,-0.0001888221
0.3670001,-0.0001872893
0.3660001,-0.0001857566
0.3650001,-0.0001839173
0.3640001,-0.0001823845
0.3630001,-0.0001805453
0.3620001,-0.000178706
0.3610001,-0.0001771732
0.3600001,-0.0001750274
0.3590001,-0.0001738012
0.3580001,-0.0001716554
0.3570001,-0.0001695095
0.3560001,-0.0001688964
0.3550001,-0.000166444
0.3540001,-0.0001649113
0.3530001,-0.0001636851
0.3520001,-0.0001618458
0.3510001,-0.0001606196
0.3500001,-0.0001590869
0.3490001,-0.0001569411
0.3480001,-0.0001563279
0.3470001,-0.0001544887
0.3460001,-0.0001529559
0.3450001,-0.0001517297
0.3440001,-0.0001498904
0.3430001,-0.0001483577
0.3420001,-0.0001471315
0.3410001,-0.0001455988
0.3400001,-0.000148123
0.3390001,-0.0001463756
0.3380001,-0.0001448429
0.3370001,-0.0001438006
0.3360001,-0.000142084
0.3350001,-0.0001410723
0.3340001,-0.0001399075
0.3330001,-0.0001383747
0.3320001,-0.000137547
0.3310001,-0.0001361063
0.3300001,-0.0001347575
0.3290001,-0.0001338378
0.3280001,-0.0001321824
0.3270001,-0.0001312322
0.3260001,-0.0001301899
0.3250001,-0.0001287491
0.3240001,-0.0001278908
0.3230001,-0.0001266339
0.3220001,-0.0001252544
0.3210001,-0.0001244268
0.3200001,-0.0001233539
0.3190001,-0.0001223422
0.3180001,-0.0001213306
0.3170001,-0.0001201964
0.3160001,-0.0001194607
0.3150001,-0.0001183878
0.3140001,-0.0001173455
0.3130001,-0.0001165178
0.3120001,-0.0001152303
0.3110001,-0.0001145866
0.3100001,-0.0001137282
0.3090001,-0.0001124714
0.3080001,-0.0001119196
0.3070001,-0.000110908
0.3060001,-0.0001098044
0.3050001,-0.00010913
0.3040001,-0.0001079038
0.3030001,-0.0001072907
0.3020001,-0.0001066163
0.3010001,-0.0001054514
0.3000001,-0.0001050223
0.2990001,-0.0001041333
0.2980001,-0.0001029991
0.2970001,-0.0001025699
0.2960001,-0.0001015276
0.2950001,-0.0001008839
0.2940001,-0.0001004547
0.2930001,-9.944309E-05
0.2920001,-9.898326E-05
0.2910001,-9.833951E-05
0.2900001,-9.741987E-05
0.2890001,-9.696004E-05
0.2880001,-9.610171E-05
0.2870001,-9.554992E-05
0.2860001,-9.50901E-05
0.2850001,-9.417046E-05
0.2840001,-9.374129E-05
0.2830001,-9.306688E-05
0.2820001,-9.226986E-05
0.2810001,-9.174873E-05
0.2800001,-9.085974E-05
0.2790001,-9.052253E-05
0.2780001,-8.997074E-05
0.2770001,-8.923503E-05
0.2760001,-8.886717E-05
0.2750001,-8.828473E-05
0.2740001,-8.751835E-05
0.2730001,-8.721181E-05
0.2720001,-8.638413E-05
0.2710001,-8.601627E-05
0.2700001,-8.567907E-05
0.2690001,-8.521925E-05
0.2680001,-8.488204E-05
0.2670001,-8.439157E-05
0.2660001,-8.377847E-05
0.2650001,-8.337996E-05
0.2640001,-8.279752E-05
0.2630001,-8.258293E-05
0.2620001,-8.209245E-05
0.2610001,-8.14487E-05
0.2600001,-8.120346E-05
0.2590001,-8.07743E-05
0.2580001,-8.009989E-05
0.2570001,-7.994661E-05
0.2560001,-7.936417E-05
0.2550001,-7.893501E-05
0.2540001,-7.872043E-05
0.2530001,-7.810732E-05
0.2520001,-7.79234E-05
0.2510001,-7.75862E-05
0.2500001,-7.721834E-05
0.2490001,-7.700375E-05
0.2480001,-7.651328E-05
0.2470001,-7.639066E-05
0.2460001,-7.611477E-05
0.2450001,-7.565494E-05
0.2440001,-7.556297E-05
0.2430001,-7.516446E-05
0.2420001,-7.47353E-05
0.2410001,-7.467398E-05
0.2400001,-7.415286E-05
0.2390001,-7.396893E-05
0.2380001,-7.369304E-05
0.2370001,-7.326387E-05
0.2360001,-7.329452E-05
0.2350001,-7.289601E-05
0.2340001,-7.249749E-05
0.2330001,-7.240553E-05
0.2320001,-7.203767E-05
0.2310001,-7.182309E-05
0.2300001,-7.170047E-05
0.2290001,-7.133261E-05
0.2280001,-7.130195E-05
0.2270001,-7.108737E-05
0.2260001,-7.081147E-05
0.2250001,-7.090344E-05
0.2240001,-7.050493E-05
0.2230001,-7.035166E-05
0.2220001,-7.02597E-05
0.2210001,-7.010641E-05
0.2200001,-7.001445E-05
0.2190001,-6.979987E-05
0.2180001,-6.958529E-05
0.2170001,-6.955463E-05
0.2160001,-6.921743E-05
0.2150001,-6.918678E-05
0.2140001,-6.906415E-05
0.2130001,-6.872695E-05
0.2120001,-6.866564E-05
0.2110001,-6.860433E-05
0.2100001,-6.832844E-05
0.2090001,-6.832844E-05
0.2080001,-6.805255E-05
0.2070001,-6.796058E-05
0.2060001,-6.789927E-05
0.2050001,-6.771534E-05
0.2040001,-6.765403E-05
0.2030001,-6.750075E-05
0.2020001,-6.728617E-05
0.2010001,-6.725552E-05
0.2000001,-6.697963E-05
0.1990001,-6.701028E-05
0.1980001,-6.694897E-05
0.1970001,-6.676505E-05
0.1960001,-6.682635E-05
0.1950001,-6.685701E-05
0.1940001,-6.661176E-05
0.1930001,-6.65198E-05
0.1920001,-6.627457E-05
0.1910001,-6.627457E-05
0.1900001,-6.627457E-05
0.1890001,-6.590671E-05
0.1880001,-6.590671E-05
0.1870001,-6.590671E-05
0.1860001,-6.58454E-05
0.1850001,-6.587605E-05
0.1840001,-6.572278E-05
0.1830001,-6.569213E-05
0.1820001,-6.566147E-05
0.1810001,-6.538557E-05
0.1800001,-6.544688E-05
0.1790001,-6.529361E-05
0.1780001,-6.517099E-05
0.1770001,-6.514033E-05
0.1760001,-6.48951E-05
0.1750001,-6.480313E-05
0.1740001,-6.495641E-05
0.1730001,-6.480313E-05
0.1720001,-6.48951E-05
0.1710001,-6.483379E-05
0.1700001,-6.474183E-05
0.1690001,-6.480313E-05
0.1680001,-6.471117E-05
0.1670001,-6.474183E-05
0.1660001,-6.471117E-05
0.1650001,-6.440462E-05
0.1640001,-6.45579E-05
0.1630001,-6.437397E-05
0.1620001,-6.422069E-05
0.1610001,-6.431266E-05
0.1600001,-6.406742E-05
0.1590001,-6.406742E-05
0.1580001,-6.406742E-05
0.1570001,-6.388349E-05
0.1560001,-6.40061E-05
0.1550001,-6.385284E-05
0.1540001,-6.385284E-05
0.1530001,-6.382218E-05
0.1520001,-6.354629E-05
0.1510001,-6.360759E-05
0.1500001,-6.363825E-05
0.1490001,-6.339301E-05
0.1480001,-6.342367E-05
0.1470001,-6.330105E-05
0.1460001,-6.314777E-05
0.1450001,-6.320909E-05
0.1440001,-6.302515E-05
0.1430001,-6.290253E-05
0.1420001,-6.290253E-05
0.1410001,-6.281057E-05
0.1400001,-6.274926E-05
0.1390001,-6.265729E-05
0.1380001,-6.250402E-05
0.1370001,-6.247337E-05
0.1360001,-6.225878E-05
0.1350001,-6.228944E-05
0.1340001,-6.216682E-05
0.1330001,-6.192158E-05
0.1320001,-6.20442E-05
0.1310001,-6.1707E-05
0.1300001,-6.161503E-05
0.1290001,-6.161503E-05
0.1280001,-6.136979E-05
0.1270001,-6.127783E-05
0.1260001,-6.121652E-05
0.1250001,-6.087931E-05
0.1240001,-6.087931E-05
0.1230001,-6.078735E-05
0.1220001,-6.054211E-05
0.1210001,-6.04808E-05
0.1200001,-6.023556E-05
0.1190001,-6.01436E-05
0.1180001,-6.005164E-05
0.1170001,-5.98064E-05
0.1160001,-5.971443E-05
0.1150001,-5.949985E-05
0.1140001,-5.937723E-05
0.1130001,-5.916264E-05
0.1120001,-5.891741E-05
0.1110001,-5.879479E-05
0.1100001,-5.870283E-05
0.1090001,-5.851889E-05
0.1080001,-5.845758E-05
0.1070001,-5.818169E-05
0.1060001,-5.796711E-05
0.1050001,-5.787514E-05
0.1040001,-5.759925E-05
0.1030001,-5.759925E-05
0.1020001,-5.75686E-05
0.1010001,-5.735401E-05
0.1000001,-5.720073E-05
0.0990001,-5.713943E-05
0.09800009,-5.692484E-05
0.09700009,-5.692484E-05
0.0960001,-5.66796E-05
0.0950001,-5.66183E-05
0.09400009,-5.652633E-05
0.0930001,-5.640371E-05
0.0920001,-5.637306E-05
0.0910001,-5.621978E-05
0.09000009,-5.603585E-05
0.0890001,-5.594389E-05
0.0880001,-5.5668E-05
0.08700009,-5.563734E-05
0.08600009,-5.551472E-05
0.0850001,-5.533079E-05
0.0840001,-5.533079E-05
0.08300009,-5.517752E-05
0.08200009,-5.508555E-05
0.0810001,-5.499359E-05
0.0800001,-5.480966E-05
0.07900009,-5.484031E-05
0.0780001,-5.484031E-05
0.0770001,-5.471769E-05
0.07600009,-5.4779E-05
0.07500009,-5.465639E-05
0.0740001,-5.44418E-05
0.0730001,-5.44418E-05
0.07200009,-5.428853E-05
0.07100009,-5.425787E-05
0.0700001,-5.41046E-05
0.0690001,-5.413526E-05
0.06800009,-5.416591E-05
0.0670001,-5.413526E-05
0.0660001,-5.404329E-05
0.06500009,-5.398198E-05
0.06400009,-5.385936E-05
0.0630001,-5.38287E-05
0.0620001,-5.37674E-05
0.06100009,-5.364477E-05
0.0600001,-5.364477E-05
0.0590001,-5.361412E-05
0.0580001,-5.346085E-05
0.0570001,-5.34915E-05
0.05600009,-5.346085E-05
0.0550001,-5.355281E-05
0.05400009,-5.352216E-05
0.0530001,-5.34915E-05
0.05200009,-5.346085E-05
0.0510001,-5.343019E-05
0.05000009,-5.339954E-05
0.0490001,-5.333823E-05
0.04800009,-5.339954E-05
0.0470001,-5.336888E-05
0.0460001,-5.327692E-05
0.04500009,-5.330757E-05
0.0440001,-5.330757E-05
0.04300009,-5.324627E-05
0.0420001,-5.324627E-05
0.04100009,-5.318495E-05
0.0400001,-5.31543E-05
0.03900009,-5.318495E-05
0.0380001,-5.309299E-05
0.03700009,-5.306234E-05
0.0360001,-5.31543E-05
0.0350001,-5.306234E-05
0.03400009,-5.297037E-05
0.0330001,-5.303168E-05
0.03200009,-5.297037E-05
0.03100009,-5.297037E-05
0.0300001,-5.300103E-05
0.0290001,-5.290906E-05
0.0280001,-5.300103E-05
0.0270001,-5.300103E-05
0.0260001,-5.293972E-05
0.0250001,-5.303168E-05
0.0240001,-5.303168E-05
0.0230001,-5.306234E-05
0.02200009,-5.312365E-05
0.02100009,-5.312365E-05
0.02000009,-5.318495E-05
0.0190001,-5.31543E-05
0.0180001,-5.31543E-05
0.0170001,-5.31543E-05
0.0160001,-5.306234E-05
0.0150001,-5.303168E-05
0.0140001,-5.300103E-05
0.0130001,-5.300103E-05
0.0120001,-5.306234E-05
0.01100009,-5.309299E-05
0.0100001,-5.306234E-05
0.009000096,-5.309299E-05
0.008000095,-5.306234E-05
0.007000095,-5.312365E-05
0.006000096,-5.318495E-05
0.005000095,-5.321561E-05
0.004000095,-5.327692E-05
0.003000095,-5.324627E-05
0.002000095,-5.321561E-05
0.001000095,-5.321561E-05
9.536743E-08,-4.93531E-05
0.0009999046,-4.693137E-05
0.001999905,-4.558256E-05
0.002999905,-4.463226E-05
0.003999905,-4.368196E-05
0.004999904,-4.288493E-05
0.005999905,-4.214922E-05
0.006999905,-4.144416E-05
0.007999904,-4.083106E-05
0.008999905,-4.018731E-05
0.009999905,-3.963552E-05
0.0109999,-3.911439E-05
0.0119999,-3.85626E-05
0.0129999,-3.804147E-05
0.0139999,-3.764296E-05
0.0149999,-3.709117E-05
0.0159999,-3.663135E-05
0.0169999,-3.617152E-05
0.0179999,-3.568105E-05
0.0189999,-3.531319E-05
0.0199999,-3.485337E-05
0.0209999,-3.448551E-05
0.0219999,-3.411765E-05
0.02299991,-3.365783E-05
0.02399991,-3.328997E-05
0.02499991,-3.295277E-05
0.02599991,-3.25236E-05
0.0269999,-3.221706E-05
0.0279999,-3.175723E-05
0.0289999,-3.138937E-05
0.0299999,-3.105217E-05
0.0309999,-3.068431E-05
0.0319999,-3.037777E-05
0.0329999,-3.004056E-05
0.0339999,-2.976467E-05
0.0349999,-2.945812E-05
0.03599991,-2.909026E-05
0.0369999,-2.878371E-05
0.03799991,-2.853847E-05
0.0389999,-2.823193E-05
0.03999991,-2.792538E-05
0.0409999,-2.764948E-05
0.04199991,-2.731228E-05
0.0429999,-2.706704E-05
0.0439999,-2.679115E-05
0.0449999,-2.642329E-05
0.0459999,-2.620871E-05
0.04699991,-2.587151E-05
0.0479999,-2.562626E-05
0.04899991,-2.538103E-05
0.0499999,-2.507448E-05
0.05099991,-2.473728E-05
0.0519999,-2.452269E-05
0.05299991,-2.42468E-05
0.0539999,-2.397091E-05
0.0549999,-2.369501E-05
0.0559999,-2.341912E-05
0.0569999,-2.311257E-05
0.05799991,-2.292864E-05
0.0589999,-2.265275E-05
0.05999991,-2.23462E-05
0.0609999,-2.210096E-05
0.06199991,-2.188638E-05
0.0629999,-2.157983E-05
0.06399991,-2.133459E-05
0.06499991,-2.118132E-05
0.0659999,-2.087477E-05
0.0669999,-2.069084E-05
0.06799991,-2.038429E-05
0.0689999,-2.013905E-05
0.0699999,-1.995512E-05
0.07099991,-1.964857E-05
0.07199991,-1.94953E-05
0.0729999,-1.934203E-05
0.0739999,-1.906613E-05
0.07499991,-1.885155E-05
0.07599991,-1.860631E-05
0.0769999,-1.836107E-05
0.0779999,-1.814649E-05
0.07899991,-1.783994E-05
0.0799999,-1.765601E-05
0.0809999,-1.738012E-05
0.08199991,-1.710422E-05
0.08299991,-1.682833E-05
0.0839999,-1.658309E-05
0.0849999,-1.642982E-05
0.08599991,-1.63072E-05
0.08699991,-1.597E-05
0.0879999,-1.578607E-05
0.0889999,-1.557148E-05
0.08999991,-1.532624E-05
0.0909999,-1.520363E-05
0.0919999,-1.498904E-05
0.09299991,-1.477446E-05
0.09399991,-1.465184E-05
0.0949999,-1.434529E-05
0.0959999,-1.416136E-05
0.09699991,-1.400809E-05
0.09799991,-1.373219E-05
0.0989999,-1.364023E-05
0.0999999,-1.336434E-05
0.1009999,-1.321106E-05
0.1019999,-1.299648E-05
0.1029999,-1.278189E-05
0.1039999,-1.259797E-05
0.1049999,-1.236297E-05
0.1059999,-1.216678E-05
0.1069999,-1.206256E-05
0.1079999,-1.178973E-05
0.1089999,-1.163646E-05
0.1099999,-1.142187E-05
0.1109999,-1.119196E-05
0.1119999,-1.106321E-05
0.1129999,-1.091607E-05
0.1139999,-1.062485E-05
0.1149999,-1.04777E-05
0.1159999,-1.033363E-05
0.1169999,-1.013744E-05
0.1179999,-9.999487E-06
0.1189999,-9.775707E-06
0.1199999,-9.591779E-06
0.1209999,-9.389456E-06
0.1219999,-9.193265E-06
0.1229999,-9.006271E-06
0.1239999,-8.794753E-06
0.1249999,-8.656806E-06
0.1259999,-8.442223E-06
0.1269999,-8.098888E-06
0.1279999,-7.991596E-06
0.1289999,-7.755554E-06
0.1299999,-7.562428E-06
0.1309999,-7.418351E-06
0.1319999,-7.133261E-06
0.1329999,-7.004511E-06
0.1339999,-6.80832E-06
0.1349999,-6.553885E-06
0.1359999,-6.397545E-06
0.1369999,-6.222813E-06
0.1379999,-5.931592E-06
0.1389999,-5.858021E-06
0.1399999,-5.671026E-06
0.1409999,-5.339954E-06
0.1419999,-5.318495E-06
0.1429999,-5.143763E-06
0.1439999,-4.864804E-06
0.1449999,-4.73912E-06
0.1459999,-4.48775E-06
0.1469999,-4.346738E-06
0.1479999,-4.067778E-06
0.1489999,-3.926767E-06
0.1499999,-3.782689E-06
0.1509999,-3.558908E-06
0.1519999,-3.460813E-06
0.1529999,-3.240098E-06
0.1539999,-3.000991E-06
0.1549999,-2.909026E-06
0.1559999,-2.642329E-06
0.1569999,-2.531972E-06
0.1579999,-2.378698E-06
0.1589999,-2.121197E-06
0.1599999,-1.912744E-06
0.1609999,-1.848369E-06
0.1619999,-1.575541E-06
0.1629999,-1.446791E-06
0.1639999,-1.219945E-06
0.1649999,-9.808376E-07
0.1659999,-8.643493E-07
0.1669999,-6.804204E-07
0.1679999,-5.148843E-07
0.1689999,-4.290508E-07
0.1699999,-2.022051E-07
0.1709999,-1.562229E-07
0.1719999,1.380634E-07
0.1729999,2.361589E-07
0.1739999,3.618437E-07
0.1749999,6.316061E-07
0.1759999,7.756838E-07
0.1769999,9.963986E-07
0.1779999,1.223244E-06
0.1789999,1.410239E-06
0.1799999,1.624822E-06
0.1809999,1.811817E-06
0.1819999,2.057056E-06
0.1829999,2.265508E-06
0.1839999,2.342145E-06
0.1849999,2.492354E-06
0.1859999,2.68548E-06
0.1869999,2.817295E-06
0.1879999,3.00429E-06
0.1889999,3.148367E-06
0.1899999,3.182088E-06
0.1909999,3.522356E-06
0.1919999,3.718547E-06
0.1929999,3.899411E-06
0.1939999,4.089471E-06
0.1949999,4.218221E-06
0.1959999,4.491048E-06
0.1969999,4.714829E-06
0.1979999,4.877299E-06
0.1989999,5.119472E-06
0.1999999,5.242092E-06
0.2009999,5.401497E-06
0.2019999,5.698849E-06
0.2029999,5.806141E-06
0.2039999,6.008463E-06
0.2049999,6.333403E-06
0.2059999,6.394713E-06
0.2069999,6.563315E-06
0.2079999,6.897452E-06
0.2089999,6.961828E-06
0.2099999,7.219328E-06
0.2109999,7.424715E-06
0.2119999,7.682216E-06
0.2129999,7.83549E-06
0.2139999,8.004092E-06
0.2149999,8.313705E-06
0.2159999,8.420997E-06
0.2169999,8.650908E-06
0.2179999,8.932933E-06
0.2189999,9.031029E-06
0.2199999,9.374363E-06
0.2209999,9.546029E-06
0.2219999,9.637994E-06
0.2229999,1.003651E-05
0.2239999,1.020204E-05
0.2249999,1.033386E-05
0.2259999,1.080901E-05
0.2269999,1.079675E-05
0.2279999,1.10941E-05
0.2289999,1.129642E-05
0.2299999,1.146502E-05
0.2309999,1.182675E-05
0.2319999,1.19555E-05
0.2329999,1.216395E-05
0.2339999,1.244904E-05
0.2349999,1.254101E-05
0.2359999,1.282916E-05
0.2369999,1.310812E-05
0.2379999,1.321541E-05
0.2389999,1.357407E-05
0.2399999,1.375187E-05
0.2409999,1.380705E-05
0.2419999,1.423009E-05
0.2429999,1.434044E-05
0.2439999,1.472976E-05
0.2449999,1.492902E-05
0.2459999,1.508842E-05
0.2469999,1.550533E-05
0.2479999,1.568619E-05
0.2489999,1.587932E-05
0.2499999,1.620732E-05
0.2509999,1.638206E-05
0.2519999,1.681429E-05
0.2529999,1.701968E-05
0.2539999,1.71331E-05
0.2549999,1.760212E-05
0.2559999,1.783816E-05
0.2569999,1.803435E-05
0.2579999,1.836341E-05
0.2589999,1.845537E-05
0.2599999,1.894585E-05
0.2609999,1.906847E-05
0.2619999,1.934436E-05
0.2629999,1.968157E-05
0.2639999,1.989615E-05
0.2649999,2.017204E-05
0.2659999,2.057055E-05
0.2669999,2.078514E-05
0.2679999,2.109169E-05
0.2689999,2.145954E-05
0.2699999,2.170478E-05
0.2709999,2.201133E-05
0.2719999,2.231788E-05
0.2729999,2.259377E-05
0.2739999,2.296163E-05
0.2749999,2.326818E-05
0.2759999,2.366669E-05
0.2769999,2.40039E-05
0.2779999,2.421848E-05
0.2789999,2.477027E-05
0.2799999,2.492354E-05
0.2809999,2.523009E-05
0.2819999,2.568991E-05
0.2829999,2.59658E-05
0.2839999,2.645628E-05
0.2849999,2.673218E-05
0.2859999,2.700807E-05
0.2869999,2.749855E-05
0.2879999,2.783575E-05
0.2889999,2.808099E-05
0.2899999,2.860212E-05
0.2909999,2.893932E-05
0.2919999,2.952177E-05
0.2929999,3.001224E-05
0.2939999,3.034945E-05
0.2949999,3.083992E-05
0.2959999,3.13304E-05
0.2969999,3.163695E-05
0.2979999,3.218873E-05
0.2989999,3.246463E-05
0.2999999,3.289379E-05
0.3009999,3.344558E-05
0.3019999,3.369082E-05
0.3029999,3.436523E-05
0.3039999,3.464112E-05
0.3049999,3.510094E-05
0.3059999,3.571404E-05
0.3069999,3.623517E-05
0.3079999,3.669499E-05
0.3089999,3.727743E-05
0.3099999,3.761464E-05
0.3109999,3.841166E-05
0.3119999,3.890214E-05
0.3129999,3.939262E-05
0.3139999,4.003637E-05
0.3149999,4.046554E-05
0.3159999,4.132387E-05
0.3169999,4.169173E-05
0.3179999,4.218221E-05
0.3189999,4.300989E-05
0.3199999,4.356167E-05
0.3209999,4.399084E-05
0.3219999,4.472656E-05
0.3229999,4.512507E-05
0.3239999,4.604472E-05
0.3249999,4.65965E-05
0.3259999,4.705632E-05
0.3269999,4.797597E-05
0.3279999,4.852776E-05
0.3289999,4.898758E-05
0.3299999,4.993788E-05
0.3309999,5.036705E-05
0.3319999,5.140931E-05
0.3329999,5.208372E-05
0.3339999,5.260485E-05
0.3349999,5.346318E-05
0.3359999,5.429086E-05
0.3369999,5.475069E-05
0.3379999,5.567033E-05
0.3389999,5.637539E-05
0.3399999,5.747896E-05
0.3409999,5.815337E-05
0.3419999,5.882777E-05
0.3429999,5.993135E-05
0.3439999,6.066707E-05
0.3449999,6.173999E-05
0.3459999,6.272094E-05
0.3469999,6.330338E-05
0.3479999,6.456023E-05
0.3489999,6.538791E-05
0.3499999,6.59397E-05
0.3509999,6.710459E-05
0.3519999,6.799357E-05
0.3529999,6.875994E-05
0.3539999,7.010875E-05
0.3549999,7.087512E-05
0.3559999,7.213197E-05
0.3569999,7.32662E-05
0.3579999,7.424715E-05
0.3589999,7.547335E-05
0.3599999,7.636234E-05
0.3609999,7.722067E-05
0.3619999,7.863079E-05
0.3629999,7.945847E-05
0.3639999,8.086859E-05
0.3649999,8.194151E-05
0.3659999,8.283051E-05
0.3669999,8.442456E-05
0.3679999,8.546682E-05
0.3689999,8.660105E-05
0.3699999,8.822576E-05
0.3709999,8.926802E-05
0.3719999,9.089272E-05
0.3729999,9.221088E-05
0.3739999,9.337576E-05
0.3749999,9.496982E-05
0.3759999,9.61347E-05
0.3769999,9.748351E-05
0.3779999,9.920018E-05
0.3789999,0.0001003038
0.3799999,0.0001021124
0.3809999,0.0001031546
0.3819999,0.0001046567
0.3829999,0.000106588
0.3839999,0.0001076303
0.3849999,0.0001093776
0.3859999,0.0001113088
0.3869999,0.0001125657
0.3879999,0.0001147728
0.3889999,0.0001162136
0.3899999,0.0001176544
0.3909999,0.0001200148
0.3919999,0.0001213636
0.3929999,0.0001227737
0.3939999,0.0001251035
0.3949999,0.000126299
0.3959999,0.0001285982
0.3969999,0.000130652
0.3979999,0.0001323687
0.3989999,0.0001345145
0.3999999,0.0001362619
0.4009999,0.0001381625
0.4019999,0.0001403696
0.4029999,0.0001422089
0.4039999,0.0001447226
0.4049999,0.0001465312
0.4059999,0.0001487077
0.4069999,0.000151436
0.4079999,0.0001532446
0.4089999,0.0001563101
0.4099999,0.0001585786
0.4109999,0.0001600194
0.4119999,0.0001630235
0.4129999,0.0001649854
0.4139999,0.000166978
0.4149999,0.0001699822
0.4159999,0.0001723119
0.4169999,0.0001746417
0.4179999,0.0001775846
0.4189999,0.000179853
0.4199999,0.0001832557
0.4209999,0.0001857694
0.4219999,0.0001882218
0.4229999,0.0001914712
0.4239999,0.0001936784
0.4249999,0.0001965292
0.4259999,0.0001996254
0.4269999,0.0002019245
0.4279999,0.0002055418
0.4289999,0.0002083927
0.4299999,0.0002108451
0.4309999,0.0002149528
0.4319999,0.0002174359
0.4329999,0.0002205013
0.4339999,0.0002241799
0.4349999,0.0002265403
0.4359999,0.0002307707
0.4369999,0.0002338668
0.4379999,0.0002368404
0.4389999,0.0002408561
0.4399999,0.0002441055
0.4409999,0.0002476921
0.4419999,0.0002515547
0.4429999,0.0002547121
0.4439999,0.0002594943
0.4449999,0.0002623145
0.4459999,0.0002660851
0.4469999,0.0002706526
0.4479999,0.0002740553
0.4489999,0.0002780098
0.4499999,0.0002823321
0.4509999,0.0002896998
0.4519999,0.0002939915
0.4529999,0.0002973635
0.4539999,0.0003013486
0.4549999,0.0003065599
0.4559999,0.0003102385
0.4569999,0.0003148368
0.4579999,0.0003200481
0.4589999,0.0003237267
0.4599999,0.0003292445
0.4609999,0.0003341493
0.4619999,0.0003387475
0.4629999,0.0003445719
0.4639999,0.0003491702
0.4649999,0.0003543815
0.4659999,0.0003602059
0.4669999,0.0003654172
0.4679999,0.0003718548
0.4689999,0.0003773726
0.4699999,0.0003828905
0.4709999,0.0003902476
0.4719999,0.0003957655
0.4729999,0.0004028161
0.4739999,0.0004104798
0.4749999,0.0004159977
0.4759999,0.0004248876
0.4769999,0.0004322447
0.4779999,0.0004399084
0.4789999,0.0004491049
0.4799999,0.0004573817
0.4809999,0.0004671912
0.4819999,0.0004770008
0.4829999,0.0004865038
0.4839999,0.0004990723
0.4849999,0.0005091884
0.4859999,0.0005208372
0.4869999,0.0005355515
0.4879999,0.0005475069
0.4889999,0.0005628343
0.4899999,0.0005790814
0.4909999,0.0005937957
0.4919999,0.0006140279
0.4929999,0.0006324208
0.4939999,0.0006517333
0.4949999,0.0006747244
0.4959999,0.0006971025
0.4969999,0.0007222394
0.4979999,0.0007504418
0.4989999,0.0007792574
0.4999999,0.0008108319
0.5009999,0.0008445522
0.5019999,0.0008804183
0.5029999,0.0009196565
0.5039999,0.0009604275
0.5049999,0.001007023
0.5059999,0.001055764
0.5069999,0.001106038
0.5079999,0.001163669
0.5089999,0.001222526
0.5099999,0.001286288
0.5109999,0.001356488
0.5119999,0.001430979
0.5129999,0.001509149
0.5139999,0.00159345
0.5149999,0.001680509
0.5159999,0.001777378
0.5169999,0.0018767
0.5179999,0.001982459
0.5189999,0.002097108
0.5199999,0.002214517
0.5209999,0.002339895
0.5219999,0.002472017
0.5229999,0.00260935
0.5239999,0.002755881
0.5249999,0.002907929
0.5259999,0.003066108
0.5269999,0.003258725
0.5279999,0.003427326
0.5289999,0.003605124
0.5299999,0.003792119
0.5309999,0.003982178
0.5319999,0.0041845
0.5329999,0.004383757
0.5339999,0.004595275
0.5349999,0.00481599
0.5359999,0.005033639
0.5369999,0.00526355
0.5379999,0.005499593
0.5389999,0.0057387
0.5399999,0.005987004
0.5409999,0.006238374
0.5419999,0.006492809
0.5429999,0.006759506
0.5439999,0.007026203
0.5449999,0.007299031
0.5459999,0.00757799
0.5469999,0.007856948
0.5479999,0.008145104
0.5489999,0.008433259
0.5499999,0.008727546
0.5509999,0.009031028
0.5519999,0.009331445
0.5529999,0.009637994
0.5539999,0.009950673
0.5549999,0.01026335
0.5559999,0.01058216
0.5569999,0.01090097
0.5579999,0.01122898
0.5589999,0.01155392
0.5599999,0.01188499
0.5609999,0.0122222
0.5619999,0.01255633
0.5629999,0.01289967
0.5639999,0.013243
0.5649999,0.01358633
0.5659999,0.0139358
0.5669999,0.01428833
0.5679999,0.01463473
0.5689999,0.01499646
0.5699999,0.01535205
0.5709999,0.01571072
0.5719999,0.01607857
0.5729999,0.01643723
0.5739999,0.01680509
0.5749999,0.01717602
0.5759999,0.01754387
0.5769999,0.01791786
0.5779999,0.01829492
0.5789999,0.0186689
0.5799999,0.01904902
0.5809999,0.01942914
0.5819999,0.01980926
0.5829999,0.02019245
0.5839999,0.02058177
0.5849999,0.02096495
0.5859999,0.0213512
0.5869999,0.02174359
0.5879999,0.02212984
0.5889999,0.02252222
0.5899999,0.02291767
0.5909999,0.02331004
0.5919999,0.02370856
0.5929999,0.02410707
0.5939999,0.02450252
0.5949999,0.0249041
0.5959999,0.02530874
0.5969999,0.02570419
0.5979999,0.02611496
0.5989999,0.02652267
0.5999999,0.02691812
0.6009999,0.02733196
0.6019999,0.02773967
0.6029999,0.02814431
0.6039999,0.02856122
0.6049999,0.02896893
0.6059999,0.02937664
0.6069999,0.02979354
0.6079999,0.03020738
0.6089999,0.03136105
0.6099999,0.03179022
0.6109999,0.03218874
0.6119999,0.0326179
0.6129999,0.03304707
0.6139999,0.03347624
0.6149999,0.03387475
0.6159999,0.03430392
0.6169999,0.03473309
0.6179999,0.03516225
0.6189999,0.03559142
0.6199999,0.03602059
0.6209999,0.03644976
0.6219999,0.03687892
0.6229999,0.03730809
0.6239999,0.03776791
0.6249999,0.03819708
0.6259999,0.03862625
0.6269999,0.03905542
0.6279999,0.03951524
0.6289999,0.03991375
0.6299999,0.04037357
0.6309999,0.04080274
0.6319999,0.04123191
0.6329999,0.04169173
0.6339999,0.0421209
0.6349999,0.04255007
0.6359999,0.04297924
0.6369999,0.04343906
0.6379999,0.04386823
0.6389999,0.04432805
0.6399999,0.04478787
0.6409999,0.04521704
0.6419999,0.0456462
0.6429999,0.04610603
0.6439999,0.04653519
0.6449999,0.04699502
0.6459999,0.04742418
0.6469999,0.04788401
0.6479999,0.04831317
0.6489999,0.048773
0.6499999,0.04920216
0.6509999,0.04966199
0.6519999,0.05009115
0.6529999,0.05055097
0.6539999,0.0510108
0.6549999,0.05143997
0.6559999,0.05189979
0.6569999,0.05235961
0.6579999,0.05278878
0.6589999,0.0532486
0.6599999,0.05370842
0.6609999,0.05413759
0.6619999,0.05462807
0.6629999,0.05505724
0.6639999,0.05548641
0.6649999,0.05597688
0.6659999,0.05640605
0.6669999,0.05686587
0.6679999,0.05732569
0.6689999,0.05778552
0.6699999,0.05824534
0.6709999,0.05870516
0.6719999,0.05916498
0.6729999,0.0596248
0.6739999,0.06008463
0.6749999,0.06051379
0.6759999,0.06097361
0.6769999,0.0614641
0.6779999,0.06189326
0.6789999,0.06238374
0.6799999,0.06284356
0.6809999,0.06330338
0.6819999,0.06376321
0.6829999,0.06422303
0.6839999,0.0646522
0.6849999,0.06514268
0.6859999,0.0656025
0.6869999,0.06603166
0.6879999,0.06652214
0.6889999,0.06698196
0.6899999,0.06744178
0.6909999,0.06793226
0.6919999,0.06839209
0.6929999,0.06885191
0.6939999,0.06931173
0.6949999,0.06977155
0.6959999,0.07026203
0.6969999,0.07075251
0.6979999,0.07121233
0.6989999,0.07167216
0.6999999,0.07182543
0.6990002,0.0713656
0.6980002,0.07090578
0.6970002,0.07044595
0.6960002,0.06998613
0.6950002,0.06952631
0.6940002,0.06909715
0.6930002,0.06860667
0.6920002,0.06814685
0.6910002,0.06771768
0.6900002,0.06725786
0.6890002,0.06679803
0.6880002,0.06636887
0.6870002,0.06590905
0.6860002,0.06547987
0.6850002,0.06502005
0.6840002,0.06456023
0.6830002,0.06410041
0.6820002,0.06364059
0.6810002,0.06318077
0.6800002,0.0627516
0.6790002,0.06229177
0.6780002,0.06183195
0.6770002,0.06140279
0.6760002,0.06094296
0.6750002,0.06048314
0.6740002,0.06002332
0.6730002,0.0595635
0.6720002,0.05913433
0.6710002,0.05870516
0.6700002,0.05824534
0.6690002,0.05778552
0.6680002,0.05735635
0.6670002,0.05689653
0.6660002,0.0564367
0.6650002,0.05600753
0.6640002,0.05554771
0.6630002,0.05508789
0.6620002,0.05465872
0.6610002,0.05422956
0.6600002,0.05376973
0.6590002,0.05334057
0.6580002,0.05288074
0.6570002,0.05242092
0.6560002,0.05199176
0.6550002,0.05156258
0.6540002,0.05110276
0.6530002,0.05067359
0.6520002,0.05024443
0.6510002,0.04981526
0.6500002,0.0493861
0.6490002,0.04892627
0.6480002,0.0484971
0.6470002,0.04806793
0.6460002,0.04760811
0.6450002,0.04717895
0.6440002,0.04674978
0.6430002,0.04632061
0.6420002,0.04589145
0.6410002,0.04543162
0.6400002,0.04500245
0.6390002,0.04457328
0.6380002,0.04414412
0.6370002,0.04371495
0.6360002,0.04328578
0.6350002,0.04285662
0.6340002,0.04242745
0.6330002,0.04199828
0.6320002,0.04156911
0.6310002,0.04113995
0.6300002,0.04071078
0.6290002,0.04028161
0.6280002,0.03985244
0.6270002,0.03945393
0.6260002,0.03899411
0.6250002,0.03856494
0.6240002,0.03816643
0.6230002,0.03773726
0.6220002,0.03730809
0.6210002,0.03690958
0.6200002,0.03648041
0.6190002,0.03605124
0.6180002,0.03565273
0.6170002,0.03522356
0.6160002,0.03482505
0.6150002,0.03439588
0.6140002,0.03399737
0.6130002,0.0335682
0.6120002,0.03316969
0.6110002,0.03274052
0.6100002,0.03234201
0.6090002,0.0319435
0.6080002,0.03151433
0.6070002,0.03111582
0.6060002,0.0307173
0.6050002,0.03028814
0.6040002,0.02988962
0.6030002,0.02949111
0.6020002,0.0290926
0.6010002,0.02869408
0.6000002,0.02829557
0.5990002,0.02786641
0.5980002,0.02749855
0.5970002,0.02710003
0.5960002,0.02670152
0.5950002,0.02630301
0.5940002,0.0259045
0.5930002,0.02550598
0.5920002,0.02510747
0.5910002,0.02473961
0.5900002,0.0243411
0.5890002,0.02394259
0.5880002,0.02357473
0.5870002,0.02317622
0.5860002,0.02280836
0.5850002,0.02240985
0.5840002,0.02204199
0.5830002,0.02164347
0.5820002,0.02127562
0.5810002,0.02090776
0.5800002,0.0205399
0.5790002,0.02017204
0.5780002,0.01977353
0.5770002,0.01940567
0.5760002,0.01903781
0.5750002,0.01866996
0.5740002,0.01833276
0.5730002,0.0179649
0.5720002,0.01759704
0.5710002,0.01725983
0.5700002,0.01689198
0.5690002,0.01652412
0.5680002,0.01618692
0.5670002,0.01584971
0.5660002,0.01548185
0.5650002,0.01514465
0.5640002,0.01480745
0.5630002,0.01443959
0.5620002,0.01410239
0.5610002,0.01376519
0.5600002,0.01342798
0.5590002,0.01312143
0.5580002,0.01231416
0.5570002,0.01199228
0.5560002,0.01167347
0.5550002,0.01136386
0.5540002,0.01104811
0.5530002,0.01074157
0.5520002,0.01043502
0.5510002,0.01012847
0.5500002,0.009831119
0.5490002,0.009533768
0.5480002,0.009236416
0.5470002,0.00894826
0.5460002,0.00866317
0.5450002,0.00837808
0.5440002,0.008102187
0.5430002,0.007823228
0.5420002,0.0075504
0.5410002,0.007283703
0.5400002,0.007017006
0.5390002,0.006759506
0.5380002,0.006505071
0.5370002,0.006253701
0.5360002,0.006008463
0.5350002,0.005766289
0.5340002,0.005527182
0.5330002,0.005294205
0.5320002,0.005067359
0.5310002,0.004846645
0.5300002,0.00462593
0.5290002,0.004411346
0.5280002,0.004205959
0.5270002,0.004000572
0.5260002,0.003804381
0.5250002,0.003611255
0.5240002,0.003421195
0.5230002,0.003243397
0.5220002,0.003065599
0.5210002,0.002893932
0.5200002,0.002731462
0.5190002,0.002568991
0.5180002,0.002418783
0.5170002,0.002268574
0.5160002,0.002124496
0.5150002,0.001989615
0.5140002,0.001857799
0.5130002,0.001732114
0.5120002,0.00160643
0.5110002,0.001493007
0.5100002,0.001382649
0.5090002,0.001278423
0.5080002,0.001146502
0.5070002,0.001054844
0.5060002,0.0009631864
0.5050002,0.0008770463
0.5040002,0.0007988765
0.5030002,0.0007204001
0.5020002,0.0006489744
0.5010002,0.0005815338
0.5000002,0.0005165455
0.4990002,0.0004573817
0.4980002,0.0004009768
0.4970002,0.000347944
0.4960002,0.0002998159
0.4950002,0.0002523009
0.4940002,0.0002099972
0.4930002,0.000170146
0.4920002,0.0001315209
0.4910002,9.902677E-05
0.4900002,6.112688E-05
0.4890002,3.185153E-05
0.4880002,6.040168E-06
0.4870002,-2.136525E-05
0.4860002,-4.417243E-05
0.4850002,-6.486444E-05
0.4840002,-8.699723E-05
0.4830002,-0.0001039494
0.4820002,-0.0001210854
0.4810002,-0.0001379762
0.4800002,-0.0001511271
0.4790002,-0.0001653203
0.4780002,-0.0001775516
0.4770002,-0.0001869013
0.4760002,-0.0001983969
0.4750002,-0.0002067043
0.4740002,-0.0002157168
0.4730002,-0.0002239936
0.4720002,-0.0002286838
0.4710002,-0.000236746
0.4700002,-0.0002421106
0.4690002,-0.0002464943
0.4680002,-0.0002520735
0.4670002,-0.0002553842
0.4660002,-0.0002590321
0.4650002,-0.0002624961
0.4640002,-0.0002637223
0.4630002,-0.0002677687
0.4620002,-0.0002696693
0.4610002,-0.0002716619
0.4600002,-0.0002739916
0.4590002,-0.0002740223
0.4580002,-0.0002750952
0.4570002,-0.0002773637
0.4560002,-0.0002763827
0.4550002,-0.0002781301
0.4540002,-0.0002786205
0.4530002,-0.0002778542
0.4520002,-0.0002791416
0.4510002,-0.0002784673
0.4500002,-0.0002776089
0.4490002,-0.0002780994
0.4480002,-0.0002777009
0.4470002,-0.0002773637
0.4460002,-0.0002764134
0.4450002,-0.0002754631
0.4440002,-0.0002756777
0.4430002,-0.0002742982
0.4420002,-0.0002735625
0.4410002,-0.0002730107
0.4400002,-0.0002706503
0.4390002,-0.0002709875
0.4380002,-0.0002695161
0.4370002,-0.0002676155
0.4360002,-0.000267922
0.4350002,-0.000266144
0.4340002,-0.0002646113
0.4330002,-0.0002640901
0.4320002,-0.0002616684
0.4310002,-0.0002613925
0.4300002,-0.0002602889
0.4290002,-0.000258511
0.4280002,-0.000257622
0.4270002,-0.0002561506
0.4260002,-0.0002546178
0.4250002,-0.0002534836
0.4240002,-0.0002511845
0.4230002,-0.0002507246
0.4220002,-0.0002491612
0.4210002,-0.0002468928
0.4200002,-0.0002463717
0.4190002,-0.0002441032
0.4180002,-0.0002425398
0.4170002,-0.0002417428
0.4160002,-0.0002391984
0.4150002,-0.0002385547
0.4140002,-0.0002368687
0.4130002,-0.0002347228
0.4120002,-0.0002342017
0.4110002,-0.0002325463
0.4100002,-0.0002320559
0.4090002,-0.000230094
0.4080002,-0.0002276109
0.4070002,-0.0002265073
0.4060002,-0.0002250666
0.4050002,-0.0002227981
0.4040002,-0.0002219398
0.4030002,-0.0002202231
0.4020002,-0.0002184451
0.4010002,-0.000217127
0.4000002,-0.0002147052
0.3990002,-0.0002138776
0.3980002,-0.0002122835
0.3970002,-0.0002103216
0.3960002,-0.0002093713
0.3950002,-0.0002073481
0.3940002,-0.0002058153
0.3930002,-0.0002045891
0.3920002,-0.0002023513
0.3910002,-0.000201401
0.3900002,-0.0002002055
0.3890002,-0.0001979677
0.3880002,-0.0001971094
0.3870002,-0.0001953314
0.3860002,-0.0001936147
0.3850002,-0.0001927564
0.3840002,-0.0001903653
0.3830002,-0.0001893843
0.3820002,-0.0001879742
0.3810002,-0.0001863495
0.3800002,-0.000185246
0.3790002,-0.0001834986
0.3780002,-0.0001820272
0.3770002,-0.0001809236
0.3760002,-0.0001786858
0.3750002,-0.0001775822
0.3740002,-0.0001762947
0.3730002,-0.0001743022
0.3720002,-0.0001737197
0.3710002,-0.0001721563
0.3700002,-0.0001703477
0.3690002,-0.000169612
0.3680002,-0.0001676194
0.3670002,-0.0001666385
0.3660002,-0.0001654429
0.3650002,-0.0001639102
0.3640002,-0.0001628066
0.3630002,-0.0001616724
0.3620002,-0.0001600477
0.3610002,-0.0001588521
0.3600002,-0.0001570742
0.3590002,-0.0001564304
0.3580002,-0.0001550509
0.3570002,-0.000153273
0.3560002,-0.0001524759
0.3550002,-0.0001511578
0.3540002,-0.0001495024
0.3530002,-0.0001487667
0.3520002,-0.0001469887
0.3510002,-0.000146161
0.3500002,-0.0001452414
0.3490002,-0.0001436473
0.3480002,-0.000142789
0.3470002,-0.0001418081
0.3460002,-0.0001405206
0.3450002,-0.0001395396
0.3440002,-0.0001377923
0.3430002,-0.0001369953
0.3420002,-0.0001360143
0.3410002,-0.0001346042
0.3400002,-0.0001338072
0.3390002,-0.0001328569
0.3380002,-0.0001316307
0.3370002,-0.0001308336
0.3360002,-0.0001293622
0.3350002,-0.0001287184
0.3340002,-0.0001276149
0.3330002,-0.0001260821
0.3320002,-0.000125561
0.3310002,-0.0001244881
0.3300002,-0.0001234765
0.3290002,-0.0001229553
0.3280002,-0.0001215146
0.3270002,-0.0001206869
0.3260002,-0.0001199205
0.3250002,-0.000118725
0.3240002,-0.0001178973
0.3230002,-0.0001170083
0.3220002,-0.0001161193
0.3210002,-0.0001155062
0.3200002,-0.000114464
0.3190002,-0.0001137282
0.3180002,-0.0001129925
0.3170002,-0.0001119196
0.3160002,-0.0001113985
0.3150002,-0.0001101723
0.3140002,-0.0001094979
0.3130002,-0.0001090381
0.3120002,-0.0001077812
0.3110002,-0.0001072907
0.3100002,-0.0001068922
0.3090002,-0.0001058193
0.3080002,-0.0001050529
0.3070002,-0.0001044092
0.3060002,-0.0001035815
0.3050002,-0.0001031523
0.3040002,-0.0001021714
0.3030002,-0.0001017422
0.3020002,-0.0001011598
0.3010002,-0.000100424
0.3000002,-9.968832E-05
0.2990002,-9.901392E-05
0.2980002,-9.821689E-05
0.2970002,-9.772641E-05
0.2960002,-9.686808E-05
0.2950002,-9.662284E-05
0.2940002,-9.60404E-05
0.2930002,-9.521272E-05
0.2920002,-9.499813E-05
0.2910002,-9.441569E-05
0.2900002,-9.367998E-05
0.2890002,-9.331212E-05
0.2880002,-9.25151E-05
0.2870002,-9.181003E-05
0.2860002,-9.144218E-05
0.2850002,-9.076777E-05
0.2840002,-9.046122E-05
0.2830002,-9.000141E-05
0.2820002,-8.944961E-05
0.2810002,-8.917372E-05
0.2800002,-8.840735E-05
0.2790002,-8.794753E-05
0.2780002,-8.745705E-05
0.2770002,-8.690526E-05
0.2760002,-8.678265E-05
0.2750002,-8.626151E-05
0.2740002,-8.574038E-05
0.2730002,-8.528055E-05
0.2720002,-8.460615E-05
0.2710002,-8.451418E-05
0.2700002,-8.426895E-05
0.2690002,-8.371716E-05
0.2680002,-8.3288E-05
0.2670002,-8.279752E-05
0.2660002,-8.233769E-05
0.2650002,-8.215377E-05
0.2640002,-8.169394E-05
0.2630002,-8.151001E-05
0.2620002,-8.11115E-05
0.2610002,-8.046775E-05
0.2600002,-8.034513E-05
0.2590002,-7.997728E-05
0.2580002,-7.970138E-05
0.2570002,-7.945613E-05
0.2560002,-7.890436E-05
0.2550002,-7.856715E-05
0.2540002,-7.829125E-05
0.2530002,-7.801536E-05
0.2520002,-7.795405E-05
0.2510002,-7.752488E-05
0.2500002,-7.706506E-05
0.2490002,-7.688113E-05
0.2480002,-7.657459E-05
0.2470002,-7.651328E-05
0.2460002,-7.623738E-05
0.2450002,-7.56856E-05
0.2440002,-7.559363E-05
0.2430002,-7.547101E-05
0.2420002,-7.50725E-05
0.2410002,-7.50725E-05
0.2400002,-7.458202E-05
0.2390002,-7.433679E-05
0.2380002,-7.424482E-05
0.2370002,-7.390762E-05
0.2360002,-7.390762E-05
0.2350002,-7.372369E-05
0.2340002,-7.347845E-05
0.2330002,-7.329452E-05
0.2320002,-7.286535E-05
0.2310002,-7.265077E-05
0.2300002,-7.262012E-05
0.2290002,-7.231356E-05
0.2280002,-7.228291E-05
0.2270002,-7.216029E-05
0.2260002,-7.200702E-05
0.2250002,-7.206832E-05
0.2240002,-7.166981E-05
0.2230002,-7.15472E-05
0.2220002,-7.142458E-05
0.2210002,-7.111803E-05
0.2200002,-7.105672E-05
0.2190002,-7.090344E-05
0.2180002,-7.071951E-05
0.2170002,-7.068886E-05
0.2160002,-7.053559E-05
0.2150002,-7.050493E-05
0.2140002,-7.050493E-05
0.2130002,-7.0321E-05
0.2120002,-7.019839E-05
0.2110002,-7.016773E-05
0.2100002,-6.992248E-05
0.2090002,-6.97079E-05
0.2080002,-6.955463E-05
0.2070002,-6.958529E-05
0.2060002,-6.955463E-05
0.2050002,-6.952398E-05
0.2040002,-6.93707E-05
0.2030002,-6.927874E-05
0.2020002,-6.918678E-05
0.2010002,-6.927874E-05
0.2000002,-6.900284E-05
0.1990002,-6.884957E-05
0.1980002,-6.881891E-05
0.1970002,-6.854302E-05
0.1960002,-6.860433E-05
0.1950002,-6.857367E-05
0.1940002,-6.848171E-05
0.1930002,-6.848171E-05
0.1920002,-6.845106E-05
0.1910002,-6.842041E-05
0.1900002,-6.838975E-05
0.1890002,-6.826713E-05
0.1880002,-6.820582E-05
0.1870002,-6.80832E-05
0.1860002,-6.792993E-05
0.1850002,-6.796058E-05
0.1840002,-6.777665E-05
0.1830002,-6.783796E-05
0.1820002,-6.786862E-05
0.1810002,-6.768468E-05
0.1800002,-6.777665E-05
0.1790002,-6.783796E-05
0.1780002,-6.765403E-05
0.1770002,-6.768468E-05
0.1760002,-6.750075E-05
0.1750002,-6.734749E-05
0.1740002,-6.743945E-05
0.1730002,-6.734749E-05
0.1720002,-6.74701E-05
0.1710002,-6.740879E-05
0.1700002,-6.74701E-05
0.1690002,-6.74701E-05
0.1680002,-6.734749E-05
0.1670002,-6.743945E-05
0.1660002,-6.725552E-05
0.1650002,-6.707159E-05
0.1640002,-6.71329E-05
0.1630002,-6.719421E-05
0.1620002,-6.725552E-05
0.1610002,-6.725552E-05
0.1600002,-6.719421E-05
0.1590002,-6.722486E-05
0.1580002,-6.722486E-05
0.1570002,-6.707159E-05
0.1560002,-6.697963E-05
0.1550002,-6.701028E-05
0.1540002,-6.707159E-05
0.1530002,-6.707159E-05
0.1520002,-6.704094E-05
0.1510002,-6.704094E-05
0.1500002,-6.71329E-05
0.1490002,-6.707159E-05
0.1480002,-6.704094E-05
0.1470002,-6.688766E-05
0.1460002,-6.688766E-05
0.1450002,-6.697963E-05
0.1440002,-6.685701E-05
0.1430002,-6.694897E-05
0.1420002,-6.707159E-05
0.1410002,-6.701028E-05
0.1400002,-6.697963E-05
0.1390002,-6.685701E-05
0.1380002,-6.676505E-05
0.1370002,-6.682635E-05
0.1360002,-6.676505E-05
0.1350002,-6.67957E-05
0.1340002,-6.685701E-05
0.1330002,-6.67957E-05
0.1320002,-6.685701E-05
0.1310002,-6.673439E-05
0.1300002,-6.661176E-05
0.1290002,-6.645849E-05
0.1280002,-6.636653E-05
0.1270002,-6.648915E-05
0.1260002,-6.645849E-05
0.1250002,-6.648915E-05
0.1240002,-6.65198E-05
0.1230002,-6.633587E-05
0.1220002,-6.630522E-05
0.1210002,-6.621325E-05
0.1200002,-6.593736E-05
0.1190002,-6.587605E-05
0.1180002,-6.590671E-05
0.1170002,-6.581475E-05
0.1160002,-6.587605E-05
0.1150002,-6.578409E-05
0.1140002,-6.566147E-05
0.1130002,-6.566147E-05
0.1120002,-6.560016E-05
0.1110002,-6.550819E-05
0.1100002,-6.550819E-05
0.1090002,-6.535492E-05
0.1080002,-6.529361E-05
0.1070002,-6.514033E-05
0.1060002,-6.48951E-05
0.1050002,-6.492575E-05
0.1040002,-6.474183E-05
0.1030002,-6.477248E-05
0.1020002,-6.468051E-05
0.1010002,-6.45579E-05
0.1000002,-6.452724E-05
0.09900019,-6.440462E-05
0.09800019,-6.431266E-05
0.09700019,-6.434331E-05
0.09600019,-6.409807E-05
0.09500019,-6.409807E-05
0.09400019,-6.406742E-05
0.09300019,-6.39448E-05
0.09200019,-6.391414E-05
0.09100019,-6.385284E-05
0.09000019,-6.379152E-05
0.08900019,-6.373021E-05
0.08800019,-6.357694E-05
0.08700019,-6.357694E-05
0.08600019,-6.345432E-05
0.08500019,-6.345432E-05
0.08400019,-6.348498E-05
0.08300019,-6.339301E-05
0.08200019,-6.330105E-05
0.08100019,-6.32704E-05
0.08000019,-6.317843E-05
0.07900019,-6.314777E-05
0.07800019,-6.311711E-05
0.07700019,-6.293318E-05
0.07600019,-6.29945E-05
0.07500019,-6.293318E-05
0.07400019,-6.277992E-05
0.07300019,-6.284122E-05
0.07200019,-6.268795E-05
0.07100019,-6.268795E-05
0.07000019,-6.27186E-05
0.06900019,-6.256533E-05
0.06800019,-6.253467E-05
0.06700019,-6.253467E-05
0.06600019,-6.244271E-05
0.06500019,-6.244271E-05
0.06400019,-6.23814E-05
0.06300019,-6.232009E-05
0.06200019,-6.235075E-05
0.06100019,-6.228944E-05
0.06000019,-6.232009E-05
0.05900019,-6.225878E-05
0.05800019,-6.219748E-05
0.05700019,-6.225878E-05
0.05600019,-6.213617E-05
0.05500019,-6.219748E-05
0.05400019,-6.216682E-05
0.05300019,-6.210551E-05
0.05200019,-6.216682E-05
0.05100019,-6.213617E-05
0.05000019,-6.20442E-05
0.04900019,-6.210551E-05
0.04800019,-6.20442E-05
0.04700019,-6.207485E-05
0.04600019,-6.207485E-05
0.04500019,-6.207485E-05
0.04400019,-6.210551E-05
0.04300019,-6.210551E-05
0.04200019,-6.207485E-05
0.04100019,-6.213617E-05
0.04000019,-6.207485E-05
0.03900019,-6.210551E-05
0.03800019,-6.207485E-05
0.03700019,-6.20442E-05
0.03600019,-6.198289E-05
0.03500019,-6.189093E-05
0.03400019,-6.189093E-05
0.03300019,-6.192158E-05
0.03200019,-6.189093E-05
0.03100019,-6.189093E-05
0.03000019,-6.201354E-05
0.02900019,-6.189093E-05
0.02800019,-6.198289E-05
0.02700019,-6.201354E-05
0.02600019,-6.201354E-05
0.02500019,-6.213617E-05
0.02400019,-6.207485E-05
0.02300019,-6.207485E-05
0.02200019,-6.207485E-05
0.02100019,-6.20442E-05
0.02000019,-6.207485E-05
0.01900019,-6.20442E-05
0.01800019,-6.201354E-05
0.01700019,-6.207485E-05
0.01600019,-6.201354E-05
0.01500019,-6.213617E-05
0.01400019,-6.216682E-05
0.01300019,-6.219748E-05
0.01200019,-6.232009E-05
0.01100019,-6.225878E-05
0.01000019,-6.235075E-05
0.009000191,-6.232009E-05
0.00800019,-6.219748E-05
0.007000191,-6.222813E-05
0.006000191,-6.228944E-05
0.005000191,-6.225878E-05
0.004000191,-6.23814E-05
0.003000191,-6.235075E-05
0.002000191,-6.23814E-05
0.001000191,-6.247337E-05
1.907349E-07,-5.894806E-05
0.0009998092,-5.671026E-05
0.001999809,-5.551472E-05
0.002999809,-5.44418E-05
0.003999809,-5.355281E-05
0.004999809,-5.272513E-05
0.005999809,-5.198942E-05
0.006999809,-5.12537E-05
0.007999809,-5.064061E-05
0.00899981,-5.008882E-05
0.009999809,-4.941441E-05
0.01099981,-4.889328E-05
0.01199981,-4.828018E-05
0.01299981,-4.782036E-05
0.01399981,-4.739119E-05
0.01499981,-4.680875E-05
0.01599981,-4.634893E-05
0.01699981,-4.58891E-05
0.01799981,-4.533732E-05
0.01899981,-4.481618E-05
0.01999981,-4.432571E-05
0.02099981,-4.389654E-05
0.02199981,-4.346737E-05
0.02299981,-4.300755E-05
0.02399981,-4.267035E-05
0.02499981,-4.230249E-05
0.02599981,-4.187332E-05
0.02699981,-4.156677E-05
0.02799981,-4.104565E-05
0.02899981,-4.064713E-05
0.02999981,-4.030993E-05
0.03099981,-3.97888E-05
0.03199981,-3.942094E-05
0.03299981,-3.902242E-05
0.03399981,-3.853195E-05
0.03499981,-3.82254E-05
0.03599981,-3.78882E-05
0.03699981,-3.752034E-05
0.03799981,-3.715248E-05
0.03899981,-3.678462E-05
0.03999981,-3.647808E-05
0.04099981,-3.617152E-05
0.04199981,-3.580367E-05
0.04299981,-3.546647E-05
0.04399981,-3.512926E-05
0.04499981,-3.482271E-05
0.04599981,-3.448551E-05
0.04699981,-3.411765E-05
0.04799981,-3.38111E-05
0.04899981,-3.34739E-05
0.04999981,-3.310604E-05
0.05099981,-3.273819E-05
0.05199981,-3.230902E-05
0.05299981,-3.197181E-05
0.05399981,-3.169592E-05
0.05499981,-3.138937E-05
0.05599981,-3.111348E-05
0.05699981,-3.080693E-05
0.05799981,-3.046973E-05
0.05899981,-3.019383E-05
0.05999981,-2.988729E-05
0.06099981,-2.96727E-05
0.06199981,-2.939681E-05
0.06299981,-2.912092E-05
0.06399981,-2.87224E-05
0.06499981,-2.844651E-05
0.06599981,-2.810931E-05
0.06699981,-2.780276E-05
0.06799981,-2.74349E-05
0.06899981,-2.712835E-05
0.06999981,-2.68218E-05
0.07099981,-2.642329E-05
0.07199981,-2.627002E-05
0.07299981,-2.599412E-05
0.07399981,-2.562626E-05
0.07499981,-2.541168E-05
0.07599981,-2.513579E-05
0.07699981,-2.48599E-05
0.07799981,-2.461466E-05
0.07899981,-2.433876E-05
0.07999981,-2.406287E-05
0.08099981,-2.384829E-05
0.08199981,-2.357239E-05
0.08299981,-2.32965E-05
0.08399981,-2.302061E-05
0.08499981,-2.277537E-05
0.08599981,-2.249947E-05
0.08699981,-2.219293E-05
0.08799981,-2.194769E-05
0.08899981,-2.170245E-05
0.08999981,-2.130394E-05
0.09099981,-2.10587E-05
0.09199981,-2.075215E-05
0.09299981,-2.04456E-05
0.09399981,-2.023102E-05
0.09499981,-1.986316E-05
0.09599981,-1.964857E-05
0.09699981,-1.94953E-05
0.09799981,-1.91581E-05
0.09899981,-1.891286E-05
0.09999981,-1.860631E-05
0.1009998,-1.833042E-05
0.1019998,-1.811583E-05
0.1029998,-1.78706E-05
0.1039998,-1.756405E-05
0.1049998,-1.741077E-05
0.1059998,-1.713488E-05
0.1069998,-1.682833E-05
0.1079998,-1.658309E-05
0.1089998,-1.633786E-05
0.1099998,-1.615392E-05
0.1109998,-1.581672E-05
0.1119998,-1.563279E-05
0.1129998,-1.544886E-05
0.1139998,-1.517297E-05
0.1149998,-1.489708E-05
0.1159998,-1.462118E-05
0.1169998,-1.437595E-05
0.1179998,-1.422267E-05
0.1189998,-1.394678E-05
0.1199998,-1.367088E-05
0.1209998,-1.34563E-05
0.1219998,-1.327237E-05
0.1229998,-1.302713E-05
0.1239998,-1.272058E-05
0.1249998,-1.256731E-05
0.1259998,-1.248253E-05
0.1269998,-1.222503E-05
0.1279998,-1.202577E-05
0.1289998,-1.182038E-05
0.1299998,-1.1615E-05
0.1309998,-1.145559E-05
0.1319998,-1.111532E-05
0.1329998,-1.092526E-05
0.1339998,-1.070455E-05
0.1349998,-1.045318E-05
0.1359998,-1.026618E-05
0.1369998,-1.009145E-05
0.1379998,-9.794099E-06
0.1389998,-9.634695E-06
0.1399998,-9.404784E-06
0.1409998,-9.101301E-06
0.1419998,-8.963354E-06
0.1429998,-8.702788E-06
0.1439998,-8.497401E-06
0.1449998,-8.307341E-06
0.1459998,-8.062102E-06
0.1469998,-7.930286E-06
0.1479998,-7.681982E-06
0.1489998,-7.510316E-06
0.1499998,-7.3785E-06
0.1509998,-7.18844E-06
0.1519998,-7.0321E-06
0.1529998,-6.765403E-06
0.1539998,-6.581474E-06
0.1549998,-6.45579E-06
0.1559998,-6.161503E-06
0.1569998,-5.922395E-06
0.1579998,-5.8243E-06
0.1589998,-5.545341E-06
0.1599998,-5.333823E-06
0.1609998,-5.198942E-06
0.1619998,-4.959834E-06
0.1629998,-4.831084E-06
0.1639998,-4.579714E-06
0.1649998,-4.334476E-06
0.1659998,-4.165874E-06
0.1669998,-3.911439E-06
0.1679998,-3.798016E-06
0.1689998,-3.589563E-06
0.1699998,-3.316735E-06
0.1709998,-3.200247E-06
0.1719998,-2.89983E-06
0.1729998,-2.691377E-06
0.1739998,-2.599412E-06
0.1749998,-2.265275E-06
0.1759998,-2.130394E-06
0.1769998,-1.928072E-06
0.1779998,-1.63072E-06
0.1789998,-1.486642E-06
0.1799998,-1.198487E-06
0.1809998,-1.032951E-06
0.1819998,-8.459564E-07
0.1829998,-6.191107E-07
0.1839998,-3.769376E-07
0.1849998,-2.665802E-07
0.1859998,4.609897E-08
0.1869998,1.656528E-07
0.1879998,4.384807E-07
0.1889998,5.611E-07
0.1899998,6.009514E-07
0.1909998,8.645829E-07
0.1919998,1.051577E-06
0.1929998,1.149673E-06
0.1939998,1.471548E-06
0.1949998,1.597233E-06
0.1959998,1.955895E-06
0.1969998,2.121431E-06
0.1979998,2.302294E-06
0.1989998,2.550598E-06
0.1999998,2.771313E-06
0.2009998,2.988962E-06
0.2019998,3.209677E-06
0.2029998,3.313903E-06
0.2039998,3.60819E-06
0.2049998,3.779857E-06
0.2059998,3.838101E-06
0.2069998,4.049619E-06
0.2079998,4.325513E-06
0.2089998,4.466525E-06
0.2099998,4.619799E-06
0.2109998,4.837448E-06
0.2119998,5.070424E-06
0.2129998,5.278877E-06
0.2139998,5.401497E-06
0.2149998,5.686587E-06
0.2159998,5.855188E-06
0.2169998,6.082034E-06
0.2179998,6.336469E-06
0.2189998,6.385517E-06
0.2199998,6.811619E-06
0.2209998,6.955697E-06
0.2219998,7.059923E-06
0.2229998,7.375667E-06
0.2239998,7.61171E-06
0.2249998,7.783377E-06
0.2259998,8.037812E-06
0.2269998,8.218675E-06
0.2279998,8.580402E-06
0.2289998,8.752069E-06
0.2299998,8.865492E-06
0.2309998,9.230284E-06
0.2319998,9.469392E-06
0.2329998,9.634929E-06
0.2339998,9.944541E-06
0.2349998,1.000892E-05
0.2359998,1.045035E-05
0.2369998,1.061895E-05
0.2379998,1.083353E-05
0.2389998,1.118606E-05
0.2399998,1.138838E-05
0.2409998,1.15999E-05
0.2419998,1.198615E-05
0.2429998,1.217928E-05
0.2439998,1.242145E-05
0.2449998,1.274026E-05
0.2459998,1.293339E-05
0.2469998,1.330738E-05
0.2479998,1.352809E-05
0.2489998,1.371815E-05
0.2499998,1.415038E-05
0.2509998,1.427607E-05
0.2519998,1.463166E-05
0.2529998,1.487077E-05
0.2539998,1.506696E-05
0.2549998,1.540417E-05
0.2559998,1.571378E-05
0.2569998,1.597741E-05
0.2579998,1.63422E-05
0.2589998,1.655679E-05
0.2599998,1.706872E-05
0.2609998,1.731089E-05
0.2619998,1.765835E-05
0.2629998,1.790359E-05
0.2639998,1.83021E-05
0.2649998,1.857799E-05
0.2659998,1.897651E-05
0.2669998,1.909912E-05
0.2679998,1.955895E-05
0.2689998,1.983484E-05
0.2699998,2.004942E-05
0.2709998,2.041728E-05
0.2719998,2.072383E-05
0.2729998,2.106103E-05
0.2739998,2.155151E-05
0.2749998,2.195002E-05
0.2759998,2.231788E-05
0.2769998,2.265508E-05
0.2779998,2.299229E-05
0.2789998,2.345211E-05
0.2799998,2.369735E-05
0.2809998,2.394259E-05
0.2819998,2.446372E-05
0.2829998,2.461699E-05
0.2839998,2.526074E-05
0.2849998,2.578188E-05
0.2859998,2.605777E-05
0.2869998,2.667087E-05
0.2879998,2.706938E-05
0.2889998,2.731462E-05
0.2899998,2.792771E-05
0.2909998,2.823426E-05
0.2919998,2.869408E-05
0.2929998,2.915391E-05
0.2939998,2.958307E-05
0.2949998,3.007355E-05
0.2959998,3.03801E-05
0.2969998,3.07173E-05
0.2979998,3.136105E-05
0.2989998,3.169826E-05
0.2999998,3.237266E-05
0.3009998,3.277118E-05
0.3019998,3.3231E-05
0.3029998,3.38441E-05
0.3039998,3.436523E-05
0.3049998,3.47944E-05
0.3059998,3.54688E-05
0.3069998,3.60819E-05
0.3079998,3.669499E-05
0.3089998,3.718547E-05
0.3099998,3.773726E-05
0.3109998,3.83197E-05
0.3119998,3.887149E-05
0.3129998,3.933131E-05
0.3139998,4.009768E-05
0.3149998,4.043488E-05
0.3159998,4.126256E-05
0.3169998,4.1845E-05
0.3179998,4.224352E-05
0.3189998,4.297923E-05
0.3199998,4.371495E-05
0.3209998,4.417477E-05
0.3219998,4.494114E-05
0.3229998,4.540096E-05
0.3239998,4.622864E-05
0.3249998,4.690305E-05
0.3259998,4.760811E-05
0.3269998,4.840514E-05
0.3279998,4.91102E-05
0.3289998,4.975395E-05
0.3299998,5.064294E-05
0.3309998,5.116407E-05
0.3319998,5.232896E-05
0.3329998,5.29727E-05
0.3339998,5.35858E-05
0.3349998,5.462807E-05
0.3359998,5.530247E-05
0.3369998,5.597688E-05
0.3379998,5.701914E-05
0.3389998,5.763223E-05
0.3399998,5.873581E-05
0.3409998,5.947153E-05
0.3419998,6.020725E-05
0.3429998,6.11882E-05
0.3439998,6.210784E-05
0.3449998,6.299683E-05
0.3459998,6.406975E-05
0.3469998,6.474416E-05
0.3479998,6.597035E-05
0.3489998,6.682868E-05
0.3499998,6.753375E-05
0.3509998,6.882125E-05
0.3519998,6.986351E-05
0.3529998,7.06912E-05
0.3539998,7.191739E-05
0.3549998,7.274507E-05
0.3559998,7.403257E-05
0.3569998,7.504418E-05
0.3579998,7.599447E-05
0.3589998,7.728198E-05
0.3599998,7.83549E-05
0.3609998,7.933586E-05
0.3619998,8.080729E-05
0.3629998,8.169628E-05
0.3639998,8.313705E-05
0.3649998,8.424062E-05
0.3659998,8.537486E-05
0.3669998,8.678498E-05
0.3679998,8.801118E-05
0.3689998,8.905343E-05
0.3699998,9.061684E-05
0.3709998,9.187368E-05
0.3719998,9.349838E-05
0.3729998,9.447934E-05
0.3739998,9.585881E-05
0.3749998,9.760613E-05
0.3759998,9.870971E-05
0.3769998,0.0001000279
0.3779998,0.0001018058
0.3789998,0.0001029094
0.3799998,0.000104718
0.3809998,0.0001063121
0.3819998,0.0001074157
0.3829998,0.0001094082
0.3839998,0.0001107264
0.3849998,0.0001121059
0.3859998,0.000114221
0.3869998,0.0001155392
0.3879998,0.0001173785
0.3889998,0.0001191258
0.3899998,0.0001206586
0.3909998,0.0001226511
0.3919998,0.0001241838
0.3929998,0.0001257473
0.3939998,0.0001278931
0.3949998,0.0001294871
0.3959998,0.0001316636
0.3969998,0.0001333496
0.3979998,0.0001350663
0.3989998,0.0001374881
0.3999998,0.0001388982
0.4009998,0.000140952
0.4019998,0.0001433125
0.4029998,0.0001449985
0.4039998,0.0001475735
0.4049998,0.0001496274
0.4059998,0.0001514053
0.4069998,0.0001540723
0.4079998,0.0001558809
0.4089998,0.0001587319
0.4099998,0.0001608777
0.4109998,0.0001626557
0.4119998,0.0001654759
0.4129998,0.000167775
0.4139998,0.0001697676
0.4149998,0.0001726491
0.4159998,0.0001747643
0.4169998,0.0001771554
0.4179998,0.0001800063
0.4189998,0.0001818456
0.4199998,0.0001852483
0.4209998,0.0001876394
0.4219998,0.0001898771
0.4229998,0.0001930653
0.4239998,0.0001956403
0.4249998,0.0001983072
0.4259998,0.0002016179
0.4269998,0.0002036105
0.4279998,0.0002071052
0.4289998,0.000210048
0.4299998,0.0002124085
0.4309998,0.0002156885
0.4319998,0.000218662
0.4329998,0.0002215743
0.4339998,0.0002245171
0.4349998,0.0002274906
0.4359998,0.0002314145
0.4369998,0.0002339894
0.4379998,0.0002370549
0.4389998,0.000241132
0.4399998,0.000243707
0.4409998,0.0002474469
0.4419998,0.0002511562
0.4429998,0.0002536392
0.4439998,0.0002581761
0.4449998,0.0002613949
0.4459998,0.0002641538
0.4469998,0.0002687827
0.4479998,0.0002723999
0.4489998,0.0002760172
0.4499998,0.0002802169
0.4509998,0.0002869409
0.4519998,0.000290926
0.4529998,0.000294298
0.4539998,0.0002982832
0.4549998,0.0003028814
0.4559998,0.0003062534
0.4569998,0.0003105451
0.4579998,0.0003154498
0.4589998,0.0003188219
0.4599998,0.0003246463
0.4609998,0.000328938
0.4619998,0.0003329231
0.4629998,0.0003387475
0.4639998,0.0003427326
0.4649998,0.0003476374
0.4659998,0.0003534619
0.4669998,0.0003580601
0.4679998,0.0003644976
0.4689998,0.0003694023
0.4699998,0.0003749202
0.4709998,0.0003816643
0.4719998,0.0003871821
0.4729998,0.0003939262
0.4739998,0.0004009768
0.4749998,0.0004068012
0.4759998,0.0004153846
0.4769998,0.0004221287
0.4779998,0.0004294858
0.4789998,0.0004389888
0.4799998,0.0004469591
0.4809998,0.0004564621
0.4819998,0.0004668847
0.4829998,0.0004754681
0.4839998,0.0004883431
0.4849998,0.0004990723
0.4859998,0.000510108
0.4869998,0.0005242092
0.4879998,0.0005373908
0.4889998,0.0005524117
0.4899998,0.0005692719
0.4909998,0.0005858254
0.4919998,0.000605138
0.4929998,0.0006244505
0.4939998,0.0006452958
0.4949998,0.0006689
0.4959998,0.0006928107
0.4969998,0.0007194805
0.4979998,0.0007479895
0.4989998,0.0007786443
0.4999998,0.0008138973
0.5009998,0.0008479242
0.5019998,0.0008856296
0.5029998,0.0009288529
0.5039998,0.0009723828
0.5049998,0.001020204
0.5059998,0.001072624
0.5069998,0.001126883
0.5079998,0.001187886
0.5089998,0.001250728
0.5099998,0.001318169
0.5109998,0.001392047
0.5119998,0.001472056
0.5129998,0.001554824
0.5139998,0.00164311
0.5149998,0.001736608
0.5159998,0.001838688
0.5169998,0.001941995
0.5179998,0.002054498
0.5189998,0.002174359
0.5199998,0.002295445
0.5209998,0.002428181
0.5219998,0.002565821
0.5229998,0.002707753
0.5239998,0.00286072
0.5249998,0.003017979
0.5259998,0.003209677
0.5269998,0.003378279
0.5279998,0.003553011
0.5289998,0.00373694
0.5299998,0.003927
0.5309998,0.004123191
0.5319998,0.004328578
0.5329998,0.004533966
0.5339998,0.004751615
0.5349998,0.004972329
0.5359998,0.00519611
0.5369998,0.005429087
0.5379998,0.005668194
0.5389998,0.005910367
0.5399998,0.006161737
0.5409998,0.006416172
0.5419998,0.006673672
0.5429998,0.006940369
0.5439998,0.007207066
0.5449998,0.007486025
0.5459998,0.007764984
0.5469998,0.008047008
0.5479998,0.008335164
0.5489998,0.008623319
0.5499998,0.008920671
0.5509998,0.009221088
0.5519998,0.009524571
0.5529998,0.009831119
0.5539998,0.0101438
0.5549998,0.01045648
0.5559998,0.01077529
0.5569998,0.01109716
0.5579998,0.01141904
0.5589998,0.01175011
0.5599998,0.01207812
0.5609998,0.01241225
0.5619998,0.01274946
0.5629998,0.01308666
0.5639998,0.01343306
0.5649998,0.01377333
0.5659998,0.01412279
0.5669998,0.01447226
0.5679998,0.01482172
0.5689998,0.01518039
0.5699998,0.01553598
0.5709998,0.01589464
0.5719998,0.01625944
0.5729998,0.0166181
0.5739998,0.01698289
0.5749998,0.01735381
0.5759998,0.01771861
0.5769998,0.01809259
0.5779998,0.01846658
0.5789998,0.01884057
0.5799998,0.01921456
0.5809998,0.01959468
0.5819998,0.01997174
0.5829998,0.02035492
0.5839998,0.02073811
0.5849998,0.02111823
0.5859998,0.02150448
0.5869998,0.02189686
0.5879998,0.02228311
0.5889998,0.02266936
0.5899998,0.02306481
0.5909998,0.02345106
0.5919998,0.02384344
0.5929998,0.02424195
0.5939998,0.02463434
0.5949998,0.02502672
0.5959998,0.02543749
0.5969998,0.02582681
0.5979998,0.02622839
0.5989998,0.02663916
0.5999998,0.02703154
0.6009998,0.02743925
0.6019998,0.02784696
0.6029998,0.02824854
0.6039998,0.02865931
0.6049998,0.02906702
0.6059998,0.02947167
0.6069998,0.02988857
0.6079998,0.03105451
0.6089998,0.03142237
0.6099998,0.03185153
0.6109998,0.0322807
0.6119998,0.03267921
0.6129998,0.03310838
0.6139998,0.03353755
0.6149998,0.03393606
0.6159998,0.03436523
0.6169998,0.0347944
0.6179998,0.03522356
0.6189998,0.03565273
0.6199998,0.0360819
0.6209998,0.03648041
0.6219998,0.03690958
0.6229998,0.03733874
0.6239998,0.03776791
0.6249998,0.03819708
0.6259998,0.03862625
0.6269998,0.03905542
0.6279998,0.03951524
0.6289998,0.03991375
0.6299998,0.04037357
0.6309998,0.04080274
0.6319998,0.04120126
0.6329998,0.04166108
0.6339998,0.04209024
0.6349998,0.04251941
0.6359998,0.04297924
0.6369998,0.0434084
0.6379998,0.04380691
0.6389998,0.04426674
0.6399998,0.04469591
0.6409998,0.04512507
0.6419998,0.04558489
0.6429998,0.04601406
0.6439998,0.04647389
0.6449998,0.04690305
0.6459998,0.04736288
0.6469998,0.04779204
0.6479998,0.04822121
0.6489998,0.04868103
0.6499998,0.0491102
0.6509998,0.04953937
0.6519998,0.04999919
0.6529998,0.0503977
0.6539998,0.05085753
0.6549998,0.05131735
0.6559998,0.05171586
0.6569998,0.05217568
0.6579998,0.0526355
0.6589998,0.05306467
0.6599998,0.05349384
0.6609998,0.05395366
0.6619998,0.05438283
0.6629998,0.05484265
0.6639998,0.05527182
0.6649998,0.05573164
0.6659998,0.05616081
0.6669998,0.05658998
0.6679998,0.0570498
0.6689998,0.05750962
0.6699998,0.05793879
0.6709998,0.05836796
0.6719998,0.05882778
0.6729998,0.0592876
0.6739998,0.05971677
0.6749998,0.06017659
0.6759998,0.06060576
0.6769998,0.06106558
0.6779998,0.0615254
0.6789998,0.06198522
0.6799998,0.06244505
0.6809998,0.06290487
0.6819998,0.06336469
0.6829998,0.06379386
0.6839998,0.06428434
0.6849998,0.06471351
0.6859998,0.06520399
0.6869998,0.06569446
0.6879998,0.06609298
0.6889998,0.06661411
0.6899998,0.06707393
0.6909998,0.06750309
0.6919998,0.06799357
0.6929998,0.06845339
0.6939998,0.06891321
0.6949998,0.0694037
0.6959998,0.06986352
0.6969998,0.07032334
0.6979998,0.07078316
0.6989998,0.07127364
0.6999998,0.07139625
0.6990003,0.07096709
0.6980003,0.07050727
0.6970003,0.07004745
0.6960003,0.06961828
0.6950003,0.06915846
0.6940003,0.06869864
0.6930003,0.06826947
0.6920003,0.06780964
0.6910003,0.06738048
0.6900003,0.06692065
0.6890003,0.06646083
0.6880003,0.06603166
0.6870003,0.06557184
0.6860003,0.06511202
0.6850003,0.06468286
0.6840003,0.06425368
0.6830003,0.06379386
0.6820003,0.06333404
0.6810003,0.06290487
0.6800003,0.06244505
0.6790003,0.06201588
0.6780003,0.06155606
0.6770003,0.06109623
0.6760003,0.06066707
0.6750003,0.06020725
0.6740003,0.05977808
0.6730003,0.05934891
0.6720003,0.05888909
0.6710003,0.05842927
0.6700003,0.0580001
0.6690003,0.05757093
0.6680003,0.05711111
0.6670003,0.05668194
0.6660003,0.05622212
0.6650003,0.05579295
0.6640003,0.05536379
0.6630003,0.05490396
0.6620003,0.05444414
0.6610003,0.05404563
0.6600003,0.05355515
0.6590003,0.05315664
0.6580003,0.05269681
0.6570003,0.05226765
0.6560003,0.05183848
0.6550003,0.05140931
0.6540003,0.05094949
0.6530003,0.05052032
0.6520003,0.0500605
0.6510003,0.04963133
0.6500003,0.04920216
0.6490003,0.048773
0.6480003,0.04834383
0.6470003,0.04791466
0.6460003,0.04745484
0.6450003,0.04702567
0.6440003,0.0465965
0.6430003,0.04616734
0.6420003,0.04573817
0.6410003,0.04527835
0.6400003,0.04487984
0.6390003,0.04442001
0.6380003,0.0440215
0.6370003,0.04359233
0.6360003,0.04316316
0.6350003,0.04273399
0.6340003,0.04230483
0.6330003,0.04187566
0.6320003,0.04144649
0.6310003,0.04101732
0.6300003,0.04058816
0.6290003,0.04018965
0.6280003,0.03976048
0.6270003,0.03933131
0.6260003,0.03890214
0.6250003,0.03847298
0.6240003,0.03807446
0.6230003,0.0376453
0.6220003,0.03721613
0.6210003,0.03681761
0.6200003,0.03638845
0.6190003,0.03595928
0.6180003,0.03556077
0.6170003,0.03516225
0.6160003,0.03473309
0.6150003,0.03430392
0.6140003,0.03390541
0.6130003,0.03350689
0.6120003,0.03307773
0.6110003,0.03267921
0.6100003,0.03225004
0.6090003,0.03185153
0.6080003,0.03145302
0.6070003,0.03105451
0.6060003,0.03065599
0.6050003,0.03022683
0.6040003,0.02982831
0.6030003,0.0294298
0.6020003,0.02903129
0.6010003,0.02863277
0.6000003,0.02823426
0.5990003,0.02783575
0.5980003,0.02743724
0.5970003,0.02703872
0.5960003,0.02664021
0.5950003,0.0262417
0.5940003,0.02584319
0.5930003,0.02547533
0.5920003,0.02507682
0.5910003,0.0246783
0.5900003,0.02431045
0.5890003,0.02391193
0.5880003,0.02354407
0.5870003,0.02314556
0.5860003,0.0227777
0.5850003,0.02237919
0.5840003,0.02201133
0.5830003,0.02161282
0.5820003,0.02124496
0.5810003,0.0208771
0.5800003,0.02050925
0.5790003,0.02014139
0.5780003,0.01977353
0.5770003,0.01940567
0.5760003,0.01903781
0.5750003,0.01866996
0.5740003,0.01833276
0.5730003,0.0179649
0.5720003,0.01759704
0.5710003,0.01725983
0.5700003,0.01689198
0.5690003,0.01655477
0.5680003,0.01618692
0.5670003,0.01584971
0.5660003,0.01548185
0.5650003,0.01514465
0.5640003,0.01480745
0.5630003,0.01447024
0.5620003,0.01413304
0.5610003,0.01379584
0.5600003,0.01345864
0.5590003,0.01312143
0.5580003,0.01233562
0.5570003,0.01201374
0.5560003,0.011698
0.5550003,0.01138532
0.5540003,0.01107264
0.5530003,0.01076609
0.5520003,0.01046261
0.5510003,0.01015606
0.5500003,0.009858709
0.5490003,0.009561357
0.5480003,0.00926707
0.5470003,0.00898198
0.5460003,0.008693825
0.5450003,0.0084118
0.5440003,0.008135907
0.5430003,0.007856948
0.5420003,0.007587186
0.5410003,0.007323555
0.5400003,0.007056858
0.5390003,0.006799357
0.5380003,0.006544922
0.5370003,0.006293552
0.5360003,0.006048314
0.5350003,0.005806141
0.5340003,0.005570099
0.5330003,0.005337122
0.5320003,0.005110276
0.5310003,0.004886496
0.5300003,0.004668847
0.5290003,0.004457328
0.5280003,0.004248876
0.5270003,0.004046554
0.5260003,0.003847297
0.5250003,0.003654172
0.5240003,0.003467177
0.5230003,0.003289379
0.5220003,0.003111582
0.5210003,0.002939914
0.5200003,0.002777444
0.5190003,0.002611908
0.5180003,0.002458634
0.5170003,0.00231149
0.5160003,0.002167413
0.5150003,0.002032532
0.5140003,0.00189765
0.5130003,0.001771966
0.5120003,0.001649346
0.5110003,0.001532858
0.5100003,0.001422501
0.5090003,0.001315209
0.5080003,0.001217113
0.5070003,0.00109163
0.5060003,0.001001811
0.5050003,0.0009150583
0.5040003,0.0008353557
0.5030003,0.0007574924
0.5020003,0.0006854536
0.5010003,0.0006177064
0.5000003,0.0005521051
0.4990003,0.0004929413
0.4980003,0.0004356168
0.4970003,0.0003816643
0.4960003,0.0003341493
0.4950003,0.0002857147
0.4940003,0.000243411
0.4930003,0.0002032532
0.4920003,0.000164015
0.4910003,0.0001309078
0.4900003,9.841367E-05
0.4890003,6.192391E-05
0.4880003,3.743071E-05
0.4870003,1.057708E-05
0.4860003,-1.327237E-05
0.4850003,-3.405634E-05
0.4840003,-5.597454E-05
0.4830003,-7.430613E-05
0.4820003,-9.09517E-05
0.4810003,-0.0001072601
0.4800003,-0.000121116
0.4790003,-0.0001353092
0.4780003,-0.0001470194
0.4770003,-0.0001581164
0.4760003,-0.0001689989
0.4750003,-0.0001771224
0.4740003,-0.0001865334
0.4730003,-0.0001945957
0.4720003,-0.0001995311
0.4710003,-0.0002076239
0.4700003,-0.0002131418
0.4690003,-0.0002174335
0.4680003,-0.0002234419
0.4670003,-0.0002268445
0.4660003,-0.0002303085
0.4650003,-0.0002347842
0.4640003,-0.000235857
0.4630003,-0.0002395356
0.4620003,-0.0002418041
0.4610003,-0.0002438273
0.4600003,-0.0002464023
0.4590003,-0.0002468008
0.4580003,-0.0002478431
0.4570003,-0.0002495291
0.4560003,-0.0002491919
0.4550003,-0.0002505714
0.4540003,-0.0002509085
0.4530003,-0.0002512764
0.4520003,-0.0002520122
0.4510003,-0.0002515217
0.4500003,-0.0002511232
0.4490003,-0.0002514604
0.4480003,-0.0002508473
0.4470003,-0.0002513991
0.4460003,-0.0002506633
0.4450003,-0.0002496517
0.4440003,-0.0002502035
0.4430003,-0.0002489467
0.4420003,-0.0002485175
0.4410003,-0.0002482109
0.4400003,-0.0002457892
0.4390003,-0.0002458812
0.4380003,-0.0002452987
0.4370003,-0.0002435821
0.4360003,-0.0002435208
0.4350003,-0.000242172
0.4340003,-0.0002409458
0.4330003,-0.0002405166
0.4320003,-0.0002389532
0.4310003,-0.0002384014
0.4300003,-0.0002370526
0.4290003,-0.000235857
0.4280003,-0.0002353053
0.4270003,-0.0002335886
0.4260003,-0.0002323931
0.4250003,-0.0002313815
0.4240003,-0.0002293276
0.4230003,-0.0002292663
0.4220003,-0.0002279788
0.4210003,-0.0002260782
0.4200003,-0.0002260169
0.4190003,-0.0002241776
0.4180003,-0.0002227061
0.4170003,-0.0002220624
0.4160003,-0.0002200392
0.4150003,-0.0002194261
0.4140003,-0.0002181999
0.4130003,-0.0002162993
0.4120003,-0.0002160234
0.4110003,-0.0002142454
0.4100003,-0.0002138469
0.4090003,-0.0002124061
0.4080003,-0.0002099231
0.4070003,-0.0002090034
0.4060003,-0.0002077159
0.4050003,-0.0002058153
0.4040003,-0.0002053555
0.4030003,-0.000204068
0.4020003,-0.0002025659
0.4010003,-0.0002014317
0.4000003,-0.0001995311
0.3990003,-0.0001989486
0.3980003,-0.0001975079
0.3970003,-0.0001959445
0.3960003,-0.0001952088
0.3950003,-0.0001934308
0.3940003,-0.00019199
0.3930003,-0.0001913156
0.3920003,-0.0001889858
0.3910003,-0.0001883727
0.3900003,-0.0001875757
0.3890003,-0.0001856138
0.3880003,-0.00018497
0.3870003,-0.0001837439
0.3860003,-0.0001822111
0.3850003,-0.0001811995
0.3840003,-0.0001792683
0.3830003,-0.0001785019
0.3820003,-0.0001773677
0.3810003,-0.0001757123
0.3800003,-0.0001749766
0.3790003,-0.0001734438
0.3780003,-0.0001724016
0.3770003,-0.000171298
0.3760003,-0.0001693667
0.3750003,-0.000168723
0.3740003,-0.0001676807
0.3730003,-0.0001660867
0.3720003,-0.0001654123
0.3710003,-0.0001641861
0.3700003,-0.0001628373
0.3690003,-0.0001620709
0.3680003,-0.0001603236
0.3670003,-0.0001594959
0.3660003,-0.0001586069
0.3650003,-0.0001571968
0.3640003,-0.0001564304
0.3630003,-0.0001552042
0.3620003,-0.0001537941
0.3610003,-0.0001532116
0.3600003,-0.0001519241
0.3590003,-0.0001510658
0.3580003,-0.0001499009
0.3570003,-0.0001487054
0.3560003,-0.000148123
0.3550003,-0.0001468968
0.3540003,-0.0001457012
0.3530003,-0.0001449655
0.3520003,-0.000143678
0.3510003,-0.0001430343
0.3500003,-0.000141992
0.3490003,-0.0001407352
0.3480003,-0.0001403366
0.3470003,-0.0001391411
0.3460003,-0.0001380375
0.3450003,-0.0001374244
0.3440003,-0.000136045
0.3430003,-0.0001352479
0.3420003,-0.0001343283
0.3410003,-0.0001331021
0.3400003,-0.000132581
0.3390003,-0.0001317839
0.3380003,-0.000130711
0.3370003,-0.0001300673
0.3360003,-0.0001289637
0.3350003,-0.0001284119
0.3340003,-0.0001277375
0.3330003,-0.000126542
0.3320003,-0.0001260821
0.3310003,-0.0001250705
0.3300003,-0.0001243655
0.3290003,-0.0001236911
0.3280003,-0.0001223729
0.3270003,-0.000122005
0.3260003,-0.0001213919
0.3250003,-0.000120319
0.3240003,-0.0001199205
0.3230003,-0.0001191235
0.3220003,-0.0001183571
0.3210003,-0.0001178666
0.3200003,-0.0001170083
0.3190003,-0.0001163033
0.3180003,-0.0001158741
0.3170003,-0.0001151077
0.3160003,-0.0001146172
0.3150003,-0.0001137896
0.3140003,-0.0001131458
0.3130003,-0.0001126247
0.3120003,-0.000111705
0.3110003,-0.0001112145
0.3100003,-0.0001106934
0.3090003,-0.000109927
0.3080003,-0.0001095592
0.3070003,-0.0001090074
0.3060003,-0.0001081797
0.3050003,-0.0001079038
0.3040003,-0.0001070455
0.3030003,-0.0001066776
0.3020003,-0.0001061872
0.3010003,-0.0001055434
0.3000003,-0.0001051449
0.2990003,-0.0001047157
0.2980003,-0.0001040413
0.2970003,-0.0001037348
0.2960003,-0.0001030297
0.2950003,-0.0001026618
0.2940003,-0.0001024166
0.2930003,-0.0001017115
0.2920003,-0.000101405
0.2910003,-0.0001009452
0.2900003,-0.0001003934
0.2890003,-0.0001001175
0.2880003,-9.959636E-05
0.2870003,-9.92285E-05
0.2860003,-9.879933E-05
0.2850003,-9.833951E-05
0.2840003,-9.803296E-05
0.2830003,-9.745052E-05
0.2820003,-9.689873E-05
0.2810003,-9.674546E-05
0.2800003,-9.616302E-05
0.2790003,-9.591779E-05
0.2780003,-9.548861E-05
0.2770003,-9.505945E-05
0.2760003,-9.490617E-05
0.2750003,-9.450765E-05
0.2740003,-9.398653E-05
0.2730003,-9.374129E-05
0.2720003,-9.337343E-05
0.2710003,-9.297491E-05
0.2700003,-9.272968E-05
0.2690003,-9.248444E-05
0.2680003,-9.220855E-05
0.2670003,-9.177938E-05
0.2660003,-9.147283E-05
0.2650003,-9.131956E-05
0.2640003,-9.089039E-05
0.2630003,-9.076777E-05
0.2620003,-9.058384E-05
0.2610003,-9.015467E-05
0.2600003,-9.015467E-05
0.2590003,-8.978682E-05
0.2580003,-8.941896E-05
0.2570003,-8.935765E-05
0.2560003,-8.908175E-05
0.2550003,-8.883652E-05
0.2540003,-8.868324E-05
0.2530003,-8.828473E-05
0.2520003,-8.819276E-05
0.2510003,-8.800883E-05
0.2500003,-8.773294E-05
0.2490003,-8.751835E-05
0.2480003,-8.721181E-05
0.2470003,-8.711984E-05
0.2460003,-8.693591E-05
0.2450003,-8.662937E-05
0.2440003,-8.656806E-05
0.2430003,-8.632282E-05
0.2420003,-8.62002E-05
0.2410003,-8.604692E-05
0.2400003,-8.567907E-05
0.2390003,-8.561776E-05
0.2380003,-8.55871E-05
0.2370003,-8.521925E-05
0.2360003,-8.521925E-05
0.2350003,-8.503532E-05
0.2340003,-8.475943E-05
0.2330003,-8.479008E-05
0.2320003,-8.451418E-05
0.2310003,-8.42996E-05
0.2300003,-8.426895E-05
0.2290003,-8.405436E-05
0.2280003,-8.39624E-05
0.2270003,-8.377847E-05
0.2260003,-8.362519E-05
0.2250003,-8.356389E-05
0.2240003,-8.33493E-05
0.2230003,-8.3288E-05
0.2220003,-8.319603E-05
0.2210003,-8.304276E-05
0.2200003,-8.307341E-05
0.2190003,-8.285882E-05
0.2180003,-8.27362E-05
0.2170003,-8.270555E-05
0.2160003,-8.249097E-05
0.2150003,-8.2399E-05
0.2140003,-8.233769E-05
0.2130003,-8.221508E-05
0.2120003,-8.230704E-05
0.2110003,-8.230704E-05
0.2100003,-8.20618E-05
0.2090003,-8.209245E-05
0.2080003,-8.203115E-05
0.2070003,-8.190853E-05
0.2060003,-8.190853E-05
0.2050003,-8.17859E-05
0.2040003,-8.17859E-05
0.2030003,-8.17246E-05
0.2020003,-8.160197E-05
0.2010003,-8.154067E-05
0.2000003,-8.147936E-05
0.1990003,-8.14487E-05
0.1980003,-8.132608E-05
0.1970003,-8.11115E-05
0.1960003,-8.120346E-05
0.1950003,-8.108085E-05
0.1940003,-8.095823E-05
0.1930003,-8.092757E-05
0.1920003,-8.07743E-05
0.1910003,-8.074364E-05
0.1900003,-8.068234E-05
0.1890003,-8.059036E-05
0.1880003,-8.065168E-05
0.1870003,-8.046775E-05
0.1860003,-8.037578E-05
0.1850003,-8.052905E-05
0.1840003,-8.037578E-05
0.1830003,-8.037578E-05
0.1820003,-8.040644E-05
0.1810003,-8.031447E-05
0.1800003,-8.034513E-05
0.1790003,-8.01612E-05
0.1780003,-8.013054E-05
0.1770003,-8.022251E-05
0.1760003,-8.013054E-05
0.1750003,-8.01612E-05
0.1740003,-8.013054E-05
0.1730003,-8.000793E-05
0.1720003,-8.003858E-05
0.1710003,-7.997728E-05
0.1700003,-7.988531E-05
0.1690003,-7.9824E-05
0.1680003,-7.976269E-05
0.1670003,-7.976269E-05
0.1660003,-7.979335E-05
0.1650003,-7.964007E-05
0.1640003,-7.967072E-05
0.1630003,-7.964007E-05
0.1620003,-7.94868E-05
0.1610003,-7.957876E-05
0.1600003,-7.94868E-05
0.1590003,-7.954811E-05
0.1580003,-7.94868E-05
0.1570003,-7.954811E-05
0.1560003,-7.964007E-05
0.1550003,-7.960942E-05
0.1540003,-7.94868E-05
0.1530003,-7.954811E-05
0.1520003,-7.942548E-05
0.1510003,-7.951745E-05
0.1500003,-7.945613E-05
0.1490003,-7.936417E-05
0.1480003,-7.942548E-05
0.1470003,-7.939483E-05
0.1460003,-7.927221E-05
0.1450003,-7.933352E-05
0.1440003,-7.918024E-05
0.1430003,-7.918024E-05
0.1420003,-7.927221E-05
0.1410003,-7.918024E-05
0.1400003,-7.92109E-05
0.1390003,-7.914959E-05
0.1380003,-7.908828E-05
0.1370003,-7.918024E-05
0.1360003,-7.893501E-05
0.1350003,-7.905762E-05
0.1340003,-7.905762E-05
0.1330003,-7.902697E-05
0.1320003,-7.914959E-05
0.1310003,-7.899632E-05
0.1300003,-7.896566E-05
0.1290003,-7.908828E-05
0.1280003,-7.887369E-05
0.1270003,-7.890436E-05
0.1260003,-7.896566E-05
0.1250003,-7.890436E-05
0.1240003,-7.899632E-05
0.1230003,-7.890436E-05
0.1220003,-7.872043E-05
0.1210003,-7.881239E-05
0.1200003,-7.865911E-05
0.1190003,-7.865911E-05
0.1180003,-7.856715E-05
0.1170003,-7.844453E-05
0.1160003,-7.838322E-05
0.1150003,-7.841388E-05
0.1140003,-7.832191E-05
0.1130003,-7.832191E-05
0.1120003,-7.82606E-05
0.1110003,-7.819929E-05
0.1100003,-7.816863E-05
0.1090003,-7.810732E-05
0.1080003,-7.810732E-05
0.1070003,-7.810732E-05
0.1060003,-7.79847E-05
0.1050003,-7.795405E-05
0.1040003,-7.786209E-05
0.1030003,-7.783144E-05
0.1020003,-7.777012E-05
0.1010003,-7.761685E-05
0.1000003,-7.764751E-05
0.09900028,-7.746358E-05
0.09800029,-7.727965E-05
0.09700029,-7.724899E-05
0.09600028,-7.712637E-05
0.09500029,-7.715703E-05
0.09400029,-7.712637E-05
0.09300029,-7.700375E-05
0.09200028,-7.709571E-05
0.09100029,-7.69731E-05
0.09000029,-7.694244E-05
0.08900028,-7.688113E-05
0.08800028,-7.672786E-05
0.08700029,-7.678917E-05
0.08600029,-7.672786E-05
0.08500028,-7.660524E-05
0.08400029,-7.663589E-05
0.08300029,-7.660524E-05
0.08200029,-7.642131E-05
0.08100028,-7.651328E-05
0.08000029,-7.639066E-05
0.07900029,-7.632935E-05
0.07800028,-7.62987E-05
0.07700028,-7.620673E-05
0.07600029,-7.614542E-05
0.07500029,-7.605345E-05
0.07400028,-7.608411E-05
0.07300029,-7.605345E-05
0.07200029,-7.586952E-05
0.07100029,-7.590018E-05
0.07000028,-7.580821E-05
0.06900029,-7.57469E-05
0.06800029,-7.580821E-05
0.06700028,-7.56856E-05
0.06600028,-7.559363E-05
0.06500029,-7.562429E-05
0.06400029,-7.553232E-05
0.06300028,-7.540971E-05
0.06200029,-7.547101E-05
0.06100029,-7.534839E-05
0.06000029,-7.534839E-05
0.05900029,-7.528708E-05
0.05800029,-7.516446E-05
0.05700029,-7.525643E-05
0.05600028,-7.519512E-05
0.05500029,-7.513381E-05
0.05400028,-7.516446E-05
0.05300029,-7.504185E-05
0.05200029,-7.510315E-05
0.05100029,-7.50725E-05
0.05000029,-7.501119E-05
0.04900029,-7.50725E-05
0.04800029,-7.498054E-05
0.04700029,-7.504185E-05
0.04600029,-7.491923E-05
0.04500028,-7.494988E-05
0.04400029,-7.498054E-05
0.04300028,-7.488857E-05
0.04200029,-7.482726E-05
0.04100028,-7.482726E-05
0.04000029,-7.476595E-05
0.03900029,-7.476595E-05
0.03800029,-7.47353E-05
0.03700029,-7.464333E-05
0.03600029,-7.467398E-05
0.03500029,-7.464333E-05
0.03400028,-7.455137E-05
0.03300029,-7.458202E-05
0.03200028,-7.455137E-05
0.03100029,-7.452071E-05
0.03000029,-7.449005E-05
0.02900029,-7.442875E-05
0.02800029,-7.44594E-05
0.02700029,-7.44594E-05
0.02600029,-7.442875E-05
0.02500029,-7.44594E-05
0.02400029,-7.436744E-05
0.02300029,-7.436744E-05
0.02200029,-7.433679E-05
0.02100029,-7.430613E-05
0.02000029,-7.433679E-05
0.01900029,-7.427547E-05
0.01800029,-7.430613E-05
0.01700029,-7.427547E-05
0.01600029,-7.424482E-05
0.01500029,-7.427547E-05
0.01400029,-7.427547E-05
0.01300029,-7.427547E-05
0.01200029,-7.427547E-05
0.01100029,-7.433679E-05
0.01000029,-7.427547E-05
0.009000286,-7.427547E-05
0.008000286,-7.430613E-05
0.007000286,-7.427547E-05
0.006000286,-7.424482E-05
0.005000286,-7.424482E-05
0.004000286,-7.421416E-05
0.003000286,-7.415286E-05
0.002000286,-7.415286E-05
0.001000286,-7.409155E-05
2.861023E-07,-7.050493E-05
0.0009997139,-6.838975E-05
0.001999714,-6.694897E-05
0.002999714,-6.596802E-05
0.003999714,-6.495641E-05
0.004999714,-6.40061E-05
0.005999714,-6.314777E-05
0.006999714,-6.247337E-05
0.007999714,-6.179896E-05
0.008999714,-6.112456E-05
0.009999714,-6.035818E-05
0.01099971,-5.971443E-05
0.01199971,-5.897872E-05
0.01299971,-5.839627E-05
0.01399971,-5.775252E-05
0.01499971,-5.70168E-05
0.01599971,-5.646502E-05
0.01699971,-5.582127E-05
0.01799971,-5.514687E-05
0.01899971,-5.462573E-05
0.01999971,-5.401264E-05
0.02099971,-5.343019E-05
0.02199971,-5.284775E-05
0.02299971,-5.226531E-05
0.02399971,-5.165222E-05
0.02499971,-5.113108E-05
0.02599971,-5.060995E-05
0.02699971,-5.005816E-05
0.02799971,-4.944507E-05
0.02899971,-4.898525E-05
0.02999971,-4.849477E-05
0.03099971,-4.791233E-05
0.03199971,-4.742185E-05
0.03299971,-4.693137E-05
0.03399972,-4.634893E-05
0.03499971,-4.595042E-05
0.03599972,-4.536797E-05
0.03699971,-4.490815E-05
0.03799972,-4.438702E-05
0.03899971,-4.383523E-05
0.03999971,-4.343672E-05
0.04099971,-4.29769E-05
0.04199971,-4.245577E-05
0.04299971,-4.196529E-05
0.04399971,-4.150547E-05
0.04499971,-4.104565E-05
0.04599971,-4.058582E-05
0.04699972,-4.0126E-05
0.04799971,-3.957421E-05
0.04899972,-3.920636E-05
0.04999971,-3.874653E-05
0.05099971,-3.825605E-05
0.05199971,-3.776558E-05
0.05299971,-3.733641E-05
0.05399971,-3.690724E-05
0.05499971,-3.644742E-05
0.05599971,-3.607956E-05
0.05699971,-3.56504E-05
0.05799972,-3.528254E-05
0.05899971,-3.491468E-05
0.05999972,-3.448551E-05
0.06099971,-3.411765E-05
0.06199971,-3.371914E-05
0.06299971,-3.328997E-05
0.06399971,-3.292211E-05
0.06499971,-3.25236E-05
0.06599972,-3.209443E-05
0.06699971,-3.172658E-05
0.06799971,-3.126675E-05
0.06899972,-3.083759E-05
0.06999972,-3.050039E-05
0.07099971,-3.007122E-05
0.07199971,-2.970336E-05
0.07299972,-2.93355E-05
0.07399971,-2.896764E-05
0.07499971,-2.869175E-05
0.07599971,-2.823193E-05
0.07699972,-2.792538E-05
0.07799971,-2.755752E-05
0.07899971,-2.718966E-05
0.07999972,-2.685246E-05
0.08099972,-2.645395E-05
0.08199971,-2.608609E-05
0.08299971,-2.577954E-05
0.08399972,-2.541168E-05
0.08499971,-2.513579E-05
0.08599971,-2.489055E-05
0.08699971,-2.452269E-05
0.08799972,-2.427745E-05
0.08899971,-2.397091E-05
0.08999971,-2.360305E-05
0.09099972,-2.335781E-05
0.09199972,-2.302061E-05
0.09299971,-2.262209E-05
0.09399971,-2.231555E-05
0.09499972,-2.2009E-05
0.09599971,-2.164114E-05
0.09699971,-2.136525E-05
0.09799971,-2.099739E-05
0.09899972,-2.069084E-05
0.09999971,-2.04456E-05
0.1009997,-2.004709E-05
0.1019997,-1.97712E-05
0.1029997,-1.955661E-05
0.1039997,-1.934203E-05
0.1049997,-1.912744E-05
0.1059997,-1.875959E-05
0.1069997,-1.857566E-05
0.1079997,-1.826911E-05
0.1089997,-1.79319E-05
0.1099997,-1.762536E-05
0.1109997,-1.734946E-05
0.1119997,-1.707357E-05
0.1129997,-1.682833E-05
0.1139997,-1.649113E-05
0.1149997,-1.621523E-05
0.1159997,-1.600065E-05
0.1169997,-1.56941E-05
0.1179997,-1.547952E-05
0.1189997,-1.511166E-05
0.1199997,-1.492773E-05
0.1209997,-1.465184E-05
0.1219997,-1.437595E-05
0.1229997,-1.413071E-05
0.1239997,-1.388547E-05
0.1249997,-1.367088E-05
0.1259997,-1.34563E-05
0.1269997,-1.318041E-05
0.1279997,-1.299648E-05
0.1289997,-1.281255E-05
0.1299997,-1.2506E-05
0.1309997,-1.232207E-05
0.1319997,-1.207683E-05
0.1329997,-1.18929E-05
0.1339997,-1.17928E-05
0.1349997,-1.154756E-05
0.1359997,-1.135137E-05
0.1369997,-1.115824E-05
0.1379997,-1.088848E-05
0.1389997,-1.069535E-05
0.1399997,-1.037961E-05
0.1409997,-1.011598E-05
0.1419997,-9.95657E-06
0.1429997,-9.680677E-06
0.1439997,-9.420111E-06
0.1449997,-9.208593E-06
0.1459997,-9.024664E-06
0.1469997,-8.807015E-06
0.1479997,-8.521924E-06
0.1489997,-8.313472E-06
0.1499997,-8.123412E-06
0.1509997,-7.868977E-06
0.1519997,-7.565494E-06
0.1529997,-7.363172E-06
0.1539997,-7.114868E-06
0.1549997,-6.952398E-06
0.1559997,-6.701028E-06
0.1569997,-6.514033E-06
0.1579997,-6.311711E-06
0.1589997,-6.035818E-06
0.1599997,-5.769121E-06
0.1609997,-5.618912E-06
0.1619997,-5.34915E-06
0.1629997,-5.195876E-06
0.1639997,-4.929179E-06
0.1649997,-4.757512E-06
0.1659997,-4.588911E-06
0.1669997,-4.389654E-06
0.1679997,-4.245576E-06
0.1689997,-4.024862E-06
0.1699997,-3.72751E-06
0.1709997,-3.669266E-06
0.1719997,-3.304473E-06
0.1729997,-3.056169E-06
0.1739997,-2.948877E-06
0.1749997,-2.61474E-06
0.1759997,-2.335781E-06
0.1769997,-2.2009E-06
0.1779997,-1.882089E-06
0.1789997,-1.741077E-06
0.1799997,-1.459053E-06
0.1809997,-1.232207E-06
0.1819997,-1.020689E-06
0.1829997,-7.969087E-07
0.1839997,-5.976523E-07
0.1849997,-3.98396E-07
0.1859997,-1.991396E-07
0.1869997,-3.973454E-08
0.1879997,2.729447E-07
0.1889997,4.630046E-07
0.1899997,5.886894E-07
0.1909997,8.431244E-07
0.1919997,1.073036E-06
0.1929997,1.241637E-06
0.1939997,1.603364E-06
0.1949997,1.704525E-06
0.1959997,2.026401E-06
0.1969997,2.253246E-06
0.1979997,2.443306E-06
0.1989997,2.811164E-06
0.1999997,3.044141E-06
0.2009997,3.243397E-06
0.2019997,3.577535E-06
0.2029997,3.687892E-06
0.2039997,4.018964E-06
0.2049997,4.169173E-06
0.2059997,4.291792E-06
0.2069997,4.567686E-06
0.2079997,4.822121E-06
0.2089997,5.107211E-06
0.2099997,5.370842E-06
0.2109997,5.625277E-06
0.2119997,5.977808E-06
0.2129997,6.192392E-06
0.2139997,6.348731E-06
0.2149997,6.692065E-06
0.2159997,6.989417E-06
0.2169997,7.207066E-06
0.2179997,7.513614E-06
0.2189997,7.676085E-06
0.2199997,7.982633E-06
0.2209997,8.194152E-06
0.2219997,8.402604E-06
0.2229997,8.678498E-06
0.2239997,9.000373E-06
0.2249997,9.193499E-06
0.2259997,9.536833E-06
0.2269997,9.748352E-06
0.2279997,1.017445E-05
0.2289997,1.043195E-05
0.2299997,1.066186E-05
0.2309997,1.106038E-05
0.2319997,1.13424E-05
0.2329997,1.169187E-05
0.2339997,1.209038E-05
0.2349997,1.22927E-05
0.2359997,1.277398E-05
0.2369997,1.301002E-05
0.2379997,1.314797E-05
0.2389997,1.354342E-05
0.2399997,1.381318E-05
0.2409997,1.400937E-05
0.2419997,1.43619E-05
0.2429997,1.473589E-05
0.2439997,1.520491E-05
0.2449997,1.553292E-05
0.2459997,1.579655E-05
0.2469997,1.624411E-05
0.2479997,1.649854E-05
0.2489997,1.680816E-05
0.2499997,1.714842E-05
0.2509997,1.735688E-05
0.2519997,1.783816E-05
0.2529997,1.804968E-05
0.2539997,1.85003E-05
0.2549997,1.900611E-05
0.2559997,1.930652E-05
0.2569997,1.972956E-05
0.2579997,2.026401E-05
0.2589997,2.044794E-05
0.2599997,2.081579E-05
0.2609997,2.103038E-05
0.2619997,2.133693E-05
0.2629997,2.18274E-05
0.2639997,2.222592E-05
0.2649997,2.259377E-05
0.2659997,2.311491E-05
0.2669997,2.33908E-05
0.2679997,2.397324E-05
0.2689997,2.443306E-05
0.2699997,2.46783E-05
0.2709997,2.516878E-05
0.2719997,2.544467E-05
0.2729997,2.581253E-05
0.2739997,2.627235E-05
0.2749997,2.670152E-05
0.2759997,2.725331E-05
0.2769997,2.765182E-05
0.2779997,2.808099E-05
0.2789997,2.875539E-05
0.2799997,2.918456E-05
0.2809997,2.952177E-05
0.2819997,3.010421E-05
0.2829997,3.047206E-05
0.2839997,3.096254E-05
0.2849997,3.139171E-05
0.2859997,3.172891E-05
0.2869997,3.249528E-05
0.2879997,3.292445E-05
0.2889997,3.344558E-05
0.2899997,3.411999E-05
0.2909997,3.45185E-05
0.2919997,3.51316E-05
0.2929997,3.543814E-05
0.2939997,3.598993E-05
0.2949997,3.672565E-05
0.2959997,3.730809E-05
0.2969997,3.785988E-05
0.2979997,3.856494E-05
0.2989997,3.887149E-05
0.2999997,3.963786E-05
0.3009997,4.000571E-05
0.3019997,4.052684E-05
0.3029997,4.135453E-05
0.3039997,4.199828E-05
0.3049997,4.248875E-05
0.3059997,4.331644E-05
0.3069997,4.405215E-05
0.3079997,4.460394E-05
0.3089997,4.515572E-05
0.3099997,4.56462E-05
0.3109997,4.638192E-05
0.3119997,4.699502E-05
0.3129997,4.770008E-05
0.3139997,4.855841E-05
0.3149997,4.914085E-05
0.3159997,5.002984E-05
0.3169997,5.055097E-05
0.3179997,5.113342E-05
0.3189997,5.199175E-05
0.3199997,5.278878E-05
0.3209997,5.346318E-05
0.3219997,5.444414E-05
0.3229997,5.502658E-05
0.3239997,5.591557E-05
0.3249997,5.67126E-05
0.3259997,5.732569E-05
0.3269997,5.818402E-05
0.3279997,5.891974E-05
0.3289997,5.971677E-05
0.3299997,6.066707E-05
0.3309997,6.134147E-05
0.3319997,6.244505E-05
0.3329997,6.330338E-05
0.3339997,6.413106E-05
0.3349997,6.505071E-05
0.3359997,6.59397E-05
0.3369997,6.673672E-05
0.3379997,6.787095E-05
0.3389997,6.872928E-05
0.3399997,6.977155E-05
0.3409997,7.062989E-05
0.3419997,7.151887E-05
0.3429997,7.283704E-05
0.3439997,7.360341E-05
0.3449997,7.467632E-05
0.3459997,7.581055E-05
0.3469997,7.666889E-05
0.3479997,7.795639E-05
0.3489997,7.915193E-05
0.3499997,7.988764E-05
0.3509997,8.129777E-05
0.3519997,8.246265E-05
0.3529997,8.344361E-05
0.3539997,8.479242E-05
0.3549997,8.583468E-05
0.3559997,8.727545E-05
0.3569997,8.844034E-05
0.3579997,8.951325E-05
0.3589997,9.1046E-05
0.3599997,9.205761E-05
0.3609997,9.325315E-05
0.3619997,9.478589E-05
0.3629997,9.561357E-05
0.3639997,9.733024E-05
0.3649997,9.864839E-05
0.3659997,9.975197E-05
0.3669997,0.0001013767
0.3679997,0.0001025416
0.3689997,0.0001036758
0.3699997,0.0001055151
0.3709997,0.0001068332
0.3719997,0.0001083047
0.3729997,0.0001097454
0.3739997,0.0001111556
0.3749997,0.0001128722
0.3759997,0.0001141597
0.3769997,0.0001156005
0.3779997,0.0001174398
0.3789997,0.0001186966
0.3799997,0.0001205359
0.3809997,0.0001220687
0.3819997,0.0001235095
0.3829997,0.000125502
0.3839997,0.0001267589
0.3849997,0.0001286595
0.3859997,0.0001306827
0.3869997,0.0001320315
0.3879997,0.0001342693
0.3889997,0.000135894
0.3899997,0.0001374574
0.3909997,0.0001397872
0.3919997,0.0001415345
0.3929997,0.0001431285
0.3939997,0.0001455503
0.3949997,0.0001470217
0.3959997,0.0001493515
0.3969997,0.0001514667
0.3979997,0.000153214
0.3989997,0.0001552066
0.3999997,0.0001572298
0.4009997,0.000159253
0.4019997,0.0001614601
0.4029997,0.0001634833
0.4039997,0.0001658438
0.4049997,0.0001679283
0.4059997,0.0001699822
0.4069997,0.0001726798
0.4079997,0.0001744271
0.4089997,0.0001776765
0.4099997,0.0001800983
0.4109997,0.0001816617
0.4119997,0.0001845739
0.4129997,0.0001870262
0.4139997,0.0001890495
0.4149997,0.0001920843
0.4159997,0.0001942608
0.4169997,0.0001964986
0.4179997,0.0001995947
0.4189997,0.0002015873
0.4199997,0.0002045915
0.4209997,0.0002071665
0.4219997,0.0002098028
0.4229997,0.0002130522
0.4239997,0.0002152594
0.4249997,0.0002180183
0.4259997,0.000221329
0.4269997,0.0002234442
0.4279997,0.0002273374
0.4289997,0.0002300656
0.4299997,0.00023261
0.4309997,0.0002361659
0.4319997,0.000238741
0.4329997,0.0002416225
0.4339997,0.0002451785
0.4349997,0.0002476615
0.4359997,0.0002514321
0.4369997,0.0002544669
0.4379997,0.0002574097
0.4389997,0.0002609044
0.4399997,0.0002638166
0.4409997,0.0002674952
0.4419997,0.0002711431
0.4429997,0.0002741473
0.4439997,0.0002785309
0.4449997,0.0002814432
0.4459997,0.0002887801
0.4469997,0.0002921522
0.4479997,0.0002955242
0.4489997,0.0002988963
0.4499997,0.0003028814
0.4509997,0.0003059468
0.4519997,0.0003108516
0.4529997,0.0003139171
0.4539997,0.0003175957
0.4549997,0.000322807
0.4559997,0.0003258725
0.4569997,0.0003301642
0.4579997,0.0003350689
0.4589997,0.000338441
0.4599997,0.0003436523
0.4609997,0.0003485571
0.4619997,0.0003522356
0.4629997,0.0003571404
0.4639997,0.0003617386
0.4649997,0.00036695
0.4659997,0.0003721613
0.4669997,0.0003770661
0.4679997,0.0003828905
0.4689997,0.0003877952
0.4699997,0.0003933131
0.4709997,0.0004000572
0.4719997,0.0004052685
0.4729997,0.0004120126
0.4739997,0.0004190632
0.4749997,0.0004248876
0.4759997,0.0004331644
0.4769997,0.0004399084
0.4779997,0.0004469591
0.4789997,0.0004564621
0.4799997,0.0004647389
0.4809997,0.0004736288
0.4819997,0.0004837449
0.4829997,0.0004932479
0.4839997,0.0005052032
0.4849997,0.0005156259
0.4859997,0.0005275813
0.4869997,0.0005416825
0.4879997,0.0005545575
0.4889997,0.0005701915
0.4899997,0.0005864385
0.4909997,0.0006026856
0.4919997,0.0006232243
0.4929997,0.0006419237
0.4939997,0.0006624625
0.4949997,0.0006869864
0.4959997,0.000710284
0.4969997,0.0007372603
0.4979997,0.0007669955
0.4989997,0.0007973437
0.4999997,0.0008313706
0.5009997,0.0008672367
0.5019997,0.0009055553
0.5029997,0.000948472
0.5039997,0.0009920018
0.5049997,0.001041663
0.5059997,0.001094082
0.5069997,0.001148648
0.5079997,0.001210877
0.5089997,0.00127372
0.5099997,0.00134208
0.5109997,0.001416878
0.5119997,0.00149658
0.5129997,0.001580268
0.5139997,0.00166978
0.5149997,0.001762358
0.5159997,0.001865664
0.5169997,0.001970197
0.5179997,0.002082088
0.5189997,0.002202868
0.5199997,0.002325793
0.5209997,0.002456996
0.5219997,0.002596169
0.5229997,0.002739634
0.5239997,0.002891069
0.5249997,0.003048941
0.5259997,0.003240332
0.5269997,0.003408933
0.5279997,0.003583666
0.5289997,0.003767595
0.5299997,0.003957655
0.5309997,0.004153845
0.5319997,0.004356168
0.5329997,0.00456462
0.5339997,0.004779204
0.5349997,0.004999919
0.5359997,0.005223699
0.5369997,0.005456676
0.5379997,0.005692718
0.5389997,0.005934891
0.5399997,0.00618626
0.5409997,0.006440695
0.5419997,0.00669513
0.5429997,0.006961828
0.5439997,0.007228524
0.5449997,0.007504418
0.5459997,0.007780312
0.5469997,0.008062336
0.5479997,0.008350492
0.5489997,0.008635581
0.5499997,0.008932933
0.5509997,0.009230284
0.5519997,0.009533768
0.5529997,0.00983725
0.5539997,0.01014993
0.5549997,0.01046261
0.5559997,0.01077529
0.5569997,0.01109716
0.5579997,0.01141904
0.5589997,0.01174398
0.5599997,0.01207505
0.5609997,0.01240612
0.5619997,0.01274026
0.5629997,0.01307746
0.5639997,0.0134208
0.5649997,0.01376107
0.5659997,0.01410747
0.5669997,0.01445693
0.5679997,0.01480027
0.5689997,0.01515893
0.5699997,0.01551146
0.5709997,0.01587012
0.5719997,0.01623185
0.5729997,0.01659051
0.5739997,0.0169553
0.5749997,0.01732009
0.5759997,0.01768488
0.5769997,0.01805887
0.5779997,0.01842673
0.5789997,0.01879765
0.5799997,0.01917778
0.5809997,0.0195487
0.5819997,0.01992575
0.5829997,0.020312
0.5839997,0.02068599
0.5849997,0.02106918
0.5859997,0.02145543
0.5869997,0.02184168
0.5879997,0.02222487
0.5889997,0.02261418
0.5899997,0.0230035
0.5909997,0.02338975
0.5919997,0.0237852
0.5929997,0.02417758
0.5939997,0.02456996
0.5949997,0.02496847
0.5959997,0.02536698
0.5969997,0.02575937
0.5979997,0.02616095
0.5989997,0.02656252
0.5999997,0.02695491
0.6009997,0.02736261
0.6019997,0.02776419
0.6029997,0.02816577
0.6039997,0.02857961
0.6049997,0.02898425
0.6059997,0.02938583
0.6069997,0.02979354
0.6079997,0.03020432
0.6089997,0.03136105
0.6099997,0.03175957
0.6109997,0.03215808
0.6119997,0.03258725
0.6129997,0.03298576
0.6139997,0.03344558
0.6149997,0.03384409
0.6159997,0.03427326
0.6169997,0.03470243
0.6179997,0.03510094
0.6189997,0.03553011
0.6199997,0.03595928
0.6209997,0.03638845
0.6219997,0.03681761
0.6229997,0.03724678
0.6239997,0.03767595
0.6249997,0.03810512
0.6259997,0.03853428
0.6269997,0.03896345
0.6279997,0.03939262
0.6289997,0.03982178
0.6299997,0.04025095
0.6309997,0.04071078
0.6319997,0.04110929
0.6329997,0.04153846
0.6339997,0.04199828
0.6349997,0.04242745
0.6359997,0.04285662
0.6369997,0.04328578
0.6379997,0.0437456
0.6389997,0.04417477
0.6399997,0.04460394
0.6409997,0.04503311
0.6419997,0.04549293
0.6429997,0.0459221
0.6439997,0.04638192
0.6449997,0.04681109
0.6459997,0.04724025
0.6469997,0.04770008
0.6479997,0.0481599
0.6489997,0.04858907
0.6499997,0.04901823
0.6509997,0.04947806
0.6519997,0.04990723
0.6529997,0.05033639
0.6539997,0.05079622
0.6549997,0.05122538
0.6559997,0.0516852
0.6569997,0.05211437
0.6579997,0.05254354
0.6589997,0.05303402
0.6599997,0.05346319
0.6609997,0.05389235
0.6619997,0.05435218
0.6629997,0.054812
0.6639997,0.05524116
0.6649997,0.05570099
0.6659997,0.05616081
0.6669997,0.05658998
0.6679997,0.0570498
0.6689997,0.05750962
0.6699997,0.05793879
0.6709997,0.05839861
0.6719997,0.05885844
0.6729997,0.0592876
0.6739997,0.05974742
0.6749997,0.06020725
0.6759997,0.06063641
0.6769997,0.06112689
0.6779997,0.06155606
0.6789997,0.06201588
0.6799997,0.06247571
0.6809997,0.06293552
0.6819997,0.06339534
0.6829997,0.06385517
0.6839997,0.06428434
0.6849997,0.06474417
0.6859997,0.06523464
0.6869997,0.06566381
0.6879997,0.06609298
0.6889997,0.06658345
0.6899997,0.06701262
0.6909997,0.06750309
0.6919997,0.06796291
0.6929997,0.06839209
0.6939997,0.06888256
0.6949997,0.06931173
0.6959997,0.06977155
0.6969997,0.07026203
0.6979997,0.0706912
0.6989997,0.07115102
0.6999997,0.07130429
0.6990004,0.07084447
0.6980004,0.07038464
0.6970004,0.06992482
0.6960004,0.069465
0.6950004,0.06900518
0.6940004,0.06857602
0.6930004,0.06811619
0.6920004,0.06765637
0.6910004,0.06722721
0.6900004,0.06673672
0.6890004,0.0662769
0.6880004,0.06584774
0.6870004,0.06538791
0.6860004,0.06495874
0.6850004,0.06449892
0.6840004,0.0640391
0.6830004,0.06360994
0.6820004,0.06315011
0.6810004,0.06269029
0.6800004,0.06226112
0.6790004,0.0618013
0.6780004,0.06134148
0.6770004,0.06091231
0.6760004,0.06045249
0.6750004,0.05999266
0.6740004,0.0595635
0.6730004,0.05913433
0.6720004,0.0586745
0.6710004,0.05824534
0.6700004,0.05778552
0.6690004,0.05735635
0.6680004,0.05692718
0.6670004,0.05646735
0.6660004,0.05600753
0.6650004,0.05557837
0.6640004,0.0551492
0.6630004,0.05468938
0.6620004,0.05426021
0.6610004,0.05383104
0.6600004,0.05337122
0.6590004,0.05294205
0.6580004,0.05248223
0.6570004,0.05205306
0.6560004,0.05162389
0.6550004,0.05119473
0.6540004,0.05076556
0.6530004,0.05030574
0.6520004,0.04987657
0.6510004,0.0494474
0.6500004,0.04901823
0.6490004,0.04855841
0.6480004,0.0481599
0.6470004,0.04773073
0.6460004,0.04727091
0.6450004,0.04684174
0.6440004,0.04641258
0.6430004,0.04598341
0.6420004,0.04555424
0.6410004,0.04512507
0.6400004,0.04466525
0.6390004,0.04426674
0.6380004,0.04383757
0.6370004,0.0434084
0.6360004,0.04297924
0.6350004,0.04255007
0.6340004,0.0421209
0.6330004,0.04169173
0.6320004,0.04129322
0.6310004,0.04083339
0.6300004,0.04043488
0.6290004,0.04000572
0.6280004,0.03957655
0.6270004,0.03917804
0.6260004,0.03874887
0.6250004,0.0383197
0.6240004,0.03789053
0.6230004,0.03749202
0.6220004,0.03706285
0.6210004,0.03663369
0.6200004,0.03620452
0.6190004,0.035806
0.6180004,0.03540749
0.6170004,0.03497833
0.6160004,0.03457981
0.6150004,0.0341813
0.6140004,0.03375213
0.6130004,0.03332296
0.6120004,0.03292445
0.6110004,0.03252594
0.6100004,0.03212743
0.6090004,0.03169826
0.6080004,0.03129975
0.6070004,0.03090123
0.6060004,0.03050272
0.6050004,0.03007355
0.6040004,0.02967504
0.6030004,0.02927653
0.6020004,0.02887801
0.6010004,0.0284795
0.6000004,0.02808099
0.5990004,0.02768247
0.5980004,0.02728396
0.5970004,0.02691611
0.5960004,0.02651759
0.5950004,0.02611908
0.5940004,0.02572057
0.5930004,0.02532205
0.5920004,0.0249542
0.5910004,0.02455568
0.5900004,0.02418783
0.5890004,0.02378931
0.5880004,0.02342146
0.5870004,0.02302294
0.5860004,0.02265508
0.5850004,0.02225657
0.5840004,0.02188871
0.5830004,0.0214902
0.5820004,0.02112234
0.5810004,0.02075448
0.5800004,0.02038663
0.5790004,0.02001877
0.5780004,0.01965091
0.5770004,0.01928305
0.5760004,0.0189152
0.5750004,0.01857799
0.5740004,0.01821013
0.5730004,0.01787293
0.5720004,0.01750507
0.5710004,0.01716787
0.5700004,0.01680001
0.5690004,0.01646281
0.5680004,0.01609495
0.5670004,0.01575775
0.5660004,0.01542055
0.5650004,0.01508334
0.5640004,0.01471548
0.5630004,0.01437828
0.5620004,0.01404108
0.5610004,0.01370388
0.5600004,0.01339733
0.5590004,0.01306012
0.5580004,0.01226511
0.5570004,0.0119463
0.5560004,0.01162749
0.5550004,0.01132094
0.5540004,0.01101133
0.5530004,0.01070172
0.5520004,0.01040436
0.5510004,0.01009782
0.5500004,0.00980353
0.5490004,0.009509244
0.5480004,0.009214957
0.5470004,0.008932933
0.5460004,0.008647843
0.5450004,0.008365818
0.5440004,0.008089925
0.5430004,0.007817097
0.5420004,0.007547335
0.5410004,0.007283703
0.5400004,0.007023137
0.5390004,0.006765637
0.5380004,0.006514267
0.5370004,0.006265963
0.5360004,0.006020725
0.5350004,0.005781617
0.5340004,0.00554864
0.5330004,0.005315664
0.5320004,0.005088818
0.5310004,0.004871169
0.5300004,0.004653519
0.5290004,0.004442001
0.5280004,0.004239679
0.5270004,0.004034291
0.5260004,0.003841166
0.5250004,0.003648041
0.5240004,0.003461046
0.5230004,0.003283249
0.5220004,0.003108516
0.5210004,0.002936849
0.5200004,0.002777444
0.5190004,0.002618039
0.5180004,0.002464765
0.5170004,0.002317622
0.5160004,0.002173544
0.5150004,0.002038663
0.5140004,0.001906847
0.5130004,0.001784228
0.5120004,0.001661608
0.5110004,0.00154512
0.5100004,0.001434763
0.5090004,0.001333602
0.5080004,0.001232441
0.5070004,0.00110941
0.5060004,0.001020204
0.5050004,0.0009343708
0.5040004,0.0008555879
0.5030004,0.0007777247
0.5020004,0.0007062989
0.5010004,0.0006391648
0.5000004,0.0005741765
0.4990004,0.0005140931
0.4980004,0.0004579948
0.4970004,0.0004046554
0.4960004,0.0003565273
0.4950004,0.0003093189
0.4940004,0.0002667087
0.4930004,0.0002265508
0.4920004,0.0001876192
0.4910004,0.0001542055
0.4900004,0.0001217113
0.4890004,9.105651E-05
0.4880004,5.965546E-05
0.4870004,3.362951E-05
0.4860004,1.073036E-05
0.4850004,-1.06054E-05
0.4840004,-3.255426E-05
0.4830004,-4.987423E-05
0.4820004,-6.740879E-05
0.4810004,-8.411567E-05
0.4800004,-9.76038E-05
0.4790004,-0.0001122262
0.4780004,-0.0001241815
0.4770004,-0.0001345429
0.4760004,-0.0001461917
0.4750004,-0.0001548057
0.4740004,-0.0001637569
0.4730004,-0.0001720337
0.4720004,-0.0001777049
0.4710004,-0.0001853073
0.4700004,-0.0001907332
0.4690004,-0.0001959138
0.4680004,-0.0002017076
0.4670004,-0.0002055394
0.4660004,-0.000209218
0.4650004,-0.0002132031
0.4640004,-0.0002150424
0.4630004,-0.0002193648
0.4620004,-0.0002215106
0.4610004,-0.0002235645
0.4600004,-0.0002260782
0.4590004,-0.0002265073
0.4580004,-0.0002276415
0.4570004,-0.0002300633
0.4560004,-0.0002295115
0.4550004,-0.000231596
0.4540004,-0.0002324237
0.4530004,-0.0002319332
0.4520004,-0.0002338032
0.4510004,-0.0002335886
0.4500004,-0.0002335273
0.4490004,-0.0002340484
0.4480004,-0.0002337725
0.4470004,-0.0002338645
0.4460004,-0.0002335886
0.4450004,-0.0002329142
0.4440004,-0.0002333127
0.4430004,-0.0002319639
0.4420004,-0.00023178
0.4410004,-0.0002318413
0.4400004,-0.0002302166
0.4390004,-0.0002307683
0.4380004,-0.0002300633
0.4370004,-0.0002285612
0.4360004,-0.0002291436
0.4350004,-0.0002275496
0.4340004,-0.0002267219
0.4330004,-0.0002267219
0.4320004,-0.000224852
0.4310004,-0.0002244841
0.4300004,-0.0002238097
0.4290004,-0.0002225835
0.4280004,-0.0002221237
0.4270004,-0.0002208362
0.4260004,-0.0002196407
0.4250004,-0.0002194261
0.4240004,-0.0002177094
0.4230004,-0.0002176174
0.4220004,-0.0002166978
0.4210004,-0.0002151037
0.4200004,-0.0002149811
0.4190004,-0.0002136936
0.4180004,-0.0002124674
0.4170004,-0.0002119769
0.4160004,-0.0002104442
0.4150004,-0.0002099844
0.4140004,-0.0002088501
0.4130004,-0.0002072561
0.4120004,-0.0002071641
0.4110004,-0.0002058766
0.4100004,-0.0002054781
0.4090004,-0.0002045585
0.4080004,-0.000202382
0.4070004,-0.0002016769
0.4060004,-0.0002008186
0.4050004,-0.0001993778
0.4040004,-0.0001988873
0.4030004,-0.0001977838
0.4020004,-0.0001964656
0.4010004,-0.0001957299
0.4000004,-0.0001943198
0.3990004,-0.00019386
0.3980004,-0.0001926031
0.3970004,-0.0001914995
0.3960004,-0.0001909784
0.3950004,-0.0001895683
0.3940004,-0.0001882195
0.3930004,-0.0001878823
0.3920004,-0.000186043
0.3910004,-0.0001856751
0.3900004,-0.0001847861
0.3890004,-0.000183284
0.3880004,-0.0001828549
0.3870004,-0.000181782
0.3860004,-0.0001802799
0.3850004,-0.000179912
0.3840004,-0.0001784099
0.3830004,-0.0001778275
0.3820004,-0.0001767852
0.3810004,-0.0001756203
0.3800004,-0.0001751299
0.3790004,-0.0001739343
0.3780004,-0.0001730453
0.3770004,-0.000172095
0.3760004,-0.0001705623
0.3750004,-0.0001701944
0.3740004,-0.0001692748
0.3730004,-0.0001679873
0.3720004,-0.0001676501
0.3710004,-0.0001667304
0.3700004,-0.0001656269
0.3690004,-0.0001651977
0.3680004,-0.0001637876
0.3670004,-0.0001632971
0.3660004,-0.0001624694
0.3650004,-0.0001614578
0.3640004,-0.0001610286
0.3630004,-0.0001601396
0.3620004,-0.0001590361
0.3610004,-0.000158423
0.3600004,-0.0001571661
0.3590004,-0.0001567063
0.3580004,-0.0001559706
0.3570004,-0.0001548057
0.3560004,-0.0001544072
0.3550004,-0.0001534569
0.3540004,-0.0001526292
0.3530004,-0.0001520774
0.3520004,-0.0001510352
0.3510004,-0.0001505753
0.3500004,-0.0001498703
0.3490004,-0.0001488587
0.3480004,-0.0001487361
0.3470004,-0.0001478164
0.3460004,-0.0001470194
0.3450004,-0.0001468048
0.3440004,-0.0001455786
0.3430004,-0.0001449348
0.3420004,-0.0001442911
0.3410004,-0.0001434328
0.3400004,-0.0001431262
0.3390004,-0.0001423905
0.3380004,-0.0001416855
0.3370004,-0.0001412869
0.3360004,-0.0001404899
0.3350004,-0.000140122
0.3340004,-0.0001395396
0.3330004,-0.0001387426
0.3320004,-0.0001385893
0.3310004,-0.0001377003
0.3300004,-0.0001367807
0.3290004,-0.0001364741
0.3280004,-0.0001356771
0.3270004,-0.0001354932
0.3260004,-0.0001349414
0.3250004,-0.000134175
0.3240004,-0.0001339604
0.3230004,-0.0001334086
0.3220004,-0.0001328569
0.3210004,-0.0001325503
0.3200004,-0.0001318759
0.3190004,-0.0001312628
0.3180004,-0.0001309256
0.3170004,-0.0001303738
0.3160004,-0.0001300979
0.3150004,-0.00012973
0.3140004,-0.0001292702
0.3130004,-0.000129025
0.3120004,-0.0001281667
0.3110004,-0.0001280134
0.3100004,-0.0001276149
0.3090004,-0.0001270018
0.3080004,-0.0001267872
0.3070004,-0.0001264193
0.3060004,-0.0001258982
0.3050004,-0.0001258369
0.3040004,-0.0001251625
0.3030004,-0.0001250092
0.3020004,-0.0001247946
0.3010004,-0.0001242429
0.3000004,-0.0001240896
0.2990004,-0.0001238443
0.2980004,-0.0001233539
0.2970004,-0.0001231086
0.2960004,-0.0001224649
0.2950004,-0.0001224036
0.2940004,-0.000122189
0.2930004,-0.0001218211
0.2920004,-0.0001216065
0.2910004,-0.0001213613
0.2900004,-0.0001210854
0.2890004,-0.0001210547
0.2880004,-0.0001205336
0.2870004,-0.0001204723
0.2860004,-0.0001202271
0.2850004,-0.0001200738
0.2840004,-0.0001199818
0.2830004,-0.0001195833
0.2820004,-0.0001193381
0.2810004,-0.0001192461
0.2800004,-0.0001188169
0.2790004,-0.000118725
0.2780004,-0.000118633
0.2770004,-0.0001182651
0.2760004,-0.0001181732
0.2750004,-0.0001180506
0.2740004,-0.0001177134
0.2730004,-0.0001176827
0.2720004,-0.0001173762
0.2710004,-0.0001171309
0.2700004,-0.0001171616
0.2690004,-0.0001170083
0.2680004,-0.0001169777
0.2670004,-0.0001167631
0.2660004,-0.0001166098
0.2650004,-0.0001165485
0.2640004,-0.00011615
0.2630004,-0.0001162726
0.2620004,-0.0001161806
0.2610004,-0.000116058
0.2600004,-0.0001160887
0.2590004,-0.0001159354
0.2580004,-0.0001157821
0.2570004,-0.0001157208
0.2560004,-0.0001155675
0.2550004,-0.000115353
0.2540004,-0.0001153836
0.2530004,-0.0001150771
0.2520004,-0.0001151077
0.2510004,-0.0001150771
0.2500004,-0.0001148318
0.2490004,-0.0001149544
0.2480004,-0.0001148012
0.2470004,-0.0001148931
0.2460004,-0.0001149544
0.2450004,-0.0001147705
0.2440004,-0.0001147398
0.2430004,-0.0001147092
0.2420004,-0.0001145559
0.2410004,-0.0001146172
0.2400004,-0.0001144333
0.2390004,-0.000114464
0.2380004,-0.0001144946
0.2370004,-0.0001143107
0.2360004,-0.0001144026
0.2350004,-0.000114464
0.2340004,-0.0001144333
0.2330004,-0.0001145253
0.2320004,-0.0001144333
0.2310004,-0.0001144333
0.2300004,-0.000114464
0.2290004,-0.0001144333
0.2280004,-0.0001144026
0.2270004,-0.0001145253
0.2260004,-0.0001144333
0.2250004,-0.0001143413
0.2240004,-0.000114372
0.2230004,-0.000114464
0.2220004,-0.0001145559
0.2210004,-0.000114464
0.2200004,-0.000114372
0.2190004,-0.0001144946
0.2180004,-0.0001144946
0.2170004,-0.0001144946
0.2160004,-0.0001143413
0.2150004,-0.0001144333
0.2140004,-0.000114464
0.2130004,-0.000114372
0.2120004,-0.0001144333
0.2110004,-0.0001144026
0.2100004,-0.0001144026
0.2090004,-0.0001144946
0.2080004,-0.0001144946
0.2070004,-0.000114464
0.2060004,-0.0001146172
0.2050004,-0.0001146172
0.2040004,-0.0001146479
0.2030004,-0.0001146479
0.2020004,-0.0001146785
0.2010004,-0.0001148012
0.2000004,-0.0001146785
0.1990004,-0.0001148318
0.1980004,-0.0001148012
0.1970004,-0.0001148012
0.1960004,-0.0001148931
0.1950004,-0.0001149544
0.1940004,-0.0001148931
0.1930004,-0.0001150157
0.1920004,-0.0001149238
0.1910004,-0.0001149544
0.1900004,-0.0001150157
0.1890004,-0.0001149544
0.1880004,-0.0001150157
0.1870004,-0.0001150157
0.1860004,-0.0001148931
0.1850004,-0.0001149238
0.1840004,-0.0001149238
0.1830004,-0.0001150464
0.1820004,-0.0001151077
0.1810004,-0.0001151077
0.1800004,-0.000115169
0.1790004,-0.0001151384
0.1780004,-0.000115169
0.1770004,-0.0001152303
0.1760004,-0.0001151077
0.1750004,-0.000115169
0.1740004,-0.000115169
0.1730004,-0.0001150464
0.1720004,-0.0001150464
0.1710004,-0.0001151384
0.1700004,-0.000115169
0.1690004,-0.0001152303
0.1680004,-0.0001151384
0.1670004,-0.0001151997
0.1660004,-0.0001152916
0.1650004,-0.0001151997
0.1640004,-0.0001152303
0.1630004,-0.0001152303
0.1620004,-0.0001151997
0.1610004,-0.0001150771
0.1600004,-0.0001151077
0.1590004,-0.0001151077
0.1580004,-0.0001149851
0.1570004,-0.0001148625
0.1560004,-0.0001149851
0.1550004,-0.0001147705
0.1540004,-0.0001149238
0.1530004,-0.0001148931
0.1520004,-0.0001147092
0.1510004,-0.0001148012
0.1500004,-0.0001148012
0.1490004,-0.0001146479
0.1480004,-0.0001146785
0.1470004,-0.0001146479
0.1460004,-0.0001144946
0.1450004,-0.0001145559
0.1440004,-0.0001144026
0.1430004,-0.0001142494
0.1420004,-0.0001141881
0.1410004,-0.0001140654
0.1400004,-0.0001138815
0.1390004,-0.0001138202
0.1380004,-0.0001137282
0.1370004,-0.0001136669
0.1360004,-0.0001135443
0.1350004,-0.0001135443
0.1340004,-0.0001134523
0.1330004,-0.0001132378
0.1320004,-0.0001132071
0.1310004,-0.0001129312
0.1300004,-0.0001128086
0.1290004,-0.0001127473
0.1280004,-0.0001124714
0.1270004,-0.000112502
0.1260004,-0.0001124101
0.1250004,-0.0001121955
0.1240004,-0.0001121648
0.1230004,-0.0001120422
0.1220004,-0.0001117663
0.1210004,-0.000111705
0.1200004,-0.0001115211
0.1190004,-0.0001112758
0.1180004,-0.0001112145
0.1170004,-0.000110816
0.1160004,-0.0001107547
0.1150004,-0.0001104788
0.1140004,-0.0001102949
0.1130004,-0.000110111
0.1120004,-0.0001098964
0.1110004,-0.0001097431
0.1100004,-0.0001096511
0.1090004,-0.0001094366
0.1080004,-0.000109222
0.1070004,-0.0001091913
0.1060004,-0.0001089154
0.1050004,-0.0001087315
0.1040004,-0.0001085169
0.1030004,-0.0001084556
0.1020004,-0.0001082104
0.1010004,-0.0001079345
0.1000004,-0.0001079345
0.09900038,-0.0001076586
0.09800038,-0.000107444
0.09700038,-0.000107352
0.09600038,-0.0001069535
0.09500038,-0.0001069229
0.09400038,-0.0001067389
0.09300038,-0.0001064324
0.09200038,-0.0001064324
0.09100038,-0.0001063098
0.09000038,-0.0001060032
0.08900038,-0.0001058806
0.08800038,-0.0001056354
0.08700038,-0.0001055741
0.08600038,-0.0001053901
0.08500038,-0.0001051449
0.08400038,-0.0001050836
0.08300038,-0.000104869
0.08200038,-0.0001046851
0.08100038,-0.0001045624
0.08000038,-0.0001043785
0.07900038,-0.0001041333
0.07800038,-0.000104072
0.07700038,-0.0001039494
0.07600038,-0.0001037348
0.07500038,-0.0001036121
0.07400038,-0.0001034895
0.07300038,-0.0001033056
0.07200038,-0.0001030297
0.07100038,-0.0001030297
0.07000038,-0.0001028458
0.06900038,-0.0001027232
0.06800038,-0.0001025699
0.06700038,-0.0001024166
0.06600038,-0.0001022327
0.06500039,-0.0001021407
0.06400038,-0.0001019261
0.06300038,-0.0001017729
0.06200038,-0.0001016502
0.06100038,-0.000101405
0.06000038,-0.0001013437
0.05900038,-0.0001011904
0.05800038,-0.0001009145
0.05700038,-0.0001008226
0.05600038,-0.0001006386
0.05500038,-0.000100608
0.05400038,-0.000100516
0.05300038,-0.0001002095
0.05200038,-0.0001002401
0.05100038,-0.0001001788
0.05000038,-9.990291E-05
0.04900038,-9.987225E-05
0.04800038,-9.978029E-05
0.04700038,-9.965767E-05
0.04600038,-9.95044E-05
0.04500038,-9.938178E-05
0.04400038,-9.925916E-05
0.04300038,-9.916719E-05
0.04200038,-9.892196E-05
0.04100038,-9.889129E-05
0.04000038,-9.876868E-05
0.03900038,-9.864606E-05
0.03800038,-9.843148E-05
0.03700038,-9.833951E-05
0.03600038,-9.818624E-05
0.03500038,-9.797165E-05
0.03400038,-9.7941E-05
0.03300038,-9.784904E-05
0.03200038,-9.763445E-05
0.03100038,-9.76038E-05
0.03000038,-9.751183E-05
0.02900038,-9.726659E-05
0.02800038,-9.723594E-05
0.02700038,-9.705201E-05
0.02600038,-9.686808E-05
0.02500038,-9.680677E-05
0.02400038,-9.67148E-05
0.02300038,-9.650022E-05
0.02200038,-9.646956E-05
0.02100038,-9.63163E-05
0.02000038,-9.619367E-05
0.01900038,-9.613237E-05
0.01800038,-9.594844E-05
0.01700038,-9.582582E-05
0.01600038,-9.573385E-05
0.01500038,-9.551927E-05
0.01400038,-9.539664E-05
0.01300038,-9.530468E-05
0.01200038,-9.518206E-05
0.01100038,-9.502879E-05
0.01000038,-9.490617E-05
0.009000381,-9.472224E-05
0.008000381,-9.450765E-05
0.007000382,-9.4477E-05
0.006000381,-9.426242E-05
0.005000381,-9.404783E-05
0.004000382,-9.395587E-05
0.003000381,-9.377195E-05
0.002000381,-9.355736E-05
0.001000381,-9.346539E-05
3.814697E-07,-8.969485E-05
0.0009996186,-8.736509E-05
0.001999618,-8.580169E-05
0.002999618,-8.442222E-05
0.003999618,-8.319603E-05
0.004999619,-8.200049E-05
0.005999619,-8.095823E-05
0.006999618,-7.9824E-05
0.007999619,-7.878173E-05
0.008999619,-7.770881E-05
0.009999619,-7.685048E-05
0.01099962,-7.586952E-05
0.01199962,-7.485792E-05
0.01299962,-7.390762E-05
0.01399962,-7.307994E-05
0.01499962,-7.206832E-05
0.01599962,-7.124065E-05
0.01699962,-7.035166E-05
0.01799962,-6.940136E-05
0.01899962,-6.863499E-05
0.01999962,-6.771534E-05
0.02099962,-6.691832E-05
0.02199962,-6.612129E-05
0.02299962,-6.529361E-05
0.02399962,-6.443528E-05
0.02499962,-6.363825E-05
0.02599962,-6.281057E-05
0.02699962,-6.20442E-05
0.02799962,-6.127783E-05
0.02899962,-6.051145E-05
0.02999962,-5.98064E-05
0.03099962,-5.900937E-05
0.03199962,-5.827365E-05
0.03299962,-5.759925E-05
0.03399962,-5.686353E-05
0.03499962,-5.625044E-05
0.03599962,-5.557603E-05
0.03699962,-5.487097E-05
0.03799962,-5.416591E-05
0.03899962,-5.34915E-05
0.03999962,-5.290906E-05
0.04099962,-5.223465E-05
0.04199962,-5.152959E-05
0.04299962,-5.094715E-05
0.04399962,-5.033405E-05
0.04499962,-4.975162E-05
0.04599962,-4.913852E-05
0.04699962,-4.852542E-05
0.04799962,-4.797363E-05
0.04899962,-4.739119E-05
0.04999962,-4.67781E-05
0.05099962,-4.619566E-05
0.05199962,-4.561321E-05
0.05299962,-4.509208E-05
0.05399962,-4.450964E-05
0.05499962,-4.389654E-05
0.05599962,-4.340606E-05
0.05699962,-4.288493E-05
0.05799962,-4.230249E-05
0.05899962,-4.184267E-05
0.05999962,-4.129088E-05
0.06099962,-4.080041E-05
0.06199962,-4.030993E-05
0.06299962,-3.981945E-05
0.06399962,-3.932897E-05
0.06499962,-3.893046E-05
0.06599962,-3.843998E-05
0.06699962,-3.794951E-05
0.06799962,-3.745903E-05
0.06899962,-3.702986E-05
0.06999962,-3.663135E-05
0.07099961,-3.614087E-05
0.07199962,-3.574236E-05
0.07299962,-3.534384E-05
0.07399962,-3.488402E-05
0.07499962,-3.454682E-05
0.07599962,-3.405634E-05
0.07699962,-3.365783E-05
0.07799962,-3.335128E-05
0.07899962,-3.292211E-05
0.07999962,-3.255426E-05
0.08099962,-3.215575E-05
0.08199961,-3.166527E-05
0.08299962,-3.132806E-05
0.08399962,-3.083759E-05
0.08499962,-3.037777E-05
0.08599962,-3.007122E-05
0.08699962,-2.96727E-05
0.08799962,-2.93355E-05
0.08899962,-2.902895E-05
0.08999962,-2.863044E-05
0.09099962,-2.835455E-05
0.09199962,-2.8048E-05
0.09299962,-2.768014E-05
0.09399962,-2.728163E-05
0.09499962,-2.68218E-05
0.09599962,-2.645395E-05
0.09699962,-2.611674E-05
0.09799962,-2.584085E-05
0.09899962,-2.559561E-05
0.09999962,-2.525841E-05
0.1009996,-2.498252E-05
0.1019996,-2.4584E-05
0.1029996,-2.415484E-05
0.1039996,-2.378698E-05
0.1049996,-2.360305E-05
0.1059996,-2.323519E-05
0.1069996,-2.29593E-05
0.1079996,-2.271406E-05
0.1089996,-2.23462E-05
0.1099996,-2.203965E-05
0.1109996,-2.170245E-05
0.1119996,-2.127328E-05
0.1129996,-2.102804E-05
0.1139996,-2.072149E-05
0.1149996,-2.041495E-05
0.1159996,-2.013905E-05
0.1169996,-1.992447E-05
0.1179996,-1.961792E-05
0.1189996,-1.931137E-05
0.1199996,-1.912744E-05
0.1209996,-1.879024E-05
0.1219996,-1.845304E-05
0.1229996,-1.82078E-05
0.1239996,-1.771732E-05
0.1249996,-1.747208E-05
0.1259996,-1.72575E-05
0.1269996,-1.695095E-05
0.1279996,-1.667506E-05
0.1289996,-1.652178E-05
0.1299996,-1.621523E-05
0.1309996,-1.587803E-05
0.1319996,-1.547952E-05
0.1329996,-1.523428E-05
0.1339996,-1.498904E-05
0.1349996,-1.468249E-05
0.1359996,-1.452922E-05
0.1369996,-1.425333E-05
0.1379996,-1.385481E-05
0.1389996,-1.354827E-05
0.1399996,-1.330303E-05
0.1409996,-1.299648E-05
0.1419996,-1.275124E-05
0.1429996,-1.256731E-05
0.1439996,-1.233539E-05
0.1449996,-1.203803E-05
0.1459996,-1.168244E-05
0.1469996,-1.148012E-05
0.1479996,-1.121035E-05
0.1489996,-1.097738E-05
0.1499996,-1.08333E-05
0.1509996,-1.048077E-05
0.1519996,-1.017729E-05
0.1529996,-9.846213E-06
0.1539996,-9.469159E-06
0.1549996,-9.202462E-06
0.1559996,-8.87139E-06
0.1569996,-8.616955E-06
0.1579996,-8.445288E-06
0.1589996,-8.098888E-06
0.1599996,-7.878173E-06
0.1609996,-7.626804E-06
0.1619996,-7.35091E-06
0.1629996,-7.194571E-06
0.1639996,-6.802189E-06
0.1649996,-6.541622E-06
0.1659996,-6.219747E-06
0.1669996,-5.839627E-06
0.1679996,-5.511621E-06
0.1689996,-5.309299E-06
0.1699996,-4.910786E-06
0.1709996,-4.653285E-06
0.1719996,-4.395785E-06
0.1729996,-4.144416E-06
0.1739996,-3.91757E-06
0.1749996,-3.614087E-06
0.1759996,-3.390307E-06
0.1769996,-3.126675E-06
0.1779996,-2.645395E-06
0.1789996,-2.39096E-06
0.1799996,-1.974054E-06
0.1809996,-1.765601E-06
0.1819996,-1.511166E-06
0.1829996,-1.158636E-06
0.1839996,-9.287244E-07
0.1849996,-7.172061E-07
0.1859996,-3.217589E-07
0.1869996,-7.958582E-08
0.1879996,3.403853E-07
0.1889996,7.63422E-07
0.1899996,1.030119E-06
0.1909996,1.345864E-06
0.1919996,1.630954E-06
0.1929996,1.912978E-06
0.1939996,2.237919E-06
0.1949996,2.46783E-06
0.1959996,2.823426E-06
0.1969996,3.13304E-06
0.1979996,3.442654E-06
0.1989996,3.850363E-06
0.1999996,4.270334E-06
0.2009996,4.589144E-06
0.2019996,5.009115E-06
0.2029996,5.220634E-06
0.2039996,5.613015E-06
0.2049996,5.885844E-06
0.2059996,6.183195E-06
0.2069996,6.597035E-06
0.2079996,6.866798E-06
0.2089996,7.161083E-06
0.2099996,7.5504E-06
0.2109996,7.881473E-06
0.2119996,8.356622E-06
0.2129996,8.752069E-06
0.2139996,9.141386E-06
0.2149996,9.521505E-06
0.2159996,9.947607E-06
0.2169996,1.032466E-05
0.2179996,1.065573E-05
0.2189996,1.098987E-05
0.2199996,1.144969E-05
0.2209996,1.179609E-05
0.2219996,1.21241E-05
0.2229996,1.266056E-05
0.2239996,1.295485E-05
0.2249996,1.328285E-05
0.2259996,1.379785E-05
0.2269996,1.411666E-05
0.2279996,1.457342E-05
0.2289996,1.492595E-05
0.2299996,1.522637E-05
0.2309996,1.575976E-05
0.2319996,1.616441E-05
0.2329996,1.645869E-05
0.2339996,1.706566E-05
0.2349996,1.741206E-05
0.2359996,1.795158E-05
0.2369996,1.845432E-05
0.2379996,1.890801E-05
0.2389996,1.941382E-05
0.2399996,1.984298E-05
0.2409996,2.011275E-05
0.2419996,2.08771E-05
0.2429996,2.118365E-05
0.2439996,2.164347E-05
0.2449996,2.21033E-05
0.2459996,2.24405E-05
0.2469996,2.296163E-05
0.2479996,2.342145E-05
0.2489996,2.385062E-05
0.2499996,2.440241E-05
0.2509996,2.480092E-05
0.2519996,2.550598E-05
0.2529996,2.602712E-05
0.2539996,2.645628E-05
0.2549996,2.703872E-05
0.2559996,2.749855E-05
0.2569996,2.795837E-05
0.2579996,2.84795E-05
0.2589996,2.887801E-05
0.2599996,2.949111E-05
0.2609996,2.992028E-05
0.2619996,3.041075E-05
0.2629996,3.09932E-05
0.2639996,3.148367E-05
0.2649996,3.209677E-05
0.2659996,3.274052E-05
0.2669996,3.320034E-05
0.2679996,3.396671E-05
0.2689996,3.45185E-05
0.2699996,3.488636E-05
0.2709996,3.562207E-05
0.2719996,3.611255E-05
0.2729996,3.669499E-05
0.2739996,3.733874E-05
0.2749996,3.785988E-05
0.2759996,3.847297E-05
0.2769996,3.908607E-05
0.2779996,3.969917E-05
0.2789996,4.040423E-05
0.2799996,4.092536E-05
0.2809996,4.144649E-05
0.2819996,4.221286E-05
0.2829996,4.270334E-05
0.2839996,4.350036E-05
0.2849996,4.408281E-05
0.2859996,4.466525E-05
0.2869996,4.546228E-05
0.2879996,4.616733E-05
0.2889996,4.674977E-05
0.2899996,4.751615E-05
0.2909996,4.812924E-05
0.2919996,4.889561E-05
0.2929996,4.950871E-05
0.2939996,5.027508E-05
0.2949996,5.104145E-05
0.2959996,5.171586E-05
0.2969996,5.242092E-05
0.2979996,5.321795E-05
0.2989996,5.383104E-05
0.2999996,5.475069E-05
0.3009996,5.54864E-05
0.3019996,5.628342E-05
0.3029996,5.720307E-05
0.3039996,5.784682E-05
0.3049996,5.864385E-05
0.3059996,5.947153E-05
0.3069996,6.026855E-05
0.3079996,6.112688E-05
0.3089996,6.177064E-05
0.3099996,6.24757E-05
0.3109996,6.348731E-05
0.3119996,6.428434E-05
0.3129996,6.502005E-05
0.3139996,6.600101E-05
0.3149996,6.670607E-05
0.3159996,6.780964E-05
0.3169996,6.860667E-05
0.3179996,6.943435E-05
0.3189996,7.04153E-05
0.3199996,7.139625E-05
0.3209996,7.213197E-05
0.3219996,7.320489E-05
0.3229996,7.406323E-05
0.3239996,7.513614E-05
0.3249996,7.605579E-05
0.3259996,7.691413E-05
0.3269996,7.807901E-05
0.3279996,7.893734E-05
0.3289996,7.988764E-05
0.3299996,8.096056E-05
0.3309996,8.188021E-05
0.3319996,8.31677E-05
0.3329996,8.408735E-05
0.3339996,8.503765E-05
0.3349996,8.635581E-05
0.3359996,8.730611E-05
0.3369996,8.825641E-05
0.3379996,8.960522E-05
0.3389996,9.058617E-05
0.3399996,9.175106E-05
0.3409996,9.285464E-05
0.3419996,9.38969E-05
0.3429996,9.536833E-05
0.3439996,9.64719E-05
0.3449996,9.751417E-05
0.3459996,9.901625E-05
0.3469996,0.0001000279
0.3479996,0.0001014993
0.3489996,0.0001027255
0.3499996,0.0001037678
0.3509996,0.0001053311
0.3519996,0.0001065573
0.3529996,0.0001076916
0.3539996,0.0001091936
0.3549996,0.0001104198
0.3559996,0.0001119832
0.3569996,0.0001132707
0.3579996,0.0001145276
0.3589996,0.0001161523
0.3599996,0.0001174398
0.3609996,0.000118666
0.3619996,0.0001203214
0.3629996,0.0001213636
0.3639996,0.0001233255
0.3649996,0.0001246437
0.3659996,0.0001259312
0.3669996,0.0001278011
0.3679996,0.0001290886
0.3689996,0.0001305294
0.3699996,0.0001322767
0.3709996,0.0001337175
0.3719996,0.0001356794
0.3729996,0.0001371202
0.3739996,0.0001386529
0.3749996,0.0001406455
0.3759996,0.0001421169
0.3769996,0.000143711
0.3779996,0.0001457649
0.3789996,0.0001472669
0.3799996,0.0001493515
0.3809996,0.0001510681
0.3819996,0.0001526622
0.3829996,0.0001549
0.3839996,0.0001563714
0.3849996,0.0001583027
0.3859996,0.0001604792
0.3869996,0.0001621039
0.3879996,0.000164495
0.3889996,0.0001662729
0.3899996,0.0001680816
0.3909996,0.0001703194
0.3919996,0.00017222
0.3929996,0.0001742125
0.3939996,0.0001764197
0.3949996,0.000178075
0.3959996,0.0001808033
0.3969996,0.0001827959
0.3979996,0.0001846352
0.3989996,0.0001870569
0.3999996,0.0001890801
0.4009996,0.0001913179
0.4019996,0.0001936784
0.4029996,0.0001957016
0.4039996,0.0001984298
0.4049996,0.000200637
0.4059996,0.0002027828
0.4069996,0.0002056337
0.4079996,0.0002074424
0.4089996,0.0002107531
0.4099996,0.0002133894
0.4109996,0.00021529
0.4119996,0.0002182022
0.4129996,0.0002204707
0.4139996,0.0002225859
0.4149996,0.0002256514
0.4159996,0.000228349
0.4169996,0.0002305868
0.4179996,0.0002338362
0.4189996,0.0002360433
0.4199996,0.0002392621
0.4209996,0.0002418064
0.4219996,0.000244596
0.4229996,0.0002476921
0.4239996,0.0002501752
0.4249996,0.0002530568
0.4259996,0.0002561836
0.4269996,0.0002586053
0.4279996,0.0002624984
0.4289996,0.0002650428
0.4299996,0.0002678324
0.4309996,0.000271327
0.4319996,0.0002742699
0.4329996,0.0002773967
0.4339996,0.000280922
0.4349996,0.0002833437
0.4359996,0.0002912325
0.4369996,0.0002930718
0.4379996,0.0002961373
0.4389996,0.0003001224
0.4399996,0.0003031879
0.4409996,0.0003065599
0.4419996,0.0003102385
0.4429996,0.0003129975
0.4439996,0.0003172891
0.4449996,0.0003206612
0.4459996,0.0003237267
0.4469996,0.0003280183
0.4479996,0.0003316969
0.4489996,0.0003353755
0.4499996,0.0003390541
0.4509996,0.0003424261
0.4519996,0.0003473309
0.4529996,0.0003507029
0.4539996,0.0003549946
0.4549996,0.0003592863
0.4559996,0.0003626583
0.4569996,0.00036695
0.4579996,0.0003718548
0.4589996,0.0003749202
0.4599996,0.0003807446
0.4609996,0.0003850363
0.4619996,0.0003890214
0.4629996,0.0003945393
0.4639996,0.000398831
0.4649996,0.0004037358
0.4659996,0.0004089471
0.4669996,0.0004138518
0.4679996,0.0004199828
0.4689996,0.000424581
0.4699996,0.0004294858
0.4709996,0.000436843
0.4719996,0.0004414412
0.4729996,0.0004481853
0.4739996,0.0004552359
0.4749996,0.0004607537
0.4759996,0.0004690305
0.4769996,0.0004760812
0.4779996,0.0004828252
0.4789996,0.0004920216
0.4799996,0.0004999919
0.4809996,0.0005082687
0.4819996,0.0005186913
0.4829996,0.0005281944
0.4839996,0.0005395366
0.4849996,0.0005502658
0.4859996,0.0005616081
0.4869996,0.0005754028
0.4879996,0.0005885844
0.4889996,0.0006032987
0.4899996,0.0006192392
0.4909996,0.0006354863
0.4919996,0.0006551053
0.4929996,0.0006738048
0.4939996,0.0006943435
0.4949996,0.0007179478
0.4959996,0.0007412454
0.4969996,0.0007679151
0.4979996,0.0007964241
0.4989996,0.0008264658
0.4999996,0.0008614123
0.5009996,0.0008954392
0.5019996,0.0009328381
0.5029996,0.0009757549
0.5039996,0.001018365
0.5049996,0.001067106
0.5059996,0.001119219
0.5069996,0.001172252
0.5079996,0.001233562
0.5089996,0.001295791
0.5099996,0.001362925
0.5109996,0.001436497
0.5119996,0.001516199
0.5129996,0.001598048
0.5139996,0.001685107
0.5149996,0.001778605
0.5159996,0.001878846
0.5169996,0.001982153
0.5179996,0.002093737
0.5189996,0.002211757
0.5199996,0.002333457
0.5209996,0.002463434
0.5219996,0.002599848
0.5229996,0.002741166
0.5239996,0.002891682
0.5249996,0.003046795
0.5259996,0.003234201
0.5269996,0.003402802
0.5279996,0.003574469
0.5289996,0.003758398
0.5299996,0.003942328
0.5309996,0.004138518
0.5319996,0.00434084
0.5329996,0.004543162
0.5339996,0.004757746
0.5349996,0.004975395
0.5359996,0.005193044
0.5369996,0.005426021
0.5379996,0.005662063
0.5389996,0.005901171
0.5399996,0.006149475
0.5409996,0.006397779
0.5419996,0.006652214
0.5429996,0.006915845
0.5439996,0.007182543
0.5449996,0.007452305
0.5459996,0.007728198
0.5469996,0.008004092
0.5479996,0.008289182
0.5489996,0.008577337
0.5499996,0.008868557
0.5509996,0.00916591
0.5519996,0.009463261
0.5529996,0.009766744
0.5539996,0.01007636
0.5549996,0.01038597
0.5559996,0.01069865
0.5569996,0.01101746
0.5579996,0.01133627
0.5589996,0.01165815
0.5599996,0.01198309
0.5609996,0.01231416
0.5619996,0.01264523
0.5629996,0.01298243
0.5639996,0.0133227
0.5649996,0.01365991
0.5659996,0.01400631
0.5669996,0.01434964
0.5679996,0.01469297
0.5689996,0.01504857
0.5699996,0.0154011
0.5709996,0.01575363
0.5719996,0.01611229
0.5729996,0.01646789
0.5739996,0.01682962
0.5749996,0.01719747
0.5759996,0.01755613
0.5769996,0.01792399
0.5779996,0.01829798
0.5789996,0.01866277
0.5799996,0.01903676
0.5809996,0.01941075
0.5819996,0.01978474
0.5829996,0.02016179
0.5839996,0.02054192
0.5849996,0.02091897
0.5859996,0.02130216
0.5869996,0.02168534
0.5879996,0.02206853
0.5889996,0.02245478
0.5899996,0.02284409
0.5909996,0.02322728
0.5919996,0.02361966
0.5929996,0.02401204
0.5939996,0.02440136
0.5949996,0.0247968
0.5959996,0.02519532
0.5969996,0.0255877
0.5979996,0.02598621
0.5989996,0.02638472
0.5999996,0.02677711
0.6009996,0.02718482
0.6019996,0.02758639
0.6029996,0.02798491
0.6039996,0.02839568
0.6049996,0.0287942
0.6059996,0.02919884
0.6069996,0.02960961
0.6079996,0.03001119
0.6089996,0.03114647
0.6099996,0.03157564
0.6109996,0.03197415
0.6119996,0.03237266
0.6129996,0.03280183
0.6139996,0.033231
0.6149996,0.03362951
0.6159996,0.03405868
0.6169996,0.03445719
0.6179996,0.03488636
0.6189996,0.03531553
0.6199996,0.03574469
0.6209996,0.03617386
0.6219996,0.03660303
0.6229996,0.0370322
0.6239996,0.03743071
0.6249996,0.03785988
0.6259996,0.03828905
0.6269996,0.03871821
0.6279996,0.03917804
0.6289996,0.0396072
0.6299996,0.04000572
0.6309996,0.04046554
0.6319996,0.04089471
0.6329996,0.04132387
0.6339996,0.04175304
0.6349996,0.04218221
0.6359996,0.04261138
0.6369996,0.04304054
0.6379996,0.04350037
0.6389996,0.04392953
0.6399996,0.0443587
0.6409996,0.04481852
0.6419996,0.04524769
0.6429996,0.04567686
0.6439996,0.04613668
0.6449996,0.04653519
0.6459996,0.04699502
0.6469996,0.04742418
0.6479996,0.04785335
0.6489996,0.04831317
0.6499996,0.04874234
0.6509996,0.04920216
0.6519996,0.04963133
0.6529996,0.0500605
0.6539996,0.05052032
0.6549996,0.05094949
0.6559996,0.05137866
0.6569996,0.05183848
0.6579996,0.05226765
0.6589996,0.05269681
0.6599996,0.05315664
0.6609996,0.05361646
0.6619996,0.05404563
0.6629996,0.05450545
0.6639996,0.05496527
0.6649996,0.05539444
0.6659996,0.05585426
0.6669996,0.05631408
0.6679996,0.05677391
0.6689996,0.05720307
0.6699996,0.05766289
0.6709996,0.05812272
0.6719996,0.05858254
0.6729996,0.05901171
0.6739996,0.05947153
0.6749996,0.05993135
0.6759996,0.06039118
0.6769996,0.06082034
0.6779996,0.06128017
0.6789996,0.06170933
0.6799996,0.06216915
0.6809996,0.06265964
0.6819996,0.0630888
0.6829996,0.06354862
0.6839996,0.06400844
0.6849996,0.06446826
0.6859996,0.06492809
0.6869996,0.06538791
0.6879996,0.06581708
0.6889996,0.0662769
0.6899996,0.06673672
0.6909996,0.06719655
0.6919996,0.06765637
0.6929996,0.06811619
0.6939996,0.06857602
0.6949996,0.06903584
0.6959996,0.06949566
0.6969996,0.06995548
0.6979996,0.0704153
0.6989996,0.07087513
0.6999996,0.07099774
0.6990005,0.07056858
0.6980005,0.07010876
0.6970005,0.06961828
0.6960005,0.06918911
0.6950005,0.06872929
0.6940005,0.06826947
0.6930005,0.06780964
0.6920004,0.06738048
0.6910005,0.06692065
0.6900005,0.06646083
0.6890005,0.06600101
0.6880005,0.06557184
0.6870005,0.06511202
0.6860005,0.06468286
0.6850005,0.06422303
0.6840005,0.06376321
0.6830005,0.06333404
0.6820005,0.06287422
0.6810005,0.06244505
0.6800005,0.06198522
0.6790005,0.0615254
0.6780005,0.06109623
0.6770005,0.06063641
0.6760005,0.06017659
0.6750005,0.05974742
0.6740005,0.0592876
0.6730005,0.05885844
0.6720005,0.05842927
0.6710005,0.05796945
0.6700005,0.05750962
0.6690005,0.05708046
0.6680005,0.05662064
0.6670005,0.05619146
0.6660005,0.0557623
0.6650005,0.05530247
0.6640005,0.05487331
0.6630005,0.05441349
0.6620005,0.05398431
0.6610005,0.05352449
0.6600005,0.05309533
0.6590005,0.05266616
0.6580005,0.05220634
0.6570005,0.05177717
0.6560005,0.051348
0.6550004,0.05091884
0.6540005,0.05045901
0.6530005,0.05002984
0.6520005,0.04963133
0.6510005,0.04917151
0.6500005,0.04874234
0.6490005,0.04831317
0.6480005,0.04788401
0.6470005,0.04745484
0.6460005,0.04702567
0.6450005,0.0465965
0.6440005,0.04616734
0.6430005,0.04573817
0.6420005,0.04527835
0.6410004,0.04484918
0.6400005,0.04445067
0.6390005,0.04399084
0.6380005,0.04359233
0.6370005,0.04316316
0.6360005,0.04270334
0.6350005,0.04230483
0.6340005,0.04187566
0.6330005,0.04144649
0.6320005,0.04101732
0.6310005,0.04058816
0.6300005,0.04018965
0.6290005,0.03976048
0.6280005,0.03933131
0.6270005,0.03890214
0.6260005,0.03850363
0.6250005,0.03807446
0.6240005,0.0376453
0.6230005,0.03724678
0.6220005,0.03681761
0.6210005,0.03638845
0.6200005,0.03598994
0.6190005,0.03556077
0.6180004,0.03516225
0.6170005,0.03476374
0.6160005,0.03433457
0.6150005,0.03393606
0.6140005,0.03350689
0.6130005,0.03310838
0.6120005,0.03270987
0.6110005,0.03231135
0.6100005,0.03188219
0.6090005,0.03148368
0.6080005,0.03108516
0.6070005,0.03068665
0.6060005,0.03025748
0.6050005,0.02985897
0.6040004,0.02946045
0.6030005,0.02906194
0.6020005,0.02866343
0.6010005,0.02826492
0.6000005,0.02786641
0.5990005,0.02746789
0.5980005,0.02706938
0.5970005,0.02670152
0.5960005,0.02630301
0.5950005,0.0259045
0.5940005,0.02553664
0.5930005,0.02513812
0.5920005,0.02473961
0.5910005,0.02437175
0.5900005,0.02397324
0.5890005,0.02360538
0.5880005,0.02320687
0.5870005,0.02283901
0.5860005,0.02247116
0.5850005,0.02207264
0.5840005,0.02170478
0.5830005,0.02133693
0.5820005,0.02096907
0.5810004,0.02057056
0.5800005,0.0202027
0.5790005,0.0198655
0.5780005,0.01946698
0.5770005,0.01912978
0.5760005,0.01876192
0.5750005,0.01842472
0.5740005,0.01805686
0.5730005,0.017689
0.5720005,0.0173518
0.5710005,0.01698394
0.5700005,0.01664674
0.5690005,0.01630954
0.5680005,0.01594168
0.5670004,0.01560447
0.5660005,0.01526727
0.5650005,0.01493007
0.5640005,0.01456221
0.5630005,0.01425566
0.5620005,0.0138878
0.5610005,0.01358126
0.5600005,0.01324405
0.5590005,0.01245211
0.5580005,0.0121333
0.5570005,0.01182062
0.5560005,0.01150794
0.5550005,0.01119832
0.5540005,0.01089484
0.5530005,0.01058829
0.5520005,0.01028788
0.5510005,0.009990525
0.5500005,0.009696238
0.5490005,0.009405017
0.5480005,0.009113796
0.5470005,0.008831772
0.5460005,0.008549747
0.5450005,0.008270789
0.5440005,0.007997961
0.5430005,0.007728198
0.5420005,0.007461501
0.5410005,0.007200935
0.5400005,0.006940369
0.5390005,0.006688999
0.5380005,0.00643763
0.5370005,0.006192391
0.5360005,0.005953284
0.5350005,0.005714176
0.5340005,0.005481199
0.5330005,0.005254354
0.5320005,0.005030573
0.5310005,0.00481599
0.5300004,0.004601406
0.5290005,0.004389888
0.5280005,0.004187566
0.5270005,0.003988309
0.5260005,0.003795184
0.5250005,0.00360819
0.5240005,0.003424261
0.5230005,0.003249528
0.5220005,0.003074796
0.5210005,0.00290926
0.5200005,0.002749854
0.5190005,0.002590449
0.5180005,0.002440241
0.5170005,0.002299229
0.5160004,0.002155151
0.5150005,0.002023335
0.5140005,0.001894585
0.5130005,0.001771966
0.5120005,0.001652412
0.5110005,0.001535923
0.5100005,0.001431697
0.5090005,0.001327471
0.5080005,0.00122631
0.5070005,0.001108184
0.5060005,0.001020511
0.5050005,0.0009349839
0.5040005,0.0008580403
0.5030005,0.0007814032
0.5020005,0.0007105906
0.5010005,0.0006449892
0.5000005,0.0005806141
0.4990005,0.0005220634
0.4980005,0.0004668847
0.4970005,0.0004144649
0.4960005,0.00036695
0.4950005,0.0003200481
0.4940005,0.000278051
0.4930005,0.0002385062
0.4920005,0.0002004942
0.4910005,0.000167387
0.4900005,0.0001345864
0.4890005,0.0001045446
0.4880005,7.400192E-05
0.4870005,4.825186E-05
0.4860005,2.553664E-05
0.4850005,4.262188E-06
0.4840005,-1.713488E-05
0.4830005,-3.500664E-05
0.4820005,-5.189745E-05
0.4810005,-6.857367E-05
0.4800005,-8.233769E-05
0.4790005,-9.646956E-05
0.4780005,-0.0001089154
0.4770005,-0.0001192768
0.4760005,-0.0001304658
0.4750005,-0.0001396316
0.4740005,-0.0001482456
0.4730005,-0.0001571048
0.4720005,-0.000162776
0.4710005,-0.0001705623
0.4700005,-0.0001761415
0.4690005,-0.0001813528
0.4680005,-0.0001872385
0.4670005,-0.0001910091
0.4660005,-0.0001947796
0.4650005,-0.0001991019
0.4640005,-0.0002010638
0.4630005,-0.000205049
0.4620005,-0.0002074707
0.4610005,-0.0002097391
0.4600005,-0.0002125901
0.4590005,-0.0002137243
0.4580005,-0.0002151957
0.4570005,-0.0002172496
0.4560005,-0.0002173415
0.4550005,-0.0002194874
0.4540005,-0.0002203764
0.4530005,-0.0002206216
0.4520005,-0.000222277
0.4510005,-0.0002223076
0.4500005,-0.0002227061
0.4490005,-0.0002235645
0.4480005,-0.0002229207
0.4470005,-0.000223963
0.4460005,-0.0002239017
0.4450005,-0.0002232273
0.4440005,-0.0002241162
0.4430005,-0.000223166
0.4420005,-0.000223074
0.4410005,-0.0002234725
0.4400005,-0.0002220624
0.4390005,-0.0002224916
0.4380005,-0.000222185
0.4370005,-0.0002213573
0.4360005,-0.0002219398
0.4350005,-0.0002211121
0.4340005,-0.0002200392
0.4330005,-0.0002200698
0.4320005,-0.0002188436
0.4310005,-0.000218813
0.4300005,-0.0002181079
0.4290005,-0.0002174029
0.4280005,-0.0002175255
0.4270005,-0.0002164219
0.4260005,-0.0002159008
0.4250005,-0.0002157168
0.4240005,-0.0002139695
0.4230005,-0.0002143987
0.4220005,-0.0002136323
0.4210005,-0.0002120076
0.4200005,-0.0002122528
0.4190005,-0.0002112412
0.4180005,-0.0002102296
0.4170005,-0.0002099537
0.4160005,-0.0002085436
0.4150005,-0.0002083903
0.4140005,-0.0002079612
0.4130005,-0.0002065817
0.4120005,-0.0002066123
0.4110005,-0.0002056927
0.4100005,-0.0002061219
0.4090005,-0.0002052022
0.4080005,-0.0002033016
0.4070005,-0.0002030257
0.4060005,-0.0002022594
0.4050005,-0.0002008799
0.4040005,-0.0002008186
0.4030005,-0.0001998989
0.4020005,-0.000198918
0.4010005,-0.0001985195
0.4000005,-0.0001970481
0.3990005,-0.0001969867
0.3980005,-0.000196251
0.3970005,-0.0001950555
0.3960005,-0.0001948409
0.3950005,-0.0001938293
0.3940005,-0.000192787
0.3930005,-0.0001925418
0.3920005,-0.0001913156
0.3910005,-0.0001910704
0.3900005,-0.0001904879
0.3890005,-0.0001893537
0.3880005,-0.0001891391
0.3870005,-0.0001882808
0.3860005,-0.0001874837
0.3850005,-0.0001871159
0.3840005,-0.0001857977
0.3830005,-0.0001855525
0.3820005,-0.0001848474
0.3810005,-0.0001839891
0.3800005,-0.0001838665
0.3790005,-0.0001828855
0.3780005,-0.0001821805
0.3770005,-0.0001819352
0.3760005,-0.0001805251
0.3750005,-0.0001804944
0.3740005,-0.00017982
0.3730005,-0.0001789004
0.3720005,-0.0001787165
0.3710005,-0.0001781647
0.3700005,-0.000177245
0.3690005,-0.0001770305
0.3680005,-0.0001759269
0.3670005,-0.000175651
0.3660005,-0.0001751605
0.3650005,-0.0001743635
0.3640005,-0.0001741489
0.3630005,-0.0001733519
0.3620005,-0.0001727694
0.3610005,-0.0001725548
0.3600005,-0.0001715126
0.3590005,-0.0001714513
0.3580005,-0.0001708382
0.3570005,-0.0001698572
0.3560005,-0.0001698266
0.3550005,-0.0001691828
0.3540005,-0.0001684471
0.3530005,-0.0001684164
0.3520005,-0.0001675581
0.3510005,-0.0001674048
0.3500005,-0.0001672209
0.3490005,-0.0001666078
0.3480005,-0.0001661787
0.3470005,-0.0001658721
0.3460005,-0.0001654123
0.3450005,-0.0001650444
0.3440005,-0.0001642474
0.3430005,-0.0001641861
0.3420005,-0.0001639102
0.3410005,-0.0001632051
0.3400005,-0.0001630825
0.3390005,-0.0001628373
0.3380005,-0.0001623161
0.3370005,-0.0001622548
0.3360005,-0.0001613045
0.3350005,-0.0001613045
0.3340005,-0.0001612432
0.3330005,-0.0001605382
0.3320005,-0.0001605075
0.3310005,-0.0001600783
0.3300005,-0.0001598638
0.3290005,-0.0001597411
0.3280005,-0.0001593426
0.3270005,-0.0001591894
0.3260005,-0.000159128
0.3250005,-0.0001587295
0.3240005,-0.0001586682
0.3230005,-0.0001584536
0.3220005,-0.0001581471
0.3210005,-0.0001580858
0.3200005,-0.0001578405
0.3190005,-0.0001576566
0.3180005,-0.0001576259
0.3170005,-0.0001573807
0.3160005,-0.0001573501
0.3150005,-0.0001571355
0.3140005,-0.0001568289
0.3130005,-0.0001569209
0.3120005,-0.0001565224
0.3110005,-0.000156553
0.3100005,-0.0001563691
0.3090005,-0.0001561239
0.3080005,-0.0001562465
0.3070005,-0.0001562771
0.3060005,-0.0001560319
0.3050005,-0.0001561545
0.3040005,-0.0001560012
0.3030005,-0.0001560626
0.3020005,-0.0001561239
0.3010005,-0.0001558173
0.3000005,-0.0001560626
0.2990005,-0.0001559399
0.2980005,-0.0001558173
0.2970005,-0.0001557867
0.2960005,-0.0001556947
0.2950005,-0.0001558173
0.2940005,-0.0001558786
0.2930005,-0.0001556027
0.2920005,-0.0001559399
0.2910005,-0.0001557867
0.2900005,-0.000155756
0.2890005,-0.0001559093
0.2880005,-0.0001557867
0.2870005,-0.0001559093
0.2860005,-0.0001561545
0.2850005,-0.0001559706
0.2840005,-0.0001561852
0.2830005,-0.0001562465
0.2820005,-0.0001563691
0.2810005,-0.0001565837
0.2800005,-0.0001564611
0.2790005,-0.000156645
0.2780005,-0.0001567983
0.2770005,-0.0001568289
0.2760005,-0.0001570129
0.2750005,-0.0001571048
0.2740005,-0.0001571048
0.2730005,-0.0001575033
0.2720005,-0.0001574114
0.2710005,-0.0001575953
0.2700005,-0.0001577792
0.2690005,-0.0001578405
0.2680005,-0.0001581471
0.2670005,-0.0001581777
0.2660005,-0.0001582084
0.2650005,-0.0001585149
0.2640005,-0.0001585763
0.2630005,-0.0001586682
0.2620005,-0.0001588828
0.2610005,-0.0001589748
0.2600005,-0.0001592813
0.2590005,-0.0001594652
0.2580005,-0.0001595572
0.2570005,-0.0001597105
0.2560005,-0.0001599251
0.2550005,-0.0001602009
0.2540005,-0.0001603542
0.2530005,-0.0001604768
0.2520005,-0.0001607834
0.2510005,-0.0001608754
0.2500005,-0.0001610899
0.2490005,-0.0001613965
0.2480005,-0.0001614578
0.2470005,-0.000161795
0.2460005,-0.0001619789
0.2450005,-0.0001620402
0.2440005,-0.0001625307
0.2430005,-0.0001626227
0.2420005,-0.0001627453
0.2410005,-0.0001631745
0.2400005,-0.0001632971
0.2390005,-0.0001635423
0.2380005,-0.0001637876
0.2370005,-0.0001639408
0.2360005,-0.0001642167
0.2350005,-0.000164462
0.2340005,-0.0001646153
0.2330005,-0.0001648911
0.2320005,-0.0001650444
0.2310005,-0.0001652897
0.2300005,-0.0001655349
0.2290005,-0.0001657801
0.2280005,-0.0001660867
0.2270005,-0.0001663013
0.2260005,-0.0001665158
0.2250005,-0.0001669144
0.2240005,-0.000167037
0.2230005,-0.0001672822
0.2220005,-0.0001675581
0.2210005,-0.0001678034
0.2200005,-0.0001682019
0.2190005,-0.0001684164
0.2180005,-0.0001686617
0.2170005,-0.0001689376
0.2160005,-0.0001690602
0.2150005,-0.0001693054
0.2140005,-0.00016952
0.2130005,-0.0001697346
0.2120005,-0.0001700105
0.2110005,-0.0001702251
0.2100005,-0.0001703784
0.2090005,-0.0001706849
0.2080005,-0.0001708075
0.2070005,-0.0001711447
0.2060005,-0.0001713593
0.2050005,-0.0001715739
0.2040005,-0.0001719111
0.2030005,-0.0001720337
0.2020005,-0.0001722177
0.2010005,-0.0001725548
0.2000005,-0.0001726162
0.1990005,-0.000172892
0.1980005,-0.0001731373
0.1970005,-0.0001732906
0.1960005,-0.0001735665
0.1950005,-0.0001738117
0.1940005,-0.0001739956
0.1930005,-0.0001740263
0.1920005,-0.0001743328
0.1910005,-0.0001745781
0.1900005,-0.0001746087
0.1890005,-0.000174854
0.1880005,-0.0001750685
0.1870005,-0.0001750685
0.1860005,-0.0001753751
0.1850005,-0.000175559
0.1840005,-0.000175559
0.1830005,-0.0001758656
0.1820005,-0.0001759882
0.1810005,-0.0001760188
0.1800005,-0.0001762947
0.1790005,-0.0001764174
0.1780005,-0.000176448
0.1770005,-0.0001767852
0.1760005,-0.0001766933
0.1750005,-0.0001769691
0.1740005,-0.0001771224
0.1730005,-0.0001771224
0.1720005,-0.0001773677
0.1710005,-0.000177429
0.1700005,-0.0001774596
0.1690005,-0.0001777662
0.1680005,-0.0001777049
0.1670005,-0.0001778888
0.1660005,-0.0001780421
0.1650005,-0.0001780114
0.1640005,-0.000178134
0.1630005,-0.0001782567
0.1620005,-0.000178318
0.1610005,-0.0001783793
0.1600005,-0.0001785325
0.1590005,-0.0001785325
0.1580005,-0.0001788084
0.1570005,-0.0001788084
0.1560005,-0.0001788391
0.1550005,-0.0001789617
0.1540005,-0.0001791456
0.1530005,-0.000179023
0.1520005,-0.000179115
0.1510005,-0.000179207
0.1500005,-0.000179115
0.1490005,-0.000179207
0.1480005,-0.0001792683
0.1470005,-0.000179207
0.1460005,-0.0001792989
0.1450005,-0.0001794522
0.1440005,-0.000179207
0.1430005,-0.0001793602
0.1420005,-0.0001794522
0.1410005,-0.0001792989
0.1400005,-0.0001793296
0.1390005,-0.0001795135
0.1380005,-0.0001793602
0.1370005,-0.0001794522
0.1360005,-0.0001793296
0.1350005,-0.0001792989
0.1340005,-0.0001793602
0.1330005,-0.0001793909
0.1320005,-0.0001792376
0.1310005,-0.0001791763
0.1300005,-0.0001791456
0.1290005,-0.0001790537
0.1280005,-0.0001788391
0.1270005,-0.000179023
0.1260005,-0.0001788391
0.1250005,-0.0001786245
0.1240005,-0.0001785939
0.1230005,-0.0001785019
0.1220005,-0.0001782567
0.1210005,-0.0001781647
0.1200005,-0.0001779807
0.1190005,-0.0001778888
0.1180005,-0.0001777355
0.1170005,-0.0001775209
0.1160005,-0.0001773677
0.1150005,-0.0001769998
0.1140005,-0.0001767852
0.1130005,-0.0001764787
0.1120005,-0.0001761415
0.1110005,-0.0001760495
0.1100005,-0.000175743
0.1090005,-0.0001753138
0.1080005,-0.0001751912
0.1070005,-0.0001747007
0.1060005,-0.0001744554
0.1050005,-0.0001741796
0.1040005,-0.0001736584
0.1030005,-0.0001735051
0.1020005,-0.000173168
0.1010005,-0.0001726775
0.1000005,-0.0001724016
0.09900048,-0.0001719417
0.09800047,-0.0001713287
0.09700048,-0.0001709301
0.09600048,-0.000170409
0.09500048,-0.0001698266
0.09400047,-0.0001694281
0.09300048,-0.0001690602
0.09200048,-0.0001684778
0.09100047,-0.0001681099
0.09000048,-0.0001676501
0.08900048,-0.0001670063
0.08800048,-0.0001664239
0.08700047,-0.0001659947
0.08600048,-0.0001652897
0.08500048,-0.0001647379
0.08400048,-0.0001641861
0.08300047,-0.0001636036
0.08200048,-0.0001630519
0.08100048,-0.0001625614
0.08000048,-0.0001619176
0.07900048,-0.0001615191
0.07800048,-0.0001609367
0.07700048,-0.0001601396
0.07600047,-0.0001595879
0.07500048,-0.0001589134
0.07400048,-0.0001583004
0.07300048,-0.0001578405
0.07200047,-0.0001571661
0.07100048,-0.0001566756
0.07000048,-0.0001562465
0.06900048,-0.0001556027
0.06800048,-0.0001550816
0.06700048,-0.0001545911
0.06600048,-0.0001538861
0.06500047,-0.0001533649
0.06400048,-0.0001528131
0.06300048,-0.0001521694
0.06200048,-0.0001516176
0.06100048,-0.0001511884
0.06000048,-0.0001507593
0.05900048,-0.0001501768
0.05800048,-0.0001496863
0.05700048,-0.0001492265
0.05600048,-0.0001486441
0.05500048,-0.0001482149
0.05400048,-0.0001476018
0.05300048,-0.0001470194
0.05200048,-0.0001466822
0.05100048,-0.000146161
0.05000048,-0.0001456399
0.04900048,-0.0001452414
0.04800048,-0.0001448122
0.04700048,-0.000144475
0.04600048,-0.0001440459
0.04500048,-0.0001435247
0.04400048,-0.0001430649
0.04300048,-0.0001426051
0.04200048,-0.0001421146
0.04100048,-0.0001416855
0.04000048,-0.0001412256
0.03900048,-0.0001408271
0.03800048,-0.0001403673
0.03700048,-0.0001397848
0.03600048,-0.0001395089
0.03500048,-0.0001392024
0.03400048,-0.0001387732
0.03300048,-0.000138436
0.03200048,-0.0001380988
0.03100048,-0.0001376697
0.03000048,-0.0001372712
0.02900048,-0.000136842
0.02800048,-0.0001363822
0.02700048,-0.000135953
0.02600048,-0.0001355545
0.02500048,-0.0001352479
0.02400048,-0.0001347268
0.02300048,-0.0001343896
0.02200048,-0.0001339911
0.02100048,-0.0001335006
0.02000048,-0.0001332247
0.01900048,-0.0001327649
0.01800048,-0.0001323357
0.01700048,-0.0001320598
0.01600048,-0.0001315694
0.01500048,-0.0001312628
0.01400048,-0.0001308643
0.01300048,-0.0001304964
0.01200048,-0.0001301286
0.01100048,-0.0001296687
0.01000048,-0.0001292396
0.009000476,-0.0001288411
0.008000477,-0.0001284119
0.007000477,-0.0001280134
0.006000477,-0.0001275536
0.005000477,-0.0001271551
0.004000477,-0.0001266646
0.003000477,-0.0001261434
0.002000477,-0.0001255917
0.001000477,-0.0001251318
