EXPID. 1241
[电化学]: CV : -0.8 >> -0.8 >> -1.5 >> -0.8(V) @ 0.01(V/s) X 10(Seg)
起始电位 (V),-0.8
上限电位 (V),-0.8
下限电位 (V),-1.5
终止电位 (V),-0.8
扫速 (V/s),0.01
电解液 信息:
KOH,1
-0.8,-0.1511166
-0.801,-0.09900341
-0.802,-0.0792109
-0.803,-0.06725552
-0.804,-0.05907068
-0.805,-0.05272513
-0.806,-0.04760578
-0.807,-0.04355934
-0.808,-0.04030993
-0.809,-0.0376123
-0.81,-0.03528254
-0.811,-0.03328998
-0.812,-0.03148134
-0.813,-0.02985664
-0.814,-0.02832389
-0.815,-0.02688312
-0.816,-0.02556496
-0.817,-0.02446138
-0.818,-0.02344977
-0.819,-0.02249948
-0.82,-0.02167179
-0.821,-0.02084411
-0.822,-0.02007774
-0.823,-0.01937268
-0.824,-0.01869828
-0.825,-0.01805453
-0.826,-0.01744143
-0.827,-0.01685899
-0.828,-0.0163072
-0.829,-0.01578607
-0.83,-0.01541313
-0.831,-0.01494718
-0.832,-0.01450268
-0.833,-0.01407351
-0.834,-0.0136658
-0.835,-0.01327649
-0.836,-0.01289943
-0.837,-0.01254384
-0.838,-0.01219744
-0.839,-0.0118633
-0.84,-0.01154449
-0.841,-0.01123794
-0.842,-0.01093446
-0.843,-0.01064631
-0.844,-0.01035508
-0.845,-0.01005467
-0.846,-0.009772642
-0.847,-0.009490618
-0.848,-0.009220854
-0.849,-0.00896642
-0.85,-0.008718115
-0.851,-0.008469812
-0.852,-0.008224573
-0.853,-0.008000793
-0.854,-0.007780078
-0.855,-0.007577756
-0.856,-0.007390762
-0.857,-0.007200702
-0.858,-0.007029035
-0.859,-0.006866564
-0.86,-0.006704094
-0.861,-0.006556951
-0.862,-0.006412873
-0.863,-0.006271861
-0.864,-0.006146176
-0.865,-0.006020491
-0.866,-0.005897872
-0.867,-0.005781383
-0.868,-0.005677157
-0.869,-0.0055668
-0.87,-0.005471769
-0.871,-0.005376739
-0.872,-0.00528171
-0.873,-0.005192811
-0.874,-0.005110043
-0.875,-0.005027275
-0.876,-0.004953703
-0.877,-0.004877066
-0.878,-0.00480656
-0.879,-0.004739119
-0.88,-0.004671679
-0.881,-0.004610369
-0.882,-0.004552125
-0.883,-0.004493881
-0.884,-0.004441767
-0.885,-0.004389654
-0.886,-0.004340607
-0.887,-0.004294624
-0.888,-0.004245576
-0.889,-0.00420266
-0.89,-0.004162808
-0.891,-0.004122957
-0.892,-0.004083106
-0.893,-0.004043255
-0.894,-0.004006469
-0.895,-0.003969683
-0.896,-0.003935963
-0.897,-0.003902242
-0.898,-0.003868522
-0.899,-0.003837867
-0.9,-0.003810278
-0.901,-0.003782689
-0.902,-0.003755099
-0.903,-0.003730575
-0.904,-0.003706052
-0.905,-0.003684593
-0.906,-0.003663135
-0.907,-0.003641677
-0.908,-0.003623284
-0.909,-0.003607956
-0.91,-0.003589563
-0.911,-0.003574236
-0.912,-0.003561974
-0.913,-0.003546647
-0.914,-0.003534385
-0.915,-0.003525188
-0.916,-0.003512926
-0.917,-0.00350373
-0.918,-0.003494533
-0.919,-0.003485337
-0.92,-0.00347614
-0.921,-0.003473075
-0.922,-0.003463879
-0.923,-0.003457748
-0.924,-0.003451617
-0.925,-0.003445486
-0.926,-0.003439354
-0.927,-0.003436289
-0.928,-0.003430158
-0.929,-0.003427093
-0.93,-0.003424027
-0.931,-0.003420962
-0.932,-0.003417896
-0.933,-0.003414831
-0.934,-0.003411765
-0.935,-0.0034087
-0.936,-0.0034087
-0.937,-0.003405634
-0.938,-0.003402569
-0.939,-0.003402569
-0.94,-0.003402569
-0.941,-0.003399503
-0.942,-0.003399503
-0.943,-0.003399503
-0.944,-0.003396438
-0.945,-0.003399503
-0.946,-0.003396438
-0.947,-0.003393373
-0.948,-0.003396438
-0.949,-0.003393373
-0.95,-0.003393373
-0.951,-0.003396438
-0.952,-0.003393373
-0.953,-0.003393373
-0.954,-0.003393373
-0.955,-0.003393373
-0.956,-0.003393373
-0.957,-0.003393373
-0.958,-0.003393373
-0.959,-0.003390307
-0.96,-0.003393373
-0.961,-0.003393373
-0.962,-0.003390307
-0.963,-0.003390307
-0.964,-0.003393373
-0.965,-0.003390307
-0.966,-0.003390307
-0.967,-0.003393373
-0.968,-0.003387242
-0.969,-0.003390307
-0.97,-0.003390307
-0.971,-0.003384176
-0.972,-0.003390307
-0.973,-0.003387242
-0.974,-0.003384176
-0.975,-0.003387242
-0.976,-0.003384176
-0.977,-0.00338111
-0.978,-0.003384176
-0.979,-0.00338111
-0.98,-0.003378045
-0.981,-0.00338111
-0.982,-0.003374979
-0.983,-0.003371914
-0.984,-0.003374979
-0.985,-0.003371914
-0.986,-0.003368848
-0.987,-0.003368848
-0.988,-0.003365783
-0.989,-0.003365783
-0.99,-0.003362718
-0.991,-0.003359652
-0.992,-0.003359652
-0.993,-0.003356587
-0.994,-0.003353521
-0.995,-0.003356587
-0.996,-0.003350456
-0.997,-0.00334739
-0.998,-0.00334739
-0.999,-0.003344325
-1,-0.003341259
-1.001,-0.003344325
-1.002,-0.003338194
-1.003,-0.003335128
-1.004,-0.003335128
-1.005,-0.003332063
-1.006,-0.003325932
-1.007,-0.003328997
-1.008,-0.003322866
-1.009,-0.003319801
-1.01,-0.003319801
-1.011,-0.003316735
-1.012,-0.00331367
-1.013,-0.00331367
-1.014,-0.003304473
-1.015,-0.003304473
-1.016,-0.003304473
-1.017,-0.003298342
-1.018,-0.003298342
-1.019,-0.003298342
-1.02,-0.003292212
-1.021,-0.003292212
-1.022,-0.003289146
-1.023,-0.003283015
-1.024,-0.003286081
-1.025,-0.003283015
-1.026,-0.003276884
-1.027,-0.003276884
-1.028,-0.003276884
-1.029,-0.003270753
-1.03,-0.003273819
-1.031,-0.003270753
-1.032,-0.003264622
-1.033,-0.003264622
-1.034,-0.003264622
-1.035,-0.003261557
-1.036,-0.003261557
-1.037,-0.003261557
-1.038,-0.003255426
-1.039,-0.003258491
-1.04,-0.003255426
-1.041,-0.003255426
-1.042,-0.003255426
-1.043,-0.00325236
-1.044,-0.00325236
-1.045,-0.003255426
-1.046,-0.003249295
-1.047,-0.00325236
-1.048,-0.00325236
-1.049,-0.003246229
-1.05,-0.003249295
-1.051,-0.003249295
-1.052,-0.003249295
-1.053,-0.003246229
-1.054,-0.003249295
-1.055,-0.003249295
-1.056,-0.003246229
-1.057,-0.003246229
-1.058,-0.003246229
-1.059,-0.003243164
-1.06,-0.003246229
-1.061,-0.003243164
-1.062,-0.003243164
-1.063,-0.003243164
-1.064,-0.003237033
-1.065,-0.003240098
-1.066,-0.003240098
-1.067,-0.003237033
-1.068,-0.003237033
-1.069,-0.003237033
-1.07,-0.003233967
-1.071,-0.003230902
-1.072,-0.003233967
-1.073,-0.003227836
-1.074,-0.003230902
-1.075,-0.003227836
-1.076,-0.003221706
-1.077,-0.003224771
-1.078,-0.003224771
-1.079,-0.00321864
-1.08,-0.00321864
-1.081,-0.00321864
-1.082,-0.003212509
-1.083,-0.003215575
-1.084,-0.003215575
-1.085,-0.003209443
-1.086,-0.003209443
-1.087,-0.003209443
-1.088,-0.003206378
-1.089,-0.003203312
-1.09,-0.003203312
-1.091,-0.003200247
-1.092,-0.003200247
-1.093,-0.003200247
-1.094,-0.003191051
-1.095,-0.003197182
-1.096,-0.003191051
-1.097,-0.003184919
-1.098,-0.003191051
-1.099,-0.003184919
-1.1,-0.003184919
-1.101,-0.003187985
-1.102,-0.003181854
-1.103,-0.003175723
-1.104,-0.003181854
-1.105,-0.003178789
-1.106,-0.003175723
-1.107,-0.003175723
-1.108,-0.003178789
-1.109,-0.003169592
-1.11,-0.003172658
-1.111,-0.003169592
-1.112,-0.003166527
-1.113,-0.003169592
-1.114,-0.003166527
-1.115,-0.003166527
-1.116,-0.003169592
-1.117,-0.003166527
-1.118,-0.003166527
-1.119,-0.003166527
-1.12,-0.003160396
-1.121,-0.003163461
-1.122,-0.003163461
-1.123,-0.003160396
-1.124,-0.003160396
-1.125,-0.003160396
-1.126,-0.003160396
-1.127,-0.00315733
-1.128,-0.003160396
-1.129,-0.00315733
-1.13,-0.00315733
-1.131,-0.003160396
-1.132,-0.00315733
-1.133,-0.003154265
-1.134,-0.003160396
-1.135,-0.003154265
-1.136,-0.003154265
-1.137,-0.003154265
-1.138,-0.003154265
-1.139,-0.003151199
-1.14,-0.003154265
-1.141,-0.003151199
-1.142,-0.003148134
-1.143,-0.003154265
-1.144,-0.003145068
-1.145,-0.003148134
-1.146,-0.003148134
-1.147,-0.003142003
-1.148,-0.003145068
-1.149,-0.003142003
-1.15,-0.003135872
-1.151,-0.003138937
-1.152,-0.003135872
-1.153,-0.003129741
-1.154,-0.003129741
-1.155,-0.003126675
-1.156,-0.003120545
-1.157,-0.003120545
-1.158,-0.003114413
-1.159,-0.003108283
-1.16,-0.003108283
-1.161,-0.003102152
-1.162,-0.003096021
-1.163,-0.003092955
-1.164,-0.003089889
-1.165,-0.003083759
-1.166,-0.003077628
-1.167,-0.003071497
-1.168,-0.0030623
-1.169,-0.0030623
-1.17,-0.003053104
-1.171,-0.003046973
-1.172,-0.003043907
-1.173,-0.003034711
-1.174,-0.00302858
-1.175,-0.003022449
-1.176,-0.003016318
-1.177,-0.003013253
-1.178,-0.003007122
-1.179,-0.00299486
-1.18,-0.00299486
-1.181,-0.002988729
-1.182,-0.002982598
-1.183,-0.002979532
-1.184,-0.002973401
-1.185,-0.002964205
-1.186,-0.00296727
-1.187,-0.002961139
-1.188,-0.002955008
-1.189,-0.002955008
-1.19,-0.002948877
-1.191,-0.002945812
-1.192,-0.002945812
-1.193,-0.002942747
-1.194,-0.002939681
-1.195,-0.002939681
-1.196,-0.002936616
-1.197,-0.002939681
-1.198,-0.002936616
-1.199,-0.002939681
-1.2,-0.002936616
-1.201,-0.002936616
-1.202,-0.002939681
-1.203,-0.002936616
-1.204,-0.002939681
-1.205,-0.002942747
-1.206,-0.002939681
-1.207,-0.002942747
-1.208,-0.002942747
-1.209,-0.002945812
-1.21,-0.002948877
-1.211,-0.002945812
-1.212,-0.002951943
-1.213,-0.002955008
-1.214,-0.002951943
-1.215,-0.002958074
-1.216,-0.002961139
-1.217,-0.002961139
-1.218,-0.00296727
-1.219,-0.002970336
-1.22,-0.00296727
-1.221,-0.002973401
-1.222,-0.002979532
-1.223,-0.002976467
-1.224,-0.002982598
-1.225,-0.002988729
-1.226,-0.002985663
-1.227,-0.002997925
-1.228,-0.002997925
-1.229,-0.002997925
-1.23,-0.003007122
-1.231,-0.003010187
-1.232,-0.003010187
-1.233,-0.003019383
-1.234,-0.003019383
-1.235,-0.003025514
-1.236,-0.003031645
-1.237,-0.003034711
-1.238,-0.003037777
-1.239,-0.003046973
-1.24,-0.003046973
-1.241,-0.003053104
-1.242,-0.003059235
-1.243,-0.0030623
-1.244,-0.003071497
-1.245,-0.003080693
-1.246,-0.003080693
-1.247,-0.003083759
-1.248,-0.003096021
-1.249,-0.003096021
-1.25,-0.003105217
-1.251,-0.003114413
-1.252,-0.003117479
-1.253,-0.00312361
-1.254,-0.003132806
-1.255,-0.003138937
-1.256,-0.003145068
-1.257,-0.003154265
-1.258,-0.003163461
-1.259,-0.003166527
-1.26,-0.003181854
-1.261,-0.003184919
-1.262,-0.003194116
-1.263,-0.003206378
-1.264,-0.003209443
-1.265,-0.003221706
-1.266,-0.003233967
-1.267,-0.003237033
-1.268,-0.00325236
-1.269,-0.003261557
-1.27,-0.003267688
-1.271,-0.003283015
-1.272,-0.003295277
-1.273,-0.003301408
-1.274,-0.00331367
-1.275,-0.003328997
-1.276,-0.003338194
-1.277,-0.003350456
-1.278,-0.003365783
-1.279,-0.003374979
-1.28,-0.003387242
-1.281,-0.003405634
-1.282,-0.003411765
-1.283,-0.003427093
-1.284,-0.00344242
-1.285,-0.003454682
-1.286,-0.003466944
-1.287,-0.003488402
-1.288,-0.003500664
-1.289,-0.003515992
-1.29,-0.003534385
-1.291,-0.003543581
-1.292,-0.003561974
-1.293,-0.003580367
-1.294,-0.003592629
-1.295,-0.003614087
-1.296,-0.003626349
-1.297,-0.003644742
-1.298,-0.003663135
-1.299,-0.003678462
-1.3,-0.003696855
-1.301,-0.003718314
-1.302,-0.003733641
-1.303,-0.003752034
-1.304,-0.003773492
-1.305,-0.003794951
-1.306,-0.003810278
-1.307,-0.003831736
-1.308,-0.003853195
-1.309,-0.003868522
-1.31,-0.003893046
-1.311,-0.003911439
-1.312,-0.003935963
-1.313,-0.003957421
-1.314,-0.003975814
-1.315,-0.004000338
-1.316,-0.004024862
-1.317,-0.004043255
-1.318,-0.004070844
-1.319,-0.004095368
-1.32,-0.004116826
-1.321,-0.00414135
-1.322,-0.004168939
-1.323,-0.004187332
-1.324,-0.004217987
-1.325,-0.004245576
-1.326,-0.004267035
-1.327,-0.004294624
-1.328,-0.004325279
-1.329,-0.004349803
-1.33,-0.004380458
-1.331,-0.004411113
-1.332,-0.004438702
-1.333,-0.004469357
-1.334,-0.004500012
-1.335,-0.004530666
-1.336,-0.004561321
-1.337,-0.004598107
-1.338,-0.004631828
-1.339,-0.004665548
-1.34,-0.004702333
-1.341,-0.004739119
-1.342,-0.004775905
-1.343,-0.004818822
-1.344,-0.004858673
-1.345,-0.00490159
-1.346,-0.004944507
-1.347,-0.004990489
-1.348,-0.005039536
-1.349,-0.00509165
-1.35,-0.005137632
-1.351,-0.005198942
-1.352,-0.005257186
-1.353,-0.005309299
-1.354,-0.005376739
-1.355,-0.00544418
-1.356,-0.005511621
-1.357,-0.005591323
-1.358,-0.005667961
-1.359,-0.005747663
-1.36,-0.005842693
-1.361,-0.005937723
-1.362,-0.006032753
-1.363,-0.00614311
-1.364,-0.006259599
-1.365,-0.006379152
-1.366,-0.006510968
-1.367,-0.00665198
-1.368,-0.006796058
-1.369,-0.006961594
-1.37,-0.007130195
-1.371,-0.007307994
-1.372,-0.007504185
-1.373,-0.007703441
-1.374,-0.007914959
-1.375,-0.00814487
-1.376,-0.008377847
-1.377,-0.008626151
-1.378,-0.008889783
-1.379,-0.00915648
-1.38,-0.009444634
-1.381,-0.009741987
-1.382,-0.01004854
-1.383,-0.01037348
-1.384,-0.01070455
-1.385,-0.01103562
-1.386,-0.01138509
-1.387,-0.01174068
-1.388,-0.01210547
-1.389,-0.01247333
-1.39,-0.01285345
-1.391,-0.01323051
-1.392,-0.01362289
-1.393,-0.01399994
-1.394,-0.01438006
-1.395,-0.01477244
-1.396,-0.01516789
-1.397,-0.01554801
-1.398,-0.01593426
-1.399,-0.01632051
-1.4,-0.01670676
-1.401,-0.01709301
-1.402,-0.01748233
-1.403,-0.01785632
-1.404,-0.01824257
-1.405,-0.01862882
-1.406,-0.01899668
-1.407,-0.01937373
-1.408,-0.01976305
-1.409,-0.02014623
-1.41,-0.02054168
-1.411,-0.02091567
-1.412,-0.0212774
-1.413,-0.02163913
-1.414,-0.02198246
-1.415,-0.0223166
-1.416,-0.02267832
-1.417,-0.02302166
-1.418,-0.02336193
-1.419,-0.02372672
-1.42,-0.02406699
-1.421,-0.02442258
-1.422,-0.02478738
-1.423,-0.02512151
-1.424,-0.02545871
-1.425,-0.02580205
-1.426,-0.02613925
-1.427,-0.02647952
-1.428,-0.02682286
-1.429,-0.02716006
-1.43,-0.02749726
-1.431,-0.02784366
-1.432,-0.0281778
-1.433,-0.02848741
-1.434,-0.02881848
-1.435,-0.02912503
-1.436,-0.02945304
-1.437,-0.02978411
-1.438,-0.03009372
-1.439,-0.0304156
-1.44,-0.03086824
-1.441,-0.03117479
-1.442,-0.03148134
-1.443,-0.03178789
-1.444,-0.03209443
-1.445,-0.03240098
-1.446,-0.03276884
-1.447,-0.03307539
-1.448,-0.03338194
-1.449,-0.03371914
-1.45,-0.03402569
-1.451,-0.03433224
-1.452,-0.03466944
-1.453,-0.03497599
-1.454,-0.03531319
-1.455,-0.0356504
-1.456,-0.0359876
-1.457,-0.0363248
-1.458,-0.036662
-1.459,-0.03696856
-1.46,-0.03733641
-1.461,-0.03764296
-1.462,-0.03798017
-1.463,-0.03831736
-1.464,-0.03865457
-1.465,-0.03899177
-1.466,-0.03935963
-1.467,-0.03969683
-1.468,-0.04000338
-1.469,-0.04034058
-1.47,-0.0407391
-1.471,-0.0410763
-1.472,-0.0414135
-1.473,-0.04178136
-1.474,-0.04211856
-1.475,-0.04245577
-1.476,-0.04282362
-1.477,-0.04319149
-1.478,-0.04355934
-1.479,-0.0439272
-1.48,-0.0442644
-1.481,-0.04463226
-1.482,-0.04500012
-1.483,-0.04536797
-1.484,-0.04576649
-1.485,-0.04613435
-1.486,-0.0465022
-1.487,-0.04690072
-1.488,-0.04726858
-1.489,-0.04763643
-1.49,-0.04803495
-1.491,-0.04843346
-1.492,-0.04880131
-1.493,-0.04919983
-1.494,-0.04959834
-1.495,-0.04999685
-1.496,-0.05036471
-1.497,-0.05079388
-1.498,-0.05119239
-1.499,-0.05156025
-1.5,-0.05174418
-1.499,-0.05140698
-1.498,-0.05106977
-1.497,-0.05073257
-1.496,-0.05039537
-1.495,-0.05005816
-1.494,-0.04972096
-1.493,-0.04938376
-1.492,-0.04904656
-1.491,-0.04874001
-1.49,-0.0484028
-1.489,-0.04809625
-1.488,-0.0477897
-1.487,-0.04745251
-1.486,-0.0471153
-1.485,-0.04680875
-1.484,-0.0465022
-1.483,-0.046165
-1.482,-0.04588911
-1.481,-0.04555191
-1.48,-0.04524536
-1.479,-0.04493881
-1.478,-0.04463226
-1.477,-0.04429505
-1.476,-0.04401916
-1.475,-0.04368196
-1.474,-0.04340607
-1.473,-0.04309952
-1.472,-0.04276232
-1.471,-0.04242511
-1.47,-0.04214922
-1.469,-0.04184267
-1.468,-0.04153612
-1.467,-0.04119892
-1.466,-0.04089237
-1.465,-0.04055517
-1.464,-0.04024862
-1.463,-0.03994207
-1.462,-0.03963552
-1.461,-0.03932897
-1.46,-0.03902243
-1.459,-0.03868522
-1.458,-0.03840933
-1.457,-0.03807213
-1.456,-0.03776558
-1.455,-0.03748969
-1.454,-0.03715248
-1.453,-0.03684593
-1.452,-0.03653939
-1.451,-0.03623284
-1.45,-0.03592629
-1.449,-0.03561974
-1.448,-0.03528254
-1.447,-0.03500664
-1.446,-0.03466944
-1.445,-0.03436289
-1.444,-0.03405635
-1.443,-0.0337498
-1.442,-0.03344325
-1.441,-0.0331367
-1.44,-0.03283015
-1.439,-0.0325236
-1.438,-0.03221706
-1.437,-0.03191051
-1.436,-0.03157331
-1.435,-0.03129741
-1.434,-0.03099086
-1.433,-0.03068431
-1.432,-0.03037777
-1.431,-0.03007122
-1.43,-0.02976467
-1.429,-0.02948878
-1.428,-0.02915157
-1.427,-0.02887568
-1.426,-0.02856913
-1.425,-0.02829324
-1.424,-0.02801734
-1.423,-0.0277108
-1.422,-0.02740425
-1.421,-0.0270977
-1.42,-0.02682181
-1.419,-0.02651526
-1.418,-0.02623936
-1.417,-0.02593282
-1.416,-0.02562627
-1.415,-0.02535038
-1.414,-0.02504382
-1.413,-0.02473728
-1.412,-0.02446138
-1.411,-0.02418549
-1.41,-0.0239096
-1.409,-0.0236337
-1.408,-0.02335781
-1.407,-0.02305126
-1.406,-0.02277537
-1.405,-0.02249948
-1.404,-0.02222358
-1.403,-0.02197834
-1.402,-0.02167179
-1.401,-0.0213959
-1.4,-0.02115066
-1.399,-0.02087477
-1.398,-0.02059888
-1.397,-0.02035364
-1.396,-0.02007774
-1.395,-0.0198325
-1.394,-0.01955661
-1.393,-0.01931137
-1.392,-0.01906613
-1.391,-0.01882089
-1.39,-0.018545
-1.389,-0.01829976
-1.388,-0.01805453
-1.387,-0.01780929
-1.386,-0.01756405
-1.385,-0.01731881
-1.384,-0.01707357
-1.383,-0.01682833
-1.382,-0.01658309
-1.381,-0.01636851
-1.38,-0.01612327
-1.379,-0.01601703
-1.378,-0.01578712
-1.377,-0.01557254
-1.376,-0.01535489
-1.375,-0.01513417
-1.374,-0.01491652
-1.373,-0.014705
-1.372,-0.01449655
-1.371,-0.01429423
-1.37,-0.01408578
-1.369,-0.01388959
-1.368,-0.01369646
-1.367,-0.01350333
-1.366,-0.01331634
-1.365,-0.01312322
-1.364,-0.01293009
-1.363,-0.01274923
-1.362,-0.0125653
-1.361,-0.01238443
-1.36,-0.01221277
-1.359,-0.01203497
-1.358,-0.01186024
-1.357,-0.01169777
-1.356,-0.01153223
-1.355,-0.01136976
-1.354,-0.01121035
-1.353,-0.01105708
-1.352,-0.01090381
-1.351,-0.01075053
-1.35,-0.01060952
-1.349,-0.01045624
-1.348,-0.01031523
-1.347,-0.01017729
-1.346,-0.01003321
-1.345,-0.009904457
-1.344,-0.009769576
-1.343,-0.00963776
-1.342,-0.009518206
-1.341,-0.00938639
-1.34,-0.009266837
-1.339,-0.009150349
-1.338,-0.00902773
-1.337,-0.008914307
-1.336,-0.008807015
-1.335,-0.008690527
-1.334,-0.0085863
-1.333,-0.008488204
-1.332,-0.008380912
-1.331,-0.008276686
-1.33,-0.008181657
-1.329,-0.008080496
-1.328,-0.007991596
-1.327,-0.007899632
-1.326,-0.007801536
-1.325,-0.007721834
-1.324,-0.007632935
-1.323,-0.007544036
-1.322,-0.007467398
-1.321,-0.007387696
-1.32,-0.007307994
-1.319,-0.007234422
-1.318,-0.007154719
-1.317,-0.007078082
-1.316,-0.007010642
-1.315,-0.006940136
-1.314,-0.006872695
-1.313,-0.00680832
-1.312,-0.006743945
-1.311,-0.006673439
-1.31,-0.006615194
-1.309,-0.006550819
-1.308,-0.006486444
-1.307,-0.006434331
-1.306,-0.006373021
-1.305,-0.006314777
-1.304,-0.006262664
-1.303,-0.006207486
-1.302,-0.006155372
-1.301,-0.006103259
-1.3,-0.006051145
-1.299,-0.006002098
-1.298,-0.00595305
-1.297,-0.005907068
-1.296,-0.005858021
-1.295,-0.005815104
-1.294,-0.005769121
-1.293,-0.005723139
-1.292,-0.005680223
-1.291,-0.00563424
-1.29,-0.005591323
-1.289,-0.005554538
-1.288,-0.005511621
-1.287,-0.005474835
-1.286,-0.005434984
-1.285,-0.005392067
-1.284,-0.005358347
-1.283,-0.005324626
-1.282,-0.005284776
-1.281,-0.005251055
-1.28,-0.005217335
-1.279,-0.005180549
-1.278,-0.005146828
-1.277,-0.005119239
-1.276,-0.005082454
-1.275,-0.005051799
-1.274,-0.005021143
-1.273,-0.004984358
-1.272,-0.004959834
-1.271,-0.004926114
-1.27,-0.004895459
-1.269,-0.004870935
-1.268,-0.00484028
-1.267,-0.004812691
-1.266,-0.004785101
-1.265,-0.004754446
-1.264,-0.004729923
-1.263,-0.004705399
-1.262,-0.004674744
-1.261,-0.00465022
-1.26,-0.004625696
-1.259,-0.004598107
-1.258,-0.004576649
-1.257,-0.00455519
-1.256,-0.004524535
-1.255,-0.004506143
-1.254,-0.004481619
-1.253,-0.004454029
-1.252,-0.004435637
-1.251,-0.004414178
-1.25,-0.004389654
-1.249,-0.004368196
-1.248,-0.004346738
-1.247,-0.004322214
-1.246,-0.00430382
-1.245,-0.004279297
-1.244,-0.004257839
-1.243,-0.004239446
-1.242,-0.004217987
-1.241,-0.004196529
-1.24,-0.004181202
-1.239,-0.004156678
-1.238,-0.004138284
-1.237,-0.004119892
-1.236,-0.004098434
-1.235,-0.00408004
-1.234,-0.004064713
-1.233,-0.004043255
-1.232,-0.004021796
-1.231,-0.004006469
-1.23,-0.003985011
-1.229,-0.003966617
-1.228,-0.00395129
-1.227,-0.003926767
-1.226,-0.003914505
-1.225,-0.003896111
-1.224,-0.003874653
-1.223,-0.003862391
-1.222,-0.003843998
-1.221,-0.003825605
-1.22,-0.003810278
-1.219,-0.003791885
-1.218,-0.003773492
-1.217,-0.003758165
-1.216,-0.003742838
-1.215,-0.003724444
-1.214,-0.003709117
-1.213,-0.00369379
-1.212,-0.003675397
-1.211,-0.003660069
-1.21,-0.003644742
-1.209,-0.003626349
-1.208,-0.003614087
-1.207,-0.00359876
-1.206,-0.003580367
-1.205,-0.003568105
-1.204,-0.003549712
-1.203,-0.003534385
-1.202,-0.003525188
-1.201,-0.003506796
-1.2,-0.003491468
-1.199,-0.003479206
-1.198,-0.003460813
-1.197,-0.003448551
-1.196,-0.003436289
-1.195,-0.003420962
-1.194,-0.003405634
-1.193,-0.003393373
-1.192,-0.003374979
-1.191,-0.003365783
-1.19,-0.003350456
-1.189,-0.003338194
-1.188,-0.003322866
-1.187,-0.003310604
-1.186,-0.003295277
-1.185,-0.003286081
-1.184,-0.003273819
-1.183,-0.003255426
-1.182,-0.003246229
-1.181,-0.003230902
-1.18,-0.00321864
-1.179,-0.003206378
-1.178,-0.003194116
-1.177,-0.003178789
-1.176,-0.003169592
-1.175,-0.003154265
-1.174,-0.003145068
-1.173,-0.003132806
-1.172,-0.003117479
-1.171,-0.003105217
-1.17,-0.003099086
-1.169,-0.003080693
-1.168,-0.003071497
-1.167,-0.003059235
-1.166,-0.003046973
-1.165,-0.003034711
-1.164,-0.00302858
-1.163,-0.003013253
-1.162,-0.003000991
-1.161,-0.002991794
-1.16,-0.002976467
-1.159,-0.00296727
-1.158,-0.002958074
-1.157,-0.002942747
-1.156,-0.002936616
-1.155,-0.002924354
-1.154,-0.002912092
-1.153,-0.002902895
-1.152,-0.002890633
-1.151,-0.002881437
-1.15,-0.00287224
-1.149,-0.002856913
-1.148,-0.002847716
-1.147,-0.002841586
-1.146,-0.002826258
-1.145,-0.002817062
-1.144,-0.002810931
-1.143,-0.002792538
-1.142,-0.002786407
-1.141,-0.002780276
-1.14,-0.002764949
-1.139,-0.002758818
-1.138,-0.002749621
-1.137,-0.002734293
-1.136,-0.002728163
-1.135,-0.002715901
-1.134,-0.002703639
-1.133,-0.002697508
-1.132,-0.002685246
-1.131,-0.002672984
-1.13,-0.002666853
-1.129,-0.002654591
-1.128,-0.002645395
-1.127,-0.002639264
-1.126,-0.002627002
-1.125,-0.00261474
-1.124,-0.002608609
-1.123,-0.002596347
-1.122,-0.002587151
-1.121,-0.00258102
-1.12,-0.002565692
-1.119,-0.002559561
-1.118,-0.002550365
-1.117,-0.002538103
-1.116,-0.002528906
-1.115,-0.002522775
-1.114,-0.002510513
-1.113,-0.002501317
-1.112,-0.00249212
-1.111,-0.002479859
-1.11,-0.002473728
-1.109,-0.002464531
-1.108,-0.002449204
-1.107,-0.002443073
-1.106,-0.002433876
-1.105,-0.002421614
-1.104,-0.002415484
-1.103,-0.002406287
-1.102,-0.002394025
-1.101,-0.002387894
-1.1,-0.002375632
-1.099,-0.00236337
-1.098,-0.002360305
-1.097,-0.002348043
-1.096,-0.002335781
-1.095,-0.002332716
-1.094,-0.002317388
-1.093,-0.002308191
-1.092,-0.002302061
-1.091,-0.002289799
-1.09,-0.002280602
-1.089,-0.002271406
-1.088,-0.002259144
-1.087,-0.002253013
-1.086,-0.002243817
-1.085,-0.002231555
-1.084,-0.002222358
-1.083,-0.002213162
-1.082,-0.002197834
-1.081,-0.002191703
-1.08,-0.002182507
-1.079,-0.002167179
-1.078,-0.002164114
-1.077,-0.002151852
-1.076,-0.00213959
-1.075,-0.002130394
-1.074,-0.002121197
-1.073,-0.00210587
-1.072,-0.002099739
-1.071,-0.002090542
-1.07,-0.002075215
-1.069,-0.002066019
-1.068,-0.002056822
-1.067,-0.00204456
-1.066,-0.002035364
-1.065,-0.002020036
-1.064,-0.00201084
-1.063,-0.002001643
-1.062,-0.001986316
-1.061,-0.00197712
-1.06,-0.001967923
-1.059,-0.001952596
-1.058,-0.001943399
-1.057,-0.001934203
-1.056,-0.00191581
-1.055,-0.001909679
-1.054,-0.001897417
-1.053,-0.00188209
-1.052,-0.001872893
-1.051,-0.001860631
-1.05,-0.001848369
-1.049,-0.001839173
-1.048,-0.001826911
-1.047,-0.001811583
-1.046,-0.001802387
-1.045,-0.001790125
-1.044,-0.001774798
-1.043,-0.001765601
-1.042,-0.001753339
-1.041,-0.001738012
-1.04,-0.001731881
-1.039,-0.001716554
-1.038,-0.001704292
-1.037,-0.001695095
-1.036,-0.001679768
-1.035,-0.001670571
-1.034,-0.001658309
-1.033,-0.001642982
-1.032,-0.001633785
-1.031,-0.001621523
-1.03,-0.001606196
-1.029,-0.001600065
-1.028,-0.001622855
-1.027,-0.001608447
-1.026,-0.00160201
-1.025,-0.001590361
-1.024,-0.00157534
-1.023,-0.001567063
-1.022,-0.001554801
-1.021,-0.001541313
-1.02,-0.001533343
-1.019,-0.001522307
-1.018,-0.001509739
-1.017,-0.001501768
-1.016,-0.001491346
-1.015,-0.001476018
-1.014,-0.0014705
-1.013,-0.001459465
-1.012,-0.001447509
-1.011,-0.001440459
-1.01,-0.001427584
-1.009,-0.001417468
-1.008,-0.001409497
-1.007,-0.001399994
-1.006,-0.001389572
-1.005,-0.001381601
-1.004,-0.001371792
-1.003,-0.00136045
-1.002,-0.001355238
-1.001,-0.001343896
-1,-0.001335313
-0.9990003,-0.001328875
-0.9980002,-0.00131692
-0.9970002,-0.001310482
-0.9960002,-0.001302205
-0.9950002,-0.001292089
-0.9940003,-0.001285958
-0.9930002,-0.001276762
-0.9920002,-0.001267259
-0.9910002,-0.001261128
-0.9900002,-0.001251932
-0.9890002,-0.001245187
-0.9880002,-0.001237217
-0.9870002,-0.001228327
-0.9860002,-0.001220051
-0.9850003,-0.001214533
-0.9840002,-0.001205643
-0.9830002,-0.001197366
-0.9820002,-0.001189702
-0.9810002,-0.001182958
-0.9800002,-0.001174681
-0.9790002,-0.001167937
-0.9780002,-0.00116058
-0.9770002,-0.001151077
-0.9760002,-0.001145253
-0.9750002,-0.001137896
-0.9740002,-0.001129006
-0.9730002,-0.001123488
-0.9720002,-0.001115211
-0.9710003,-0.001106934
-0.9700002,-0.001101416
-0.9690002,-0.001092833
-0.9680002,-0.001085169
-0.9670002,-0.001078119
-0.9660002,-0.001071375
-0.9650002,-0.001063711
-0.9640002,-0.00105666
-0.9630002,-0.001049303
-0.9620003,-0.001040107
-0.9610002,-0.001035202
-0.9600002,-0.001026925
-0.9590002,-0.001019568
-0.9580002,-0.001013744
-0.9570003,-0.001004854
-0.9560002,-0.0009974964
-0.9550002,-0.0009907524
-0.9540002,-0.0009830886
-0.9530002,-0.0009763446
-0.9520002,-0.0009686808
-0.9510002,-0.0009600975
-0.9500002,-0.00095366
-0.9490002,-0.0009456897
-0.9480003,-0.0009367999
-0.9470002,-0.0009322016
-0.9460002,-0.0009245379
-0.9450002,-0.0009153415
-0.9440002,-0.0009092105
-0.9430002,-0.0009024665
-0.9420002,-0.0008929634
-0.9410002,-0.0008868325
-0.9400002,-0.000880395
-0.9390002,-0.000870892
-0.9380002,-0.0008659872
-0.9370002,-0.0008570973
-0.9360002,-0.0008497401
-0.9350002,-0.0008429961
-0.9340003,-0.0008341062
-0.9330002,-0.0008279752
-0.9320002,-0.0008209246
-0.9310002,-0.0008129543
-0.9300002,-0.0008080496
-0.9290002,-0.0008003859
-0.9280002,-0.0007924156
-0.9270002,-0.0007878174
-0.9260002,-0.0007798471
-0.9250003,-0.00077249
-0.9240002,-0.0007672787
-0.9230002,-0.0007608412
-0.9220002,-0.0007528709
-0.9210002,-0.000747353
-0.9200003,-0.0007412221
-0.9190002,-0.0007363172
-0.9180002,-0.000731106
-0.9170002,-0.000724975
-0.9160002,-0.000718231
-0.9150002,-0.0007145524
-0.9140002,-0.0007078083
-0.9130002,-0.000702597
-0.9120002,-0.0006983053
-0.9110003,-0.0006924809
-0.9100002,-0.0006884958
-0.9090002,-0.0006832844
-0.9080002,-0.0006762338
-0.9070002,-0.0006734749
-0.9060002,-0.0006691832
-0.9050002,-0.0006621326
-0.9040002,-0.0006593736
-0.9030002,-0.0006547754
-0.9020002,-0.0006483379
-0.9010002,-0.0006443528
-0.9000002,-0.0006406742
-0.8990002,-0.0006345432
-0.8980002,-0.0006320909
-0.8970003,-0.0006271861
-0.8960002,-0.0006213617
-0.8950002,-0.0006186027
-0.8940002,-0.0006124718
-0.8930002,-0.0006081801
-0.8920002,-0.0006032753
-0.8910002,-0.0005989837
-0.8900002,-0.0005934658
-0.8890002,-0.0005894807
-0.8880002,-0.0005848824
-0.8870002,-0.0005793645
-0.8860002,-0.0005753795
-0.8850002,-0.0005701681
-0.8840002,-0.0005640372
-0.8830003,-0.0005603586
-0.8820002,-0.0005548407
-0.8810002,-0.0005490163
-0.8800002,-0.0005453377
-0.8790002,-0.0005401264
-0.8780002,-0.000534302
-0.8770002,-0.0005297037
-0.8760002,-0.0005241859
-0.8750002,-0.0005180549
-0.8740003,-0.0005143763
-0.8730002,-0.0005082454
-0.8720002,-0.0005027275
-0.8710002,-0.0004978227
-0.8700002,-0.0004904656
-0.8690003,-0.0004864805
-0.8680002,-0.0004812691
-0.8670002,-0.0004745251
-0.8660002,-0.0004699268
-0.8650002,-0.0004637959
-0.8640002,-0.0004564387
-0.8630002,-0.0004518405
-0.8620002,-0.0004457095
-0.8610002,-0.0004395786
-0.8600003,-0.0004334476
-0.8590002,-0.0004270101
-0.8580002,-0.0004196529
-0.8570002,-0.0004159743
-0.8560002,-0.0004076975
-0.8550002,-0.0004000338
-0.8540002,-0.0003948225
-0.8530002,-0.0003871588
-0.8520002,-0.0003794951
-0.8510002,-0.0003739772
-0.8500002,-0.0003653939
-0.8490002,-0.0003574236
-0.8480002,-0.0003506796
-0.8470002,-0.0003424028
-0.8460003,-0.0003344325
-0.8450002,-0.0003267688
-0.8440002,-0.000318492
-0.8430002,-0.0003092955
-0.8420002,-0.0003013253
-0.8410002,-0.0002915157
-0.8400002,-0.0002829324
-0.8390002,-0.0002746556
-0.8380002,-0.0002636198
-0.8370003,-0.0002556496
-0.8360002,-0.0002455335
-0.8350002,-0.0002348043
-0.8340002,-0.0002262209
-0.8330002,-0.0002154918
-0.8320003,-0.0002041495
-0.8310002,-0.0001943399
-0.8300002,-0.0001826911
-0.8290002,-0.0001716554
-0.8280002,-0.0001597
-0.8270002,-0.0001495839
-0.8260002,-0.000137322
-0.8250002,-0.0001286571
-0.8240002,-0.0001169777
-0.8230003,-0.0001038574
-0.8220002,-9.171807E-05
-0.8210002,-7.914959E-05
-0.8200002,-6.550819E-05
-0.8190002,-5.235727E-05
-0.8180002,-3.929832E-05
-0.8170002,-2.498252E-05
-0.8160002,-1.262862E-05
-0.8150002,6.755735E-07
-0.8140002,1.517531E-05
-0.8130002,2.863277E-05
-0.8120002,4.432804E-05
-0.8110002,5.668194E-05
-0.8100002,7.151887E-05
-0.8090003,8.660105E-05
-0.8080002,9.975197E-05
-0.8070002,0.0001145889
-0.8060002,0.0001302228
-0.8050002,0.0001430366
-0.8040002,0.0001594982
-0.8030002,0.0001741206
-0.8020002,0.0001879459
-0.8010002,0.0002042543
-0.8000003,0.0001770328
-0.8009998,0.0001246743
-0.8019998,8.466979E-05
-0.8029998,4.748549E-05
-0.8039998,1.155804E-05
-0.8049998,-1.995512E-05
-0.8059998,-5.128435E-05
-0.8069998,-8.196984E-05
-0.8079998,-0.0001088541
-0.8089998,-0.0001364741
-0.8099998,-0.000163573
-0.8109998,-0.0001879436
-0.8119998,-0.0002123141
-0.8129998,-0.0002353666
-0.8139998,-0.0002572541
-0.8149998,-0.0002801226
-0.8159998,-0.0002982598
-0.8169998,-0.000318492
-0.8179998,-0.0003381111
-0.8189998,-0.0003592629
-0.8199998,-0.0003767362
-0.8209998,-0.0003951291
-0.8219998,-0.0004135219
-0.8229998,-0.0004306886
-0.8239998,-0.0004469357
-0.8249998,-0.0004637959
-0.8259998,-0.0004794298
-0.8269998,-0.0004959835
-0.8279998,-0.0005119239
-0.8289998,-0.000525412
-0.8299998,-0.0005407395
-0.8309998,-0.0005551472
-0.8319998,-0.0005683288
-0.8329998,-0.0005827366
-0.8339998,-0.0005965313
-0.8349998,-0.0006090997
-0.8359998,-0.0006222813
-0.8369998,-0.0006354629
-0.8379998,-0.0006471117
-0.8389998,-0.0006593736
-0.8399998,-0.0006719421
-0.8409998,-0.0006829779
-0.8419998,-0.0006949333
-0.8429998,-0.0007075017
-0.8439998,-0.0007170048
-0.8449998,-0.0007295733
-0.8459998,-0.0007403024
-0.8469998,-0.0007504185
-0.8479998,-0.0007611477
-0.8489998,-0.0007718769
-0.8499998,-0.0007810733
-0.8509998,-0.0007918025
-0.8519998,-0.0008025317
-0.8529998,-0.0008117282
-0.8539998,-0.0008218443
-0.8549998,-0.0008313472
-0.8559998,-0.0008390109
-0.8569998,-0.0008506598
-0.8579998,-0.0008586301
-0.8589998,-0.0008672134
-0.8599998,-0.0008782492
-0.8609998,-0.0008862194
-0.8619998,-0.0008941896
-0.8629998,-0.0009046123
-0.8639998,-0.000912276
-0.8649998,-0.0009202462
-0.8659998,-0.0009303623
-0.8669998,-0.0009380261
-0.8679998,-0.0009459963
-0.8689998,-0.0009554993
-0.8699998,-0.0009637761
-0.8709998,-0.0009711333
-0.8719998,-0.0009797165
-0.8729998,-0.0009886065
-0.8739998,-0.0009953505
-0.8749998,-0.001003321
-0.8759998,-0.001012517
-0.8769998,-0.001019261
-0.8779998,-0.001027538
-0.8789998,-0.001036735
-0.8799998,-0.001042866
-0.8809998,-0.001051756
-0.8819998,-0.001060032
-0.8829998,-0.00106647
-0.8839998,-0.00107536
-0.8849998,-0.00108241
-0.8859998,-0.001090074
-0.8869998,-0.001098657
-0.8879998,-0.001105708
-0.8889998,-0.001114291
-0.8899998,-0.001122262
-0.8909998,-0.001129619
-0.8919998,-0.001136056
-0.8929998,-0.001146479
-0.8939998,-0.001151997
-0.8949998,-0.001160274
-0.8959998,-0.00116855
-0.8969998,-0.001175294
-0.8979998,-0.001182958
-0.8989998,-0.001192768
-0.8999998,-0.001199205
-0.9009998,-0.001206869
-0.9019998,-0.001214839
-0.9029998,-0.001222503
-0.9039998,-0.00122986
-0.9049998,-0.00123875
-0.9059998,-0.001246414
-0.9069998,-0.001253771
-0.9079998,-0.001262661
-0.9089998,-0.001270018
-0.9099998,-0.001277375
-0.9109998,-0.001286878
-0.9119998,-0.001294235
-0.9129998,-0.001300673
-0.9139998,-0.001309869
-0.9149998,-0.001317839
-0.9159998,-0.001325503
-0.9169998,-0.001333473
-0.9179998,-0.001342363
-0.9189998,-0.001348494
-0.9199998,-0.001357078
-0.9209998,-0.001367194
-0.9219998,-0.001373018
-0.9229998,-0.001382215
-0.9239998,-0.001391411
-0.9249998,-0.001397542
-0.9259998,-0.001407045
-0.9269998,-0.001414709
-0.9279998,-0.001422679
-0.9289998,-0.001431262
-0.9299998,-0.001439232
-0.9309998,-0.001446896
-0.9319998,-0.001455786
-0.9329998,-0.001463143
-0.9339998,-0.001471727
-0.9349998,-0.001480617
-0.9359998,-0.001487054
-0.9369998,-0.001495944
-0.9379998,-0.00150514
-0.9389998,-0.001510352
-0.9399998,-0.001522001
-0.9409998,-0.001529051
-0.9419998,-0.001534569
-0.9429998,-0.001544992
-0.9439998,-0.001551736
-0.9449998,-0.001560319
-0.9459998,-0.001570435
-0.9469998,-0.001576566
-0.9479998,-0.001584536
-0.9489998,-0.001594039
-0.9499998,-0.001600783
-0.9509998,-0.00160998
-0.9519998,-0.001618257
-0.9529998,-0.001624081
-0.9539998,-0.001632358
-0.9549998,-0.001641861
-0.9559998,-0.001648298
-0.9569998,-0.001657188
-0.9579998,-0.001666691
-0.9589998,-0.001671903
-0.9599998,-0.001679873
-0.9609998,-0.001690909
-0.9619998,-0.001694587
-0.9629998,-0.001704703
-0.9639998,-0.0017139
-0.9649998,-0.001719418
-0.9659998,-0.001728614
-0.9669998,-0.001736278
-0.9679998,-0.001742409
-0.9689998,-0.001752218
-0.9699998,-0.001758962
-0.9709998,-0.001766013
-0.9719998,-0.001774903
-0.9729998,-0.001780727
-0.9739998,-0.001789617
-0.9749998,-0.001798507
-0.9759998,-0.001803718
-0.9769998,-0.001812302
-0.9779998,-0.001821192
-0.9789998,-0.001827323
-0.9799998,-0.001836213
-0.9809998,-0.001843876
-0.9819998,-0.001848781
-0.9829998,-0.001859817
-0.9839998,-0.001865641
-0.9849998,-0.001871466
-0.9859998,-0.001881275
-0.9869998,-0.001887713
-0.9879998,-0.001893537
-0.9889998,-0.00190396
-0.9899998,-0.001909171
-0.9909998,-0.001916528
-0.9919998,-0.001925725
-0.9929998,-0.001933082
-0.9939998,-0.00193768
-0.9949998,-0.001947796
-0.9959998,-0.001954234
-0.9969998,-0.001959138
-0.9979998,-0.001968641
-0.9989998,-0.001976918
-0.9999998,-0.00198029
-1.001,-0.001991019
-1.002,-0.00199715
-1.003,-0.002001135
-1.004,-0.002013397
-1.005,-0.002017076
-1.006,-0.00202382
-1.007,-0.002034549
-1.008,-0.002038534
-1.009,-0.002046811
-1.01,-0.002055088
-1.011,-0.002059686
-1.012,-0.002068576
-1.013,-0.002076546
-1.014,-0.002080838
-1.015,-0.002090034
-1.016,-0.002097085
-1.017,-0.002101683
-1.018,-0.002111186
-1.019,-0.002118237
-1.02,-0.002124981
-1.021,-0.002134484
-1.022,-0.002140615
-1.023,-0.00214368
-1.024,-0.002158088
-1.025,-0.002162073
-1.026,-0.002168511
-1.027,-0.002178627
-1.028,-0.002184451
-1.029,-0.002190276
-1.03,-0.002202231
-1.031,-0.002208669
-1.032,-0.00221388
-1.033,-0.002223383
-1.034,-0.002231966
-1.035,-0.002238097
-1.036,-0.002249439
-1.037,-0.002257716
-1.038,-0.002264767
-1.039,-0.002274577
-1.04,-0.002281934
-1.041,-0.002292356
-1.042,-0.002301859
-1.043,-0.002310749
-1.044,-0.002320865
-1.045,-0.002330675
-1.046,-0.002340791
-1.047,-0.002350294
-1.048,-0.002362862
-1.049,-0.002372978
-1.05,-0.002383401
-1.051,-0.002395663
-1.052,-0.002408845
-1.053,-0.002419267
-1.054,-0.002432449
-1.055,-0.002447776
-1.056,-0.002456973
-1.057,-0.002475059
-1.058,-0.002488241
-1.059,-0.002501729
-1.06,-0.002518589
-1.061,-0.002532997
-1.062,-0.002547711
-1.063,-0.002567024
-1.064,-0.002583271
-1.065,-0.002599824
-1.066,-0.002620056
-1.067,-0.00263753
-1.068,-0.002656842
-1.069,-0.002678607
-1.07,-0.002696387
-1.071,-0.002719378
-1.072,-0.002740836
-1.073,-0.002760149
-1.074,-0.002783753
-1.075,-0.002807664
-1.076,-0.002828203
-1.077,-0.002853646
-1.078,-0.002876331
-1.079,-0.002899322
-1.08,-0.002924459
-1.081,-0.002948063
-1.082,-0.002968908
-1.083,-0.002994965
-1.084,-0.003018569
-1.085,-0.003004056
-1.086,-0.003025514
-1.087,-0.003046973
-1.088,-0.003065366
-1.089,-0.003086824
-1.09,-0.003105217
-1.091,-0.003120545
-1.092,-0.003142003
-1.093,-0.003154265
-1.094,-0.003169592
-1.095,-0.003184919
-1.096,-0.003191051
-1.097,-0.003206378
-1.098,-0.003215575
-1.099,-0.003221706
-1.1,-0.003227836
-1.101,-0.003233967
-1.102,-0.003237033
-1.103,-0.003237033
-1.104,-0.003240098
-1.105,-0.003240098
-1.106,-0.003237033
-1.107,-0.003237033
-1.108,-0.003233967
-1.109,-0.003230902
-1.11,-0.003227836
-1.111,-0.003221706
-1.112,-0.00321864
-1.113,-0.003212509
-1.114,-0.003212509
-1.115,-0.003203312
-1.116,-0.003200247
-1.117,-0.003197182
-1.118,-0.003197182
-1.119,-0.003191051
-1.12,-0.003184919
-1.121,-0.003184919
-1.122,-0.003178789
-1.123,-0.003175723
-1.124,-0.003178789
-1.125,-0.003175723
-1.126,-0.003175723
-1.127,-0.003175723
-1.128,-0.003172658
-1.129,-0.003175723
-1.13,-0.003175723
-1.131,-0.003175723
-1.132,-0.003178789
-1.133,-0.003181854
-1.134,-0.003181854
-1.135,-0.003184919
-1.136,-0.003191051
-1.137,-0.003191051
-1.138,-0.003194116
-1.139,-0.003200247
-1.14,-0.003200247
-1.141,-0.003209443
-1.142,-0.003212509
-1.143,-0.00321864
-1.144,-0.003221706
-1.145,-0.003230902
-1.146,-0.003233967
-1.147,-0.003237033
-1.148,-0.003246229
-1.149,-0.003249295
-1.15,-0.003255426
-1.151,-0.003264622
-1.152,-0.003264622
-1.153,-0.003276884
-1.154,-0.00327995
-1.155,-0.003289146
-1.156,-0.003298342
-1.157,-0.003301408
-1.158,-0.003310604
-1.159,-0.003319801
-1.16,-0.003322866
-1.161,-0.003332063
-1.162,-0.003341259
-1.163,-0.003344325
-1.164,-0.003353521
-1.165,-0.003365783
-1.166,-0.003368848
-1.167,-0.00338111
-1.168,-0.003390307
-1.169,-0.003390307
-1.17,-0.003405634
-1.171,-0.003411765
-1.172,-0.003417896
-1.173,-0.003430158
-1.174,-0.003436289
-1.175,-0.00344242
-1.176,-0.003454682
-1.177,-0.003460813
-1.178,-0.003473075
-1.179,-0.003482271
-1.18,-0.003485337
-1.181,-0.003497599
-1.182,-0.003506796
-1.183,-0.003515992
-1.184,-0.003528254
-1.185,-0.00353745
-1.186,-0.00353745
-1.187,-0.003555843
-1.188,-0.003561974
-1.189,-0.003565039
-1.19,-0.003580367
-1.191,-0.003589563
-1.192,-0.003592629
-1.193,-0.003611021
-1.194,-0.003614087
-1.195,-0.003623284
-1.196,-0.003638611
-1.197,-0.003641677
-1.198,-0.003650873
-1.199,-0.0036662
-1.2,-0.003672331
-1.201,-0.003681528
-1.202,-0.003696855
-1.203,-0.003699921
-1.204,-0.003712183
-1.205,-0.003724444
-1.206,-0.003730575
-1.207,-0.003742838
-1.208,-0.003755099
-1.209,-0.003758165
-1.21,-0.003776558
-1.211,-0.003785754
-1.212,-0.003791885
-1.213,-0.003807213
-1.214,-0.003816409
-1.215,-0.003825605
-1.216,-0.003837867
-1.217,-0.003847064
-1.218,-0.00385626
-1.219,-0.003871588
-1.22,-0.003880784
-1.221,-0.003893046
-1.222,-0.003905308
-1.223,-0.00391757
-1.224,-0.003926767
-1.225,-0.003942094
-1.226,-0.003957421
-1.227,-0.003963552
-1.228,-0.00397888
-1.229,-0.003994207
-1.23,-0.004003403
-1.231,-0.004018731
-1.232,-0.004030993
-1.233,-0.00404632
-1.234,-0.004061648
-1.235,-0.004073909
-1.236,-0.004086172
-1.237,-0.00410763
-1.238,-0.004119892
-1.239,-0.004132153
-1.24,-0.004150547
-1.241,-0.004165874
-1.242,-0.004181202
-1.243,-0.004199594
-1.244,-0.004214922
-1.245,-0.004233315
-1.246,-0.004251707
-1.247,-0.004267035
-1.248,-0.004288493
-1.249,-0.004306886
-1.25,-0.004322214
-1.251,-0.004346738
-1.252,-0.004371261
-1.253,-0.004386589
-1.254,-0.004411113
-1.255,-0.004435637
-1.256,-0.004447898
-1.257,-0.004481619
-1.258,-0.004503077
-1.259,-0.00452147
-1.26,-0.00455519
-1.261,-0.004579714
-1.262,-0.004601172
-1.263,-0.004634893
-1.264,-0.004659417
-1.265,-0.004690072
-1.266,-0.004723792
-1.267,-0.004751381
-1.268,-0.004785101
-1.269,-0.004821887
-1.27,-0.004852542
-1.271,-0.004889328
-1.272,-0.004926114
-1.273,-0.004959834
-1.274,-0.005002751
-1.275,-0.005042602
-1.276,-0.005082454
-1.277,-0.00512537
-1.278,-0.005171353
-1.279,-0.005217335
-1.28,-0.005263316
-1.281,-0.00531543
-1.282,-0.005364478
-1.283,-0.005416591
-1.284,-0.005474835
-1.285,-0.005523883
-1.286,-0.005588258
-1.287,-0.005652633
-1.288,-0.005710877
-1.289,-0.005778318
-1.29,-0.005845758
-1.291,-0.005910133
-1.292,-0.005986771
-1.293,-0.006060342
-1.294,-0.006136979
-1.295,-0.006219747
-1.296,-0.006302515
-1.297,-0.006382218
-1.298,-0.006483379
-1.299,-0.006569212
-1.3,-0.006664242
-1.301,-0.006768468
-1.302,-0.006866564
-1.303,-0.006973856
-1.304,-0.007087279
-1.305,-0.007200702
-1.306,-0.007323321
-1.307,-0.00744594
-1.308,-0.007565494
-1.309,-0.007700375
-1.31,-0.007832191
-1.311,-0.007970138
-1.312,-0.008123412
-1.313,-0.008270555
-1.314,-0.008417699
-1.315,-0.008583235
-1.316,-0.008745705
-1.317,-0.008911241
-1.318,-0.009092105
-1.319,-0.009266837
-1.32,-0.009453831
-1.321,-0.009643891
-1.322,-0.009833951
-1.323,-0.01003627
-1.324,-0.01024166
-1.325,-0.01044705
-1.326,-0.0106647
-1.327,-0.01088541
-1.328,-0.01110613
-1.329,-0.01133297
-1.33,-0.01157208
-1.331,-0.01181119
-1.332,-0.01205949
-1.333,-0.01231699
-1.334,-0.01256836
-1.335,-0.01283506
-1.336,-0.01309869
-1.337,-0.01336539
-1.338,-0.01364435
-1.339,-0.01391717
-1.34,-0.01419307
-1.341,-0.01447816
-1.342,-0.01476018
-1.343,-0.01504834
-1.344,-0.01534262
-1.345,-0.01563691
-1.346,-0.01592813
-1.347,-0.01623161
-1.348,-0.0165351
-1.349,-0.01684164
-1.35,-0.01715739
-1.351,-0.017467
-1.352,-0.01777355
-1.353,-0.01809543
-1.354,-0.01840197
-1.355,-0.01872385
-1.356,-0.01904573
-1.357,-0.01936454
-1.358,-0.01968335
-1.359,-0.02001135
-1.36,-0.02033323
-1.361,-0.02066123
-1.362,-0.02099844
-1.363,-0.02133258
-1.364,-0.02166978
-1.365,-0.02201005
-1.366,-0.02234419
-1.367,-0.02267219
-1.368,-0.02300633
-1.369,-0.02334353
-1.37,-0.0236746
-1.371,-0.02401794
-1.372,-0.02437047
-1.373,-0.02469234
-1.374,-0.02505101
-1.375,-0.02540354
-1.376,-0.02573767
-1.377,-0.0260902
-1.378,-0.02642741
-1.379,-0.02677994
-1.38,-0.0271294
-1.381,-0.02746661
-1.382,-0.027813
-1.383,-0.02816247
-1.384,-0.02849967
-1.385,-0.02885833
-1.386,-0.029217
-1.387,-0.02954194
-1.388,-0.02989753
-1.389,-0.03024393
-1.39,-0.03071497
-1.391,-0.03105217
-1.392,-0.03138937
-1.393,-0.03178789
-1.394,-0.03212509
-1.395,-0.03249295
-1.396,-0.03286081
-1.397,-0.03322866
-1.398,-0.03356587
-1.399,-0.03393373
-1.4,-0.03430158
-1.401,-0.03463879
-1.402,-0.03497599
-1.403,-0.0353745
-1.404,-0.03571171
-1.405,-0.03607956
-1.406,-0.03647808
-1.407,-0.03681528
-1.408,-0.03718314
-1.409,-0.037551
-1.41,-0.0378882
-1.411,-0.03828671
-1.412,-0.03865457
-1.413,-0.03899177
-1.414,-0.03935963
-1.415,-0.03975814
-1.416,-0.04009534
-1.417,-0.04049386
-1.418,-0.04083106
-1.419,-0.04116827
-1.42,-0.04156678
-1.421,-0.04190398
-1.422,-0.04227184
-1.423,-0.04267035
-1.424,-0.04303821
-1.425,-0.04340607
-1.426,-0.04377393
-1.427,-0.04414178
-1.428,-0.04447899
-1.429,-0.04484684
-1.43,-0.0452147
-1.431,-0.04561321
-1.432,-0.04598107
-1.433,-0.04631827
-1.434,-0.04671679
-1.435,-0.04708464
-1.436,-0.04745251
-1.437,-0.04782036
-1.438,-0.04821887
-1.439,-0.04858673
-1.44,-0.04895459
-1.441,-0.04932245
-1.442,-0.04965965
-1.443,-0.05002751
-1.444,-0.05039537
-1.445,-0.05076323
-1.446,-0.05116174
-1.447,-0.05152959
-1.448,-0.05189746
-1.449,-0.05226531
-1.45,-0.05263317
-1.451,-0.05300103
-1.452,-0.05339954
-1.453,-0.05376739
-1.454,-0.05413526
-1.455,-0.05453377
-1.456,-0.05487097
-1.457,-0.05526949
-1.458,-0.055668
-1.459,-0.05603585
-1.46,-0.05643437
-1.461,-0.05683288
-1.462,-0.05720074
-1.463,-0.05759925
-1.464,-0.05796711
-1.465,-0.05833497
-1.466,-0.05873348
-1.467,-0.05910134
-1.468,-0.05946919
-1.469,-0.05983705
-1.47,-0.06023557
-1.471,-0.06060342
-1.472,-0.06103259
-1.473,-0.06140045
-1.474,-0.0617683
-1.475,-0.06216682
-1.476,-0.06256533
-1.477,-0.06293319
-1.478,-0.06336236
-1.479,-0.06373022
-1.48,-0.06409808
-1.481,-0.06449659
-1.482,-0.06486445
-1.483,-0.06526296
-1.484,-0.06566148
-1.485,-0.06602933
-1.486,-0.06639718
-1.487,-0.0667957
-1.488,-0.06719422
-1.489,-0.06759273
-1.49,-0.06796058
-1.491,-0.0683591
-1.492,-0.06875761
-1.493,-0.06915613
-1.494,-0.06952398
-1.495,-0.06992249
-1.496,-0.07032101
-1.497,-0.07071952
-1.498,-0.07108738
-1.499,-0.07148589
-1.5,-0.07157785
-1.499,-0.07114869
-1.498,-0.07071952
-1.497,-0.0702597
-1.496,-0.06979987
-1.495,-0.06940136
-1.494,-0.06894153
-1.493,-0.06848171
-1.492,-0.0680832
-1.491,-0.06762338
-1.49,-0.06716356
-1.489,-0.06676505
-1.488,-0.06633588
-1.487,-0.06587606
-1.486,-0.06547754
-1.485,-0.06501772
-1.484,-0.06458855
-1.483,-0.06415939
-1.482,-0.06373022
-1.481,-0.06330105
-1.48,-0.06287188
-1.479,-0.06244272
-1.478,-0.06201354
-1.477,-0.06158438
-1.476,-0.06118587
-1.475001,-0.06075669
-1.474,-0.06032753
-1.473,-0.05992902
-1.472,-0.05949985
-1.471,-0.05907068
-1.47,-0.05864152
-1.469,-0.05821235
-1.468,-0.05781383
-1.467,-0.05741533
-1.466,-0.05701681
-1.465,-0.05658764
-1.464,-0.05615847
-1.463,-0.05572931
-1.462,-0.05533079
-1.461,-0.05493228
-1.46,-0.05450311
-1.459,-0.0541046
-1.458,-0.05373674
-1.457,-0.05327692
-1.456,-0.05290907
-1.455,-0.05251055
-1.454,-0.05205073
-1.453,-0.05168287
-1.452,-0.05128435
-1.451,-0.05085519
-1.45,-0.05048734
-1.449,-0.05005816
-1.448,-0.04965965
-1.447,-0.04929179
-1.446,-0.04886262
-1.445,-0.04846412
-1.444,-0.04803495
-1.443,-0.04763643
-1.442,-0.04723792
-1.441,-0.04687006
-1.44,-0.0464409
-1.439,-0.04604238
-1.438,-0.04567453
-1.437,-0.04527601
-1.436,-0.0448775
-1.435,-0.04447899
-1.434,-0.04408047
-1.433,-0.04368196
-1.432,-0.0433141
-1.431,-0.04291559
-1.43,-0.04254773
-1.429,-0.04217988
-1.428,-0.04178136
-1.427,-0.0414135
-1.426,-0.04101499
-1.425,-0.04058582
-1.424,-0.04021796
-1.423,-0.03981945
-1.422,-0.0394516
-1.421,-0.03908373
-1.42,-0.03868522
-1.419,-0.03831736
-1.418,-0.03794951
-1.417,-0.03758165
-1.416,-0.03718314
-1.415,-0.03681528
-1.414,-0.03644742
-1.413,-0.03604891
-1.412,-0.03571171
-1.411,-0.03534385
-1.41,-0.03497599
-1.409,-0.03460813
-1.408,-0.03424027
-1.407,-0.03387242
-1.406,-0.03353521
-1.405,-0.0331367
-1.404,-0.03276884
-1.403,-0.03240098
-1.402,-0.03203313
-1.401,-0.03169592
-1.4,-0.03132806
-1.399,-0.03096021
-1.398,-0.030623
-1.397,-0.0302858
-1.396,-0.02991794
-1.395,-0.02955008
-1.394,-0.02921288
-1.393,-0.02887568
-1.392,-0.02853847
-1.391,-0.02820127
-1.39,-0.02786407
-1.389,-0.02752687
-1.388,-0.02718966
-1.387,-0.02682181
-1.386,-0.02651526
-1.385,-0.02617805
-1.384,-0.02584085
-1.383,-0.02550365
-1.382,-0.02516645
-1.381,-0.02482924
-1.38,-0.02452269
-1.379,-0.02418549
-1.378,-0.02384829
-1.377,-0.02354174
-1.376,-0.02323519
-1.375,-0.02289799
-1.374,-0.02259144
-1.373,-0.02228489
-1.372,-0.02197834
-1.371,-0.02167179
-1.37,-0.02136525
-1.369,-0.0210587
-1.368,-0.02075215
-1.367,-0.0204456
-1.366,-0.02016971
-1.365,-0.01986316
-1.364,-0.01955661
-1.363,-0.01928072
-1.362,-0.01900483
-1.361,-0.01872893
-1.36,-0.01845304
-1.359,-0.01814649
-1.358,-0.0178706
-1.357,-0.0175947
-1.356,-0.01731881
-1.355,-0.01704292
-1.354,-0.01679768
-1.353,-0.01652178
-1.352,-0.01624589
-1.351,-0.01600065
-1.350001,-0.01584843
-1.349,-0.01559399
-1.348,-0.01534569
-1.347,-0.01510045
-1.346,-0.01485215
-1.345,-0.01460997
-1.344,-0.01437087
-1.343,-0.01412869
-1.342,-0.01390185
-1.341,-0.013675
-1.34,-0.01343896
-1.339,-0.01322437
-1.338,-0.01299446
-1.337,-0.01278601
-1.336,-0.01257449
-1.335,-0.01235684
-1.334,-0.01215146
-1.333,-0.0119522
-1.332,-0.01173455
-1.331,-0.01153836
-1.33,-0.01134523
-1.329,-0.01114904
-1.328,-0.01096205
-1.327,-0.01077199
-1.326,-0.01058806
-1.325,-0.0104072
-1.324,-0.01023247
-1.323,-0.01005773
-1.322,-0.009892195
-1.321,-0.009726659
-1.32,-0.009558057
-1.319,-0.009401718
-1.318,-0.009245379
-1.317,-0.009089039
-1.316,-0.008941895
-1.315,-0.008791687
-1.314,-0.008644544
-1.313,-0.008506597
-1.312,-0.00836865
-1.311,-0.008227638
-1.31,-0.008098888
-1.309,-0.007967073
-1.308,-0.007832191
-1.307,-0.007715703
-1.306,-0.007593083
-1.305,-0.007473529
-1.304,-0.007366238
-1.303,-0.007249749
-1.302,-0.007136327
-1.301,-0.007032101
-1.3,-0.006924808
-1.299,-0.006826713
-1.298,-0.006728617
-1.297,-0.006627456
-1.296,-0.006532426
-1.295,-0.006446593
-1.294,-0.006351563
-1.293,-0.00626573
-1.292,-0.006186027
-1.291,-0.006100194
-1.29,-0.006020491
-1.289,-0.005943854
-1.288,-0.005867217
-1.287,-0.00579058
-1.286,-0.005723139
-1.285,-0.005649568
-1.284,-0.005582127
-1.283,-0.005517752
-1.282,-0.005450311
-1.281,-0.005389001
-1.28,-0.005327692
-1.279,-0.005266382
-1.278,-0.005208138
-1.277,-0.005152959
-1.276,-0.005097781
-1.275,-0.005045668
-1.274,-0.004990489
-1.273,-0.004938376
-1.272,-0.004889328
-1.271,-0.00484028
-1.27,-0.004794298
-1.269,-0.00474525
-1.268,-0.004702333
-1.267,-0.004659417
-1.266,-0.004613434
-1.265,-0.004576649
-1.264,-0.004536797
-1.263,-0.004493881
-1.262,-0.004457095
-1.261,-0.004420309
-1.26,-0.004383523
-1.259,-0.004346738
-1.258,-0.004313017
-1.257,-0.004276231
-1.256,-0.004245576
-1.255,-0.004214922
-1.254,-0.004178136
-1.253,-0.004147481
-1.252,-0.004119892
-1.251,-0.004086172
-1.25,-0.004058582
-1.249,-0.004027927
-1.248,-0.004003403
-1.247,-0.003972749
-1.246,-0.003945159
-1.245,-0.003920636
-1.244,-0.003896111
-1.243,-0.003868522
-1.242,-0.003843998
-1.241,-0.00382254
-1.24,-0.003798016
-1.239,-0.003773492
-1.238,-0.003748968
-1.237,-0.00372751
-1.236,-0.003702986
-1.235,-0.003684593
-1.234,-0.003660069
-1.233,-0.003638611
-1.232,-0.003620218
-1.231,-0.00359876
-1.23,-0.003577302
-1.229,-0.003555843
-1.228,-0.00353745
-1.227,-0.003519057
-1.226,-0.00350373
-1.225001,-0.003479206
-1.224,-0.003466944
-1.223,-0.003445486
-1.222,-0.003427093
-1.221,-0.003414831
-1.22,-0.003393373
-1.219,-0.003378045
-1.218,-0.003362718
-1.217,-0.003341259
-1.216,-0.003328997
-1.215,-0.00331367
-1.214,-0.003295277
-1.213,-0.003283015
-1.212,-0.003267688
-1.211,-0.003246229
-1.21,-0.003230902
-1.209,-0.003221706
-1.208,-0.003203312
-1.207,-0.003187985
-1.206,-0.003178789
-1.205,-0.003160396
-1.204,-0.003142003
-1.203,-0.003135872
-1.202,-0.003117479
-1.201,-0.003105217
-1.2,-0.003096021
-1.199,-0.003074562
-1.198,-0.003068431
-1.197,-0.003056169
-1.196,-0.003037777
-1.195,-0.00302858
-1.194,-0.003016318
-1.193,-0.002997925
-1.192,-0.002988729
-1.191,-0.002976467
-1.19,-0.002964205
-1.189,-0.002955008
-1.188,-0.002936616
-1.187,-0.002927419
-1.186,-0.002921288
-1.185,-0.002902895
-1.184,-0.002893699
-1.183,-0.002884502
-1.182,-0.00286611
-1.181,-0.002863044
-1.18,-0.002850782
-1.179,-0.002832389
-1.178,-0.002826258
-1.177,-0.002813996
-1.176,-0.0028048
-1.175,-0.002795603
-1.174,-0.002783341
-1.173,-0.002774145
-1.172,-0.002764949
-1.171,-0.002749621
-1.17,-0.00274349
-1.169,-0.002734293
-1.168,-0.002722032
-1.167,-0.002712835
-1.166,-0.002703639
-1.165,-0.002691377
-1.164,-0.002679115
-1.163,-0.002676049
-1.162,-0.002660722
-1.161,-0.002651526
-1.16,-0.002645395
-1.159,-0.002633133
-1.158,-0.002620871
-1.157,-0.002617805
-1.156,-0.002605543
-1.155,-0.002593281
-1.154,-0.002584085
-1.153,-0.002574889
-1.152,-0.002565692
-1.151,-0.002559561
-1.15,-0.002541168
-1.149,-0.002541168
-1.148,-0.002528906
-1.147,-0.002516645
-1.146,-0.002513579
-1.145,-0.002501317
-1.144,-0.00249212
-1.143,-0.00248599
-1.142,-0.002470662
-1.141,-0.002461466
-1.14,-0.002455335
-1.139,-0.002443073
-1.138,-0.002436942
-1.137,-0.002427745
-1.136,-0.002415484
-1.135,-0.002409352
-1.134,-0.002400156
-1.133,-0.00239096
-1.132,-0.002381763
-1.131,-0.002378698
-1.13,-0.002366436
-1.129,-0.002357239
-1.128,-0.002351108
-1.127,-0.002338846
-1.126,-0.002332716
-1.125,-0.002323519
-1.124,-0.002308191
-1.123,-0.002305126
-1.122,-0.00229593
-1.121,-0.002283668
-1.12,-0.002280602
-1.119,-0.00226834
-1.118,-0.002259144
-1.117,-0.002253013
-1.116,-0.002243817
-1.115,-0.002231555
-1.114,-0.002225423
-1.113,-0.002216227
-1.112,-0.002203965
-1.111,-0.002197834
-1.11,-0.002188638
-1.109,-0.002179441
-1.108,-0.002170245
-1.107,-0.002157983
-1.106,-0.002154917
-1.105,-0.002142655
-1.104,-0.002133459
-1.103,-0.002127328
-1.102,-0.002118132
-1.101,-0.00210587
-1.100001,-0.002099739
-1.099,-0.002087477
-1.098,-0.00207828
-1.097,-0.002069084
-1.096,-0.002059887
-1.095,-0.002050691
-1.094,-0.002041495
-1.093,-0.002032298
-1.092,-0.002026167
-1.091,-0.00201084
-1.09,-0.002001643
-1.089,-0.001995512
-1.088,-0.001986316
-1.087,-0.001970988
-1.086,-0.001964858
-1.085,-0.001958727
-1.084,-0.001943399
-1.083,-0.001940334
-1.082,-0.001928072
-1.081,-0.00191581
-1.08,-0.001909679
-1.079,-0.001897417
-1.078,-0.00188822
-1.077,-0.001885155
-1.076,-0.001872893
-1.075,-0.001860631
-1.074,-0.0018545
-1.073,-0.001842238
-1.072,-0.001833042
-1.071,-0.001823845
-1.07,-0.001814649
-1.069,-0.001802387
-1.068,-0.00179319
-1.067,-0.001783994
-1.066,-0.001771732
-1.065,-0.001762536
-1.064,-0.001756405
-1.063,-0.001741077
-1.062,-0.001731881
-1.061,-0.001722684
-1.06,-0.001713488
-1.059,-0.001704292
-1.058,-0.00169203
-1.057,-0.001682833
-1.056,-0.001673637
-1.055,-0.001661375
-1.054,-0.001652178
-1.053,-0.001642982
-1.052,-0.00163072
-1.051,-0.001621523
-1.05,-0.001609262
-1.049,-0.001600065
-1.048,-0.001622855
-1.047,-0.001616111
-1.046,-0.001603236
-1.045,-0.001594346
-1.044,-0.001584843
-1.043,-0.001572274
-1.042,-0.001563385
-1.041,-0.001553269
-1.04,-0.001540393
-1.039,-0.001532423
-1.038,-0.001521081
-1.037,-0.001508819
-1.036,-0.001499622
-1.035,-0.001490426
-1.034,-0.001476018
-1.033,-0.001468048
-1.032,-0.001458545
-1.031,-0.001444137
-1.03,-0.001438006
-1.029,-0.00142789
-1.028,-0.001411337
-1.027,-0.001407352
-1.026,-0.001394477
-1.025,-0.001381601
-1.024,-0.001374551
-1.023,-0.001362289
-1.022,-0.00134972
-1.021,-0.001343896
-1.02,-0.001330714
-1.019,-0.001319372
-1.018,-0.001312935
-1.017,-0.001300673
-1.016,-0.001289637
-1.015,-0.001281667
-1.014,-0.001270938
-1.013,-0.001260515
-1.012,-0.001251012
-1.011,-0.001241509
-1.01,-0.001229553
-1.009,-0.001222503
-1.008,-0.001214533
-1.007,-0.001200431
-1.006,-0.001193687
-1.005,-0.001183571
-1.004,-0.001172229
-1.003,-0.001166098
-1.002,-0.001154449
-1.001,-0.001146172
-1,-0.001136669
-0.9990004,-0.001126553
-0.9980004,-0.001118583
-0.9970005,-0.00111
-0.9960005,-0.001098657
-0.9950004,-0.001091913
-0.9940004,-0.001081491
-0.9930004,-0.001072601
-0.9920005,-0.00106555
-0.9910004,-0.001054514
-0.9900004,-0.001047157
-0.9890004,-0.001040107
-0.9880005,-0.001026312
-0.9870005,-0.001020794
-0.9860004,-0.00101405
-0.9850004,-0.001000562
-0.9840004,-0.000995044
-0.9830005,-0.0009870738
-0.9820005,-0.0009751184
-0.9810004,-0.0009680677
-0.9800004,-0.0009600975
-0.9790004,-0.0009493683
-0.9780005,-0.0009435439
-0.9770004,-0.0009361868
-0.9760004,-0.0009226986
-0.9750004,-0.00091902
-0.9740005,-0.0009092105
-0.9730005,-0.000899401
-0.9720004,-0.0008926569
-0.9710004,-0.0008825408
-0.9700004,-0.0008730378
-0.9690005,-0.0008653741
-0.9680004,-0.0008592432
-0.9670004,-0.0008488205
-0.9660004,-0.0008405437
-0.9650005,-0.0008337997
-0.9640005,-0.0008218443
-0.9630004,-0.000817246
-0.9620004,-0.0008083562
-0.9610004,-0.0007973204
-0.9600005,-0.000791496
-0.9590005,-0.0007804602
-0.9580004,-0.0007718769
-0.9570004,-0.000766359
-0.9560004,-0.0007547102
-0.9550005,-0.0007479661
-0.9540004,-0.0007387697
-0.9530004,-0.0007301863
-0.9520004,-0.0007228291
-0.9510005,-0.0007148589
-0.9500005,-0.0007032101
-0.9490004,-0.0006989184
-0.9480004,-0.0006884958
-0.9470004,-0.0006799124
-0.9460005,-0.0006722487
-0.9450005,-0.0006639719
-0.9440004,-0.0006553886
-0.9430004,-0.0006486445
-0.9420004,-0.000639448
-0.9410005,-0.000629945
-0.9400004,-0.0006228944
-0.9390004,-0.0006140045
-0.9380004,-0.0006063408
-0.9370005,-0.0005986771
-0.9360005,-0.0005904003
-0.9350004,-0.0005833497
-0.9340004,-0.0005759926
-0.9330004,-0.0005671026
-0.9320005,-0.0005591324
-0.9310004,-0.0005536145
-0.9300004,-0.0005456443
-0.9290004,-0.000538287
-0.9280005,-0.0005330758
-0.9270005,-0.0005244924
-0.9260004,-0.0005174418
-0.9250004,-0.000512537
-0.9240004,-0.0005036471
-0.9230005,-0.0004990489
-0.9220005,-0.000492918
-0.9210004,-0.0004846411
-0.9200004,-0.000480656
-0.9190004,-0.0004757512
-0.9180005,-0.0004683941
-0.9170004,-0.0004656352
-0.9160004,-0.0004588911
-0.9150004,-0.0004536798
-0.9140005,-0.0004509208
-0.9130005,-0.0004444833
-0.9120004,-0.0004411113
-0.9110004,-0.0004374327
-0.9100004,-0.0004322214
-0.9090005,-0.0004291559
-0.9080005,-0.0004251708
-0.9070004,-0.0004211857
-0.9060004,-0.0004165874
-0.9050004,-0.0004138285
-0.9040005,-0.0004095368
-0.9030004,-0.0004067779
-0.9020004,-0.0004030993
-0.9010004,-0.0003991142
-0.9000005,-0.0003954356
-0.8990005,-0.0003923701
-0.8980004,-0.0003877719
-0.8970004,-0.0003856261
-0.8960004,-0.0003825606
-0.8950005,-0.0003770427
-0.8940005,-0.0003748969
-0.8930004,-0.0003715248
-0.8920004,-0.0003663135
-0.8910004,-0.0003647808
-0.8900005,-0.0003601825
-0.8890004,-0.0003543581
-0.8880004,-0.0003531319
-0.8870004,-0.0003473075
-0.8860005,-0.0003427093
-0.8850005,-0.0003424028
-0.8840004,-0.0003353521
-0.8830004,-0.0003304474
-0.8820004,-0.0003295277
-0.8810005,-0.0003215575
-0.8800004,-0.0003187985
-0.8790004,-0.0003160396
-0.8780004,-0.0003086824
-0.8770005,-0.0003046973
-0.8760005,-0.0003010187
-0.8750004,-0.0002939681
-0.8740004,-0.0002909026
-0.8730004,-0.0002856913
-0.8720005,-0.0002786407
-0.8710005,-0.000274349
-0.8700004,-0.0002691377
-0.8690004,-0.0002623936
-0.8680004,-0.0002574889
-0.8670005,-0.0002528907
-0.8660004,-0.0002446139
-0.8650004,-0.000239096
-0.8640004,-0.000232965
-0.8630005,-0.0002246882
-0.8620005,-0.0002207031
-0.8610004,-0.0002136525
-0.8600004,-0.0002050691
-0.8590004,-0.0001992447
-0.8580005,-0.000191581
-0.8570005,-0.0001836107
-0.8560004,-0.0001768667
-0.8550004,-0.0001685899
-0.8540004,-0.0001600065
-0.8530005,-0.0001532625
-0.8520004,-0.0001434529
-0.8510004,-0.0001369646
-0.8500004,-0.0001302512
-0.8490005,-0.0001197366
-0.8480005,-0.0001104175
-0.8470004,-0.0001020181
-0.8460004,-9.1013E-05
-0.8450004,-8.267489E-05
-0.8440005,-7.194571E-05
-0.8430004,-6.057277E-05
-0.8420004,-5.116174E-05
-0.8410004,-3.899177E-05
-0.8400005,-2.786407E-05
-0.8390005,-1.679768E-05
-0.8380004,-4.290508E-06
-0.8370004,6.990468E-06
-0.8360004,1.919109E-05
-0.8350005,3.252594E-05
-0.8340005,4.383757E-05
-0.8330004,5.665129E-05
-0.8320004,7.013941E-05
-0.8310004,8.399539E-05
-0.8300005,9.683976E-05
-0.8290004,0.0001102666
-0.8280004,0.0001256553
-0.8270004,0.0001380705
-0.8260005,0.0001532753
-0.8250005,0.000168572
-0.8240004,0.0001828572
-0.8230004,0.0001974795
-0.8220004,0.0002130522
-0.8210005,0.000227368
-0.8200005,0.0002441668
-0.8190004,0.0002602913
-0.8180004,0.0002758026
-0.8170004,0.0002921723
-0.8160005,0.0003102385
-0.8150004,0.0003264856
-0.8140004,0.0003433457
-0.8130004,0.0003583666
-0.8120005,0.0003755333
-0.8110005,0.0003914738
-0.8100004,0.0004071078
-0.8090004,0.000424581
-0.8080004,0.0004414412
-0.8070005,0.0004567686
-0.8060004,0.0004748549
-0.8050004,0.0004907955
-0.8040004,0.0005073491
-0.8030005,0.0005242092
-0.8020005,0.0005410694
-0.8010004,0.000557623
-0.8000004,0.000518998
-0.8009996,0.0004491049
-0.8019996,0.0003911673
-0.8029996,0.0003411999
-0.8039996,0.0002918456
-0.8049996,0.000246783
-0.8059996,0.0002047859
-0.8069996,0.0001637084
-0.8079996,0.0001247768
-0.8089996,8.921722E-05
-0.8099996,4.865037E-05
-0.8109996,1.572709E-05
-0.8119996,-1.633786E-05
-0.8129996,-4.895459E-05
-0.8139996,-7.918024E-05
-0.8149996,-0.0001070455
-0.8159996,-0.0001359223
-0.8169996,-0.0001636956
-0.8179996,-0.0001892311
-0.8189996,-0.0002168511
-0.8199996,-0.0002406085
-0.8209996,-0.0002635077
-0.8219996,-0.0002893497
-0.8229996,-0.0003074562
-0.8239996,-0.0003273819
-0.8249996,-0.0003515992
-0.8259996,-0.0003702986
-0.8269996,-0.0003902243
-0.8279996,-0.0004126023
-0.8289996,-0.0004291559
-0.8299996,-0.0004481619
-0.8309996,-0.0004680876
-0.8319996,-0.0004846411
-0.8329996,-0.0005021144
-0.8339996,-0.0005195877
-0.8349996,-0.0005355282
-0.8359996,-0.0005517752
-0.8369996,-0.0005686354
-0.8379996,-0.0005836562
-0.8389996,-0.0005989837
-0.8399996,-0.000613698
-0.8409996,-0.0006277992
-0.8419996,-0.0006422069
-0.8429996,-0.0006569213
-0.8439996,-0.0006704094
-0.8449996,-0.000683591
-0.8459996,-0.0006970791
-0.8469996,-0.0007102606
-0.8479996,-0.0007225226
-0.8489996,-0.0007357041
-0.8499996,-0.0007476595
-0.8509996,-0.0007580822
-0.8519996,-0.0007721835
-0.8529996,-0.000782606
-0.8539996,-0.0007942549
-0.8549996,-0.00080713
-0.8559996,-0.0008163264
-0.8569996,-0.0008282817
-0.8579996,-0.000839624
-0.8589996,-0.0008475943
-0.8599996,-0.0008607759
-0.8609996,-0.000870892
-0.8619996,-0.0008788622
-0.8629996,-0.0008908176
-0.8639996,-0.0009009338
-0.8649996,-0.0009095171
-0.8659996,-0.0009205528
-0.8669996,-0.0009297492
-0.8679996,-0.0009377195
-0.8689996,-0.0009481421
-0.8699996,-0.0009582583
-0.8709996,-0.000966535
-0.8719996,-0.000976038
-0.8729996,-0.0009858476
-0.8739996,-0.0009928982
-0.8749996,-0.001002708
-0.8759996,-0.001012517
-0.8769996,-0.001019568
-0.8779996,-0.001029991
-0.8789996,-0.001039494
-0.8799996,-0.001044092
-0.8809996,-0.00105666
-0.8819996,-0.001064631
-0.8829996,-0.001071988
-0.8839996,-0.00108241
-0.8849996,-0.001089154
-0.8859996,-0.001096205
-0.8869996,-0.001107241
-0.8879996,-0.001113065
-0.8889996,-0.001122568
-0.8899996,-0.001130845
-0.8909996,-0.001138815
-0.8919996,-0.001146785
-0.8929996,-0.001155369
-0.8939996,-0.001163033
-0.8949996,-0.001171003
-0.8959996,-0.001178973
-0.8969996,-0.00118725
-0.8979996,-0.00119522
-0.8989996,-0.001203803
-0.8999996,-0.00121208
-0.9009996,-0.001219131
-0.9019996,-0.001227714
-0.9029996,-0.001235991
-0.9039996,-0.001242429
-0.9049996,-0.001252238
-0.9059996,-0.001260515
-0.9069996,-0.001267259
-0.9079996,-0.001277068
-0.9089996,-0.001285039
-0.9099996,-0.001292089
-0.9109996,-0.001300979
-0.9119996,-0.001309563
-0.9129996,-0.001315694
-0.9139996,-0.001325197
-0.9149996,-0.00133378
-0.9159996,-0.001341137
-0.9169996,-0.001350334
-0.9179996,-0.001358304
-0.9189996,-0.001365354
-0.9199996,-0.001374244
-0.9209996,-0.001384054
-0.9219996,-0.001390798
-0.9229996,-0.001399688
-0.9239996,-0.001408271
-0.9249996,-0.001417161
-0.9259996,-0.001425744
-0.9269996,-0.001433102
-0.9279996,-0.001440459
-0.9289996,-0.001450268
-0.9299996,-0.001458545
-0.9309996,-0.001466515
-0.9319996,-0.001477245
-0.9329996,-0.001483682
-0.9339996,-0.001493492
-0.9349996,-0.001502075
-0.9359996,-0.001509126
-0.9369996,-0.001518322
-0.9379996,-0.001528132
-0.9389996,-0.001535182
-0.9399996,-0.001544685
-0.9409996,-0.001553269
-0.9419996,-0.001561545
-0.9429996,-0.001569822
-0.9439996,-0.001579325
-0.9449996,-0.001588215
-0.9459996,-0.001596185
-0.9469996,-0.001604462
-0.9479996,-0.001613352
-0.9489996,-0.001622548
-0.9499996,-0.001632051
-0.9509996,-0.001639715
-0.9519996,-0.001646153
-0.9529996,-0.001659028
-0.9539996,-0.001665159
-0.9549996,-0.001673129
-0.9559996,-0.001684778
-0.9569996,-0.001690909
-0.9579996,-0.001698879
-0.9589996,-0.001709915
-0.9599996,-0.001715739
-0.9609996,-0.001725855
-0.9619996,-0.001735665
-0.9629996,-0.001740876
-0.9639996,-0.001751912
-0.9649996,-0.001760495
-0.9659996,-0.001768159
-0.9669996,-0.001777355
-0.9679996,-0.001784406
-0.9689996,-0.001791763
-0.9699996,-0.001803718
-0.9709996,-0.001810462
-0.9719996,-0.001818739
-0.9729996,-0.001830695
-0.9739996,-0.001836826
-0.9749996,-0.001844796
-0.9759996,-0.001854912
-0.9769996,-0.00186135
-0.9779996,-0.001871159
-0.9789996,-0.001880662
-0.9799996,-0.001886793
-0.9809996,-0.001896603
-0.9819996,-0.001905186
-0.9829996,-0.00191101
-0.9839996,-0.001922046
-0.9849996,-0.001931243
-0.9859996,-0.001937374
-0.9869996,-0.00194657
-0.9879996,-0.00195638
-0.9889996,-0.001960671
-0.9899996,-0.001972013
-0.9909996,-0.001980597
-0.9919996,-0.001985195
-0.9929996,-0.001997457
-0.9939996,-0.002004201
-0.9949996,-0.002009412
-0.9959996,-0.002021061
-0.9969996,-0.002029338
-0.9979996,-0.002033323
-0.9989996,-0.002045278
-0.9999996,-0.002051103
-1.001,-0.002057234
-1.002,-0.002071028
-1.003,-0.00207532
-1.004,-0.002083903
-1.005,-0.002094326
-1.006,-0.002098924
-1.007,-0.002107201
-1.008,-0.00211793
-1.009,-0.002123142
-1.01,-0.002133564
-1.011,-0.002143067
-1.012,-0.002149198
-1.013,-0.002156249
-1.014,-0.002166978
-1.015,-0.002173416
-1.016,-0.002181079
-1.017,-0.002192115
-1.018,-0.002199472
-1.019,-0.002208362
-1.02,-0.002217558
-1.021,-0.002224916
-1.022,-0.002235645
-1.023,-0.002243309
-1.024,-0.002251892
-1.025,-0.002260782
-1.026,-0.002270898
-1.027,-0.002279481
-1.028,-0.002289597
-1.029,-0.002299407
-1.03,-0.002307377
-1.031,-0.002317493
-1.032,-0.002327303
-1.033,-0.002336806
-1.034,-0.002346922
-1.035,-0.00235949
-1.036,-0.002368074
-1.037,-0.002379109
-1.038,-0.002391065
-1.039,-0.002401794
-1.04,-0.002411297
-1.041,-0.002425705
-1.042,-0.002435514
-1.043,-0.00244747
-1.044,-0.002462184
-1.045,-0.0024723
-1.046,-0.002484869
-1.047,-0.002500809
-1.048,-0.002512458
-1.049,-0.002525946
-1.05,-0.002539741
-1.051,-0.002554455
-1.052,-0.002566717
-1.053,-0.00258511
-1.054,-0.002597372
-1.055,-0.002613619
-1.056,-0.002630786
-1.057,-0.002643354
-1.058,-0.002660827
-1.059,-0.002677074
-1.06,-0.002693935
-1.061,-0.002713247
-1.062,-0.002731947
-1.063,-0.002745741
-1.064,-0.002765974
-1.065,-0.002785899
-1.066,-0.002800613
-1.067,-0.002822685
-1.068,-0.00284353
-1.069,-0.002859777
-1.07,-0.002881235
-1.071,-0.002899935
-1.072,-0.002917715
-1.073,-0.002941625
-1.074,-0.002957873
-1.075,-0.002978411
-1.076,-0.003000176
-1.077,-0.002982598
-1.078,-0.002997925
-1.079,-0.003019383
-1.08,-0.003034711
-1.081,-0.003056169
-1.082,-0.003074562
-1.083,-0.003086824
-1.084,-0.003105217
-1.085,-0.00312361
-1.086,-0.003132806
-1.087,-0.003148134
-1.088,-0.003166527
-1.089,-0.003175723
-1.09,-0.003187985
-1.091,-0.003197182
-1.092,-0.003206378
-1.093,-0.003215575
-1.094,-0.003224771
-1.095,-0.003230902
-1.096,-0.003233967
-1.097,-0.003240098
-1.098,-0.003240098
-1.099,-0.003243164
-1.1,-0.003246229
-1.101,-0.003240098
-1.102,-0.003240098
-1.103,-0.003240098
-1.104,-0.003230902
-1.105,-0.003233967
-1.106,-0.003230902
-1.107,-0.003221706
-1.108,-0.003221706
-1.109,-0.003212509
-1.11,-0.003206378
-1.111,-0.003200247
-1.112,-0.003194116
-1.113,-0.003191051
-1.114,-0.003181854
-1.115,-0.003175723
-1.116,-0.003172658
-1.117,-0.003163461
-1.118,-0.00315733
-1.119,-0.003154265
-1.12,-0.003148134
-1.121,-0.003142003
-1.122,-0.003142003
-1.123,-0.003132806
-1.124,-0.003132806
-1.125,-0.003135872
-1.126,-0.003126675
-1.127,-0.003129741
-1.128,-0.003132806
-1.129,-0.003126675
-1.13,-0.003126675
-1.131,-0.003129741
-1.132,-0.003126675
-1.133,-0.003129741
-1.134,-0.003135872
-1.135,-0.003132806
-1.136,-0.003135872
-1.137,-0.003142003
-1.138,-0.003138937
-1.139,-0.003148134
-1.14,-0.003151199
-1.141,-0.003151199
-1.142,-0.003160396
-1.143,-0.003160396
-1.144,-0.003160396
-1.145,-0.003169592
-1.146,-0.003175723
-1.147,-0.003175723
-1.148,-0.003191051
-1.149,-0.003191051
-1.15,-0.003194116
-1.151,-0.003206378
-1.152,-0.003203312
-1.153,-0.003212509
-1.154,-0.003221706
-1.155,-0.003224771
-1.156,-0.003233967
-1.157,-0.003240098
-1.158,-0.003243164
-1.159,-0.003255426
-1.16,-0.003261557
-1.161,-0.003267688
-1.162,-0.003273819
-1.163,-0.003283015
-1.164,-0.003289146
-1.165,-0.003298342
-1.166,-0.003304473
-1.167,-0.003307539
-1.168,-0.003319801
-1.169,-0.003325932
-1.17,-0.003335128
-1.171,-0.003344325
-1.172,-0.00334739
-1.173,-0.003356587
-1.174,-0.003368848
-1.175,-0.003371914
-1.176,-0.00338111
-1.177,-0.003390307
-1.178,-0.003393373
-1.179,-0.003402569
-1.18,-0.003417896
-1.181,-0.003417896
-1.182,-0.003433224
-1.183,-0.00344242
-1.184,-0.003445486
-1.185,-0.003457748
-1.186,-0.003463879
-1.187,-0.003470009
-1.188,-0.003479206
-1.189,-0.003491468
-1.19,-0.003497599
-1.191,-0.003506796
-1.192,-0.003519057
-1.193,-0.003522123
-1.194,-0.003534385
-1.195,-0.003543581
-1.196,-0.003552777
-1.197,-0.003561974
-1.198,-0.003577302
-1.199,-0.003580367
-1.2,-0.003592629
-1.201,-0.003604891
-1.202,-0.003611021
-1.203,-0.003623284
-1.204,-0.003635545
-1.205,-0.003644742
-1.206,-0.003660069
-1.207,-0.0036662
-1.208,-0.003675397
-1.209,-0.003690724
-1.21,-0.003699921
-1.211,-0.003709117
-1.212,-0.003724444
-1.213,-0.003736707
-1.214,-0.003742838
-1.215,-0.003764296
-1.216,-0.003770427
-1.217,-0.003782689
-1.218,-0.003801082
-1.219,-0.003807213
-1.22,-0.00382254
-1.221,-0.003837867
-1.222,-0.003850129
-1.223,-0.003865457
-1.224,-0.003877719
-1.225,-0.003893046
-1.226,-0.003908373
-1.227,-0.003923701
-1.228,-0.003939028
-1.229,-0.003957421
-1.23,-0.003972749
-1.231,-0.003988076
-1.232,-0.004006469
-1.233,-0.004021796
-1.234,-0.004037124
-1.235,-0.004061648
-1.236,-0.004076975
-1.237,-0.004095368
-1.238,-0.004122957
-1.239,-0.004132153
-1.24,-0.004159743
-1.241,-0.004184267
-1.242,-0.00420266
-1.243,-0.004224118
-1.244,-0.004248642
-1.245,-0.004267035
-1.246,-0.00429769
-1.247,-0.004319148
-1.248,-0.004343672
-1.249,-0.004377393
-1.25,-0.004398851
-1.251,-0.00442644
-1.252,-0.00446016
-1.253,-0.00448775
-1.254,-0.004515339
-1.255,-0.004558256
-1.256,-0.004585845
-1.257,-0.0046165
-1.258,-0.004656351
-1.259,-0.004690072
-1.26,-0.004729923
-1.261,-0.00477284
-1.262,-0.00480656
-1.263,-0.004852542
-1.264,-0.004895459
-1.265,-0.004938376
-1.266,-0.004987423
-1.267,-0.005036471
-1.268,-0.005085519
-1.269,-0.005137632
-1.27,-0.005189745
-1.271,-0.005244924
-1.272,-0.005306234
-1.273,-0.005364478
-1.274,-0.005422722
-1.275,-0.005493228
-1.276,-0.005551472
-1.277,-0.005621978
-1.278,-0.005698615
-1.279,-0.005769121
-1.28,-0.005845758
-1.281,-0.005928526
-1.282,-0.006005164
-1.283,-0.006094063
-1.284,-0.006182961
-1.285,-0.006268795
-1.286,-0.00636689
-1.287,-0.006468052
-1.288,-0.006563081
-1.289,-0.006670373
-1.29,-0.006783796
-1.291,-0.006888022
-1.292,-0.007010642
-1.293,-0.007130195
-1.294,-0.007249749
-1.295,-0.007384631
-1.296,-0.007513381
-1.297,-0.007645197
-1.298,-0.00779234
-1.299,-0.007936417
-1.3,-0.008086626
-1.301,-0.008246032
-1.302,-0.008399305
-1.303,-0.008564842
-1.304,-0.008736508
-1.305,-0.00890511
-1.306,-0.009092105
-1.307,-0.009272968
-1.308,-0.009456896
-1.309,-0.009659219
-1.31,-0.009858475
-1.311,-0.01005773
-1.312,-0.01027538
-1.313,-0.01048997
-1.314,-0.01070455
-1.315,-0.01093139
-1.316,-0.01116131
-1.317,-0.01139122
-1.318,-0.01163952
-1.319,-0.01188476
-1.32,-0.01213306
-1.321,-0.0123967
-1.322,-0.01264806
-1.323,-0.01291476
-1.324,-0.01318452
-1.325,-0.01344509
-1.326,-0.01372405
-1.327,-0.01400301
-1.328,-0.01427277
-1.329,-0.01456399
-1.33,-0.01484908
-1.331,-0.0151403
-1.332,-0.01544072
-1.333,-0.01573501
-1.334,-0.01603236
-1.335,-0.0163481
-1.336,-0.01665465
-1.337,-0.01694894
-1.338,-0.01727081
-1.339,-0.01758349
-1.34,-0.01789004
-1.341,-0.01820272
-1.342,-0.01851233
-1.343,-0.01882501
-1.344,-0.01914689
-1.345,-0.0194657
-1.346,-0.0197937
-1.347,-0.02012171
-1.348,-0.02044052
-1.349,-0.02077466
-1.35,-0.02111186
-1.351,-0.0214368
-1.352,-0.02176787
-1.353,-0.02210814
-1.354,-0.02243615
-1.355,-0.02277335
-1.356,-0.02311975
-1.357,-0.02345083
-1.358,-0.02379109
-1.359,-0.02413136
-1.36,-0.02446243
-1.361,-0.02480577
-1.362,-0.0251583
-1.363,-0.02549244
-1.364,-0.02583271
-1.365,-0.02617297
-1.366,-0.02650711
-1.367,-0.02685658
-1.368,-0.02718765
-1.369,-0.02752792
-1.37,-0.02788045
-1.371,-0.02823298
-1.372,-0.02857937
-1.373,-0.02893191
-1.374,-0.02928137
-1.375,-0.02960938
-1.376,-0.0299803
-1.377,-0.03033896
-1.378,-0.03080693
-1.379,-0.03114414
-1.38,-0.03151199
-1.381,-0.0318492
-1.382,-0.03221706
-1.383,-0.03258491
-1.384,-0.03295277
-1.385,-0.03332063
-1.386,-0.03365783
-1.387,-0.03402569
-1.388,-0.03439355
-1.389,-0.03476141
-1.39,-0.03512926
-1.391,-0.03549712
-1.392,-0.03583432
-1.393,-0.03620218
-1.394,-0.03657004
-1.395,-0.0369379
-1.396,-0.03733641
-1.397,-0.03770427
-1.398,-0.03807213
-1.399,-0.03843999
-1.4,-0.03877719
-1.401,-0.0391757
-1.402,-0.03954356
-1.403,-0.03991142
-1.404,-0.04027928
-1.405,-0.04067779
-1.406,-0.04101499
-1.407,-0.0414135
-1.408,-0.04178136
-1.409,-0.04211856
-1.41,-0.04251708
-1.411,-0.04288493
-1.412,-0.04322214
-1.413,-0.04362065
-1.414,-0.04398851
-1.415,-0.04432571
-1.416,-0.04472422
-1.417,-0.04509208
-1.418,-0.04545994
-1.419,-0.04585845
-1.42,-0.04622631
-1.421,-0.04662482
-1.422,-0.04699268
-1.423,-0.04736054
-1.424,-0.0477284
-1.425,-0.04815757
-1.426,-0.04852542
-1.427,-0.04892394
-1.428,-0.04929179
-1.429,-0.04965965
-1.43,-0.05005816
-1.431,-0.05042602
-1.432,-0.05079388
-1.433,-0.05119239
-1.434,-0.05159091
-1.435,-0.05195877
-1.436,-0.05235728
-1.437,-0.05275579
-1.438,-0.05312365
-1.439,-0.05352216
-1.44,-0.05392068
-1.441,-0.05428853
-1.442,-0.05468704
-1.443,-0.05508556
-1.444,-0.05545342
-1.445,-0.05585193
-1.446,-0.05625044
-1.447,-0.05664895
-1.448,-0.05701681
-1.449,-0.05741533
-1.45,-0.05778318
-1.451,-0.05818169
-1.452,-0.05854955
-1.453,-0.05894807
-1.454,-0.05934658
-1.455,-0.05971443
-1.456,-0.06011295
-1.457,-0.06051146
-1.458,-0.06090998
-1.459,-0.06127783
-1.46,-0.06167634
-1.461,-0.06207486
-1.462,-0.06244272
-1.463,-0.06284123
-1.464,-0.0632704
-1.465,-0.06363826
-1.466,-0.06406742
-1.467,-0.06443528
-1.468,-0.06483379
-1.469,-0.06526296
-1.47,-0.06563082
-1.471,-0.06602933
-1.472,-0.06645849
-1.473,-0.06682636
-1.474,-0.06722487
-1.475,-0.06765404
-1.476,-0.06805255
-1.477,-0.0684204
-1.478,-0.06884957
-1.479,-0.06924809
-1.48,-0.0696466
-1.481,-0.07004511
-1.482,-0.07044362
-1.483,-0.07084214
-1.484,-0.0712713
-1.485,-0.07170048
-1.486,-0.07209899
-1.487,-0.07252815
-1.488,-0.07289601
-1.489,-0.07332518
-1.49,-0.0737237
-1.491,-0.07409155
-1.492,-0.07452071
-1.493,-0.07491923
-1.494,-0.07531774
-1.495,-0.07574691
-1.496,-0.07614543
-1.497,-0.07657459
-1.498,-0.07700375
-1.499,-0.07740227
-1.5,-0.07752489
-1.499001,-0.07709572
-1.498001,-0.07666656
-1.497001,-0.07617608
-1.496001,-0.07571625
-1.495001,-0.07531774
-1.494001,-0.07482726
-1.493001,-0.07439809
-1.492001,-0.07393827
-1.491001,-0.07347845
-1.490001,-0.07304928
-1.489001,-0.07258946
-1.488001,-0.0721603
-1.487001,-0.07170048
-1.486001,-0.07124065
-1.485001,-0.07078083
-1.484001,-0.07035166
-1.483001,-0.06992249
-1.482001,-0.06949332
-1.481001,-0.06906416
-1.480001,-0.06863499
-1.479001,-0.06814452
-1.478001,-0.06771534
-1.477001,-0.06728618
-1.476001,-0.06685701
-1.475001,-0.06642784
-1.474001,-0.06596802
-1.473001,-0.06553885
-1.472001,-0.06510969
-1.471001,-0.06464987
-1.470001,-0.06422069
-1.469001,-0.06379153
-1.468001,-0.06336236
-1.467001,-0.06293319
-1.466001,-0.06250402
-1.465001,-0.06207486
-1.464001,-0.06164569
-1.463001,-0.06121652
-1.462001,-0.06075669
-1.461001,-0.06032753
-1.460001,-0.05992902
-1.459001,-0.05946919
-1.458001,-0.05907068
-1.457001,-0.05864152
-1.456001,-0.05821235
-1.455001,-0.05778318
-1.454001,-0.05738467
-1.453001,-0.05692485
-1.452001,-0.05649568
-1.451001,-0.05609716
-1.450001,-0.055668
-1.449001,-0.05523883
-1.448001,-0.05480966
-1.447001,-0.05441115
-1.446001,-0.05398199
-1.445001,-0.05358347
-1.444001,-0.0531543
-1.443001,-0.05272513
-1.442001,-0.05226531
-1.441001,-0.0518668
-1.440001,-0.05146828
-1.439001,-0.05103912
-1.438001,-0.05064061
-1.437001,-0.05024209
-1.436001,-0.04981292
-1.435001,-0.04941441
-1.434001,-0.04898525
-1.433001,-0.04855608
-1.432001,-0.04818822
-1.431001,-0.04775905
-1.430001,-0.04732988
-1.429001,-0.04693137
-1.428001,-0.04653286
-1.427001,-0.04610369
-1.426001,-0.04573583
-1.425001,-0.04530666
-1.424001,-0.04490815
-1.423001,-0.04450964
-1.422001,-0.04414178
-1.421001,-0.04371261
-1.420001,-0.04334476
-1.419001,-0.04291559
-1.418001,-0.04251708
-1.417001,-0.04211856
-1.416001,-0.04172005
-1.415001,-0.04129088
-1.414001,-0.04092303
-1.413001,-0.04052451
-1.412001,-0.040126
-1.411001,-0.03975814
-1.410001,-0.03935963
-1.409001,-0.03899177
-1.408001,-0.03859326
-1.407001,-0.03819475
-1.406001,-0.03779623
-1.405001,-0.03742838
-1.404001,-0.03706052
-1.403001,-0.036662
-1.402001,-0.03626349
-1.401001,-0.03589563
-1.400001,-0.03552778
-1.399001,-0.03512926
-1.398001,-0.03476141
-1.397001,-0.0344242
-1.396001,-0.03402569
-1.395001,-0.03365783
-1.394001,-0.03328998
-1.393001,-0.03292212
-1.392001,-0.03255426
-1.391001,-0.0321864
-1.390001,-0.03181854
-1.389001,-0.03145069
-1.388001,-0.03111348
-1.387001,-0.03071497
-1.386001,-0.03037777
-1.385001,-0.03000991
-1.384001,-0.02964205
-1.383001,-0.02927419
-1.382001,-0.02893699
-1.381001,-0.02856913
-1.380001,-0.02823193
-1.379001,-0.02786407
-1.378001,-0.02752687
-1.377001,-0.02722032
-1.376001,-0.02685246
-1.375001,-0.02651526
-1.374001,-0.02617805
-1.373001,-0.02584085
-1.372001,-0.02550365
-1.371001,-0.02516645
-1.370001,-0.02482924
-1.369001,-0.02449204
-1.368001,-0.02415484
-1.367001,-0.02381763
-1.366001,-0.02351108
-1.365001,-0.02317388
-1.364001,-0.02283668
-1.363001,-0.02253013
-1.362001,-0.02219293
-1.361001,-0.02188638
-1.360001,-0.02157983
-1.359001,-0.02127328
-1.358001,-0.02096673
-1.357001,-0.02066019
-1.356001,-0.02032298
-1.355001,-0.02004709
-1.354001,-0.01974054
-1.353001,-0.01943399
-1.352001,-0.01912744
-1.351001,-0.01885155
-1.350001,-0.01857566
-1.349001,-0.01826911
-1.348001,-0.01799322
-1.347001,-0.01771732
-1.346001,-0.01741077
-1.345001,-0.01713488
-1.344001,-0.01685899
-1.343001,-0.01658309
-1.342001,-0.0163072
-1.341001,-0.01606196
-1.340001,-0.01587908
-1.339001,-0.01563078
-1.338001,-0.01536715
-1.337001,-0.01512191
-1.336001,-0.01487667
-1.335001,-0.0146253
-1.334001,-0.01438619
-1.333001,-0.01414402
-1.332001,-0.01390185
-1.331001,-0.01367194
-1.330001,-0.01343283
-1.329001,-0.01320292
-1.328001,-0.01297914
-1.327001,-0.01275229
-1.326001,-0.01253464
-1.325001,-0.01231699
-1.324001,-0.01209015
-1.323001,-0.01187863
-1.322001,-0.01166711
-1.321001,-0.01145866
-1.320001,-0.01126247
-1.319001,-0.01106014
-1.318001,-0.01085782
-1.317001,-0.01067083
-1.316001,-0.01048077
-1.315001,-0.01029071
-1.314001,-0.01011291
-1.313001,-0.009935113
-1.312001,-0.009757314
-1.311001,-0.009585647
-1.310001,-0.00941398
-1.309001,-0.009248444
-1.308001,-0.009089039
-1.307001,-0.008920438
-1.306001,-0.008767163
-1.305001,-0.008616954
-1.304001,-0.008460615
-1.303001,-0.008319603
-1.302001,-0.008178591
-1.301001,-0.008031447
-1.300001,-0.007899632
-1.299001,-0.007767816
-1.298001,-0.007636
-1.297001,-0.007516447
-1.296001,-0.007390762
-1.295001,-0.007265077
-1.294001,-0.007151654
-1.293001,-0.007032101
-1.292001,-0.006918678
-1.291001,-0.006814451
-1.290001,-0.006704094
-1.289001,-0.006593736
-1.288001,-0.006498706
-1.287001,-0.006391414
-1.286001,-0.00629945
-1.285001,-0.006210551
-1.284001,-0.006112455
-1.283001,-0.006029687
-1.282001,-0.005946919
-1.281001,-0.005854954
-1.280001,-0.005778318
-1.279001,-0.005698615
-1.278001,-0.005615847
-1.277001,-0.005551472
-1.276001,-0.005474835
-1.275001,-0.005398198
-1.274001,-0.005336888
-1.273001,-0.005269447
-1.272001,-0.005198942
-1.271001,-0.005143763
-1.270001,-0.005076322
-1.269001,-0.005018078
-1.268001,-0.0049629
-1.267001,-0.00490159
-1.266001,-0.004849477
-1.265001,-0.004800429
-1.264001,-0.004742185
-1.263001,-0.004690072
-1.262001,-0.004644089
-1.261001,-0.004591976
-1.260001,-0.004545994
-1.259001,-0.004506143
-1.258001,-0.004457095
-1.257001,-0.004417243
-1.256001,-0.004377393
-1.255001,-0.00433141
-1.254001,-0.004294624
-1.253001,-0.004257839
-1.252001,-0.004217987
-1.251001,-0.004184267
-1.250001,-0.004147481
-1.249001,-0.004110695
-1.248001,-0.004076975
-1.247001,-0.004040189
-1.246001,-0.004009534
-1.245001,-0.003981945
-1.244001,-0.003945159
-1.243001,-0.00391757
-1.242001,-0.003886915
-1.241001,-0.00385626
-1.240001,-0.003828671
-1.239001,-0.003804147
-1.238001,-0.003770427
-1.237001,-0.003745903
-1.236001,-0.003724444
-1.235001,-0.003690724
-1.234001,-0.003672331
-1.233001,-0.003650873
-1.232001,-0.003620218
-1.231001,-0.00359876
-1.230001,-0.003574236
-1.229001,-0.003546647
-1.228001,-0.003531319
-1.227001,-0.00350373
-1.226001,-0.003482271
-1.225001,-0.003463879
-1.224001,-0.003445486
-1.223001,-0.003420962
-1.222001,-0.003402569
-1.221001,-0.003378045
-1.220001,-0.003359652
-1.219001,-0.003344325
-1.218001,-0.003322866
-1.217001,-0.003304473
-1.216001,-0.003289146
-1.215001,-0.003267688
-1.214001,-0.00325236
-1.213001,-0.003233967
-1.212001,-0.003215575
-1.211001,-0.003200247
-1.210001,-0.003187985
-1.209001,-0.003166527
-1.208001,-0.003148134
-1.207001,-0.003138937
-1.206001,-0.003114413
-1.205001,-0.003105217
-1.204001,-0.003089889
-1.203001,-0.003071497
-1.202001,-0.003059235
-1.201001,-0.003043907
-1.200001,-0.003025514
-1.199001,-0.003019383
-1.198001,-0.003000991
-1.197001,-0.002985663
-1.196001,-0.002970336
-1.195001,-0.002955008
-1.194001,-0.002945812
-1.193001,-0.00293355
-1.192001,-0.002915157
-1.191001,-0.002905961
-1.190001,-0.002893699
-1.189001,-0.002875306
-1.188001,-0.00286611
-1.187001,-0.002856913
-1.186001,-0.002841586
-1.185001,-0.002829324
-1.184001,-0.002817062
-1.183001,-0.0028048
-1.182001,-0.002789472
-1.181001,-0.002783341
-1.180001,-0.002764949
-1.179001,-0.002755752
-1.178001,-0.002746556
-1.177001,-0.002731228
-1.176001,-0.002722032
-1.175001,-0.002712835
-1.174001,-0.002697508
-1.173001,-0.002691377
-1.172001,-0.002679115
-1.171001,-0.002660722
-1.170001,-0.002657657
-1.169001,-0.002645395
-1.168001,-0.002636198
-1.167001,-0.002627002
-1.166001,-0.002611674
-1.165001,-0.002602478
-1.164001,-0.002593281
-1.163001,-0.002577954
-1.162001,-0.002568757
-1.161001,-0.002562626
-1.160001,-0.002547299
-1.159001,-0.002541168
-1.158001,-0.002531972
-1.157001,-0.00251971
-1.156001,-0.002507448
-1.155001,-0.002504382
-1.154001,-0.00248599
-1.153001,-0.002479859
-1.152001,-0.002473728
-1.151001,-0.002455335
-1.150001,-0.002449204
-1.149001,-0.002440007
-1.148001,-0.002427745
-1.147001,-0.00242468
-1.146001,-0.002412418
-1.145001,-0.002400156
-1.144001,-0.002397091
-1.143001,-0.002384829
-1.142001,-0.002372567
-1.141001,-0.002366436
-1.140001,-0.002354174
-1.139001,-0.002351108
-1.138001,-0.002341912
-1.137001,-0.002323519
-1.136001,-0.002320454
-1.135001,-0.002317388
-1.134001,-0.002298995
-1.133001,-0.002292864
-1.132001,-0.002286733
-1.131001,-0.00226834
-1.130001,-0.002265275
-1.129001,-0.002259144
-1.128001,-0.002246882
-1.127001,-0.002240751
-1.126001,-0.002228489
-1.125001,-0.002219293
-1.124001,-0.002213162
-1.123001,-0.002203965
-1.122001,-0.002191703
-1.121001,-0.002185572
-1.120001,-0.002176376
-1.119001,-0.002164114
-1.118001,-0.002157983
-1.117001,-0.002154917
-1.116001,-0.00213959
-1.115001,-0.002130394
-1.114001,-0.002121197
-1.113001,-0.002112001
-1.112001,-0.00210587
-1.111001,-0.002093608
-1.110001,-0.002084411
-1.109001,-0.00207828
-1.108001,-0.002066019
-1.107001,-0.002056822
-1.106001,-0.002050691
-1.105001,-0.002038429
-1.104001,-0.002032298
-1.103001,-0.002023102
-1.102001,-0.00201084
-1.101001,-0.002004709
-1.100001,-0.001992447
-1.099001,-0.00198325
-1.098001,-0.001974054
-1.097001,-0.001967923
-1.096001,-0.001955661
-1.095001,-0.001946465
-1.094001,-0.001940334
-1.093001,-0.001928072
-1.092001,-0.00191581
-1.091001,-0.001912744
-1.090001,-0.001897417
-1.089001,-0.001891286
-1.088001,-0.00188209
-1.087001,-0.001869828
-1.086001,-0.001863697
-1.085001,-0.0018545
-1.084001,-0.001842238
-1.083001,-0.001839173
-1.082001,-0.001823845
-1.081001,-0.001814649
-1.080001,-0.001811583
-1.079001,-0.001796256
-1.078001,-0.00178706
-1.077001,-0.001780929
-1.076001,-0.001765601
-1.075001,-0.001756405
-1.074001,-0.001753339
-1.073001,-0.001738012
-1.072001,-0.001731881
-1.071001,-0.001722684
-1.070001,-0.001707357
-1.069001,-0.001704292
-1.068001,-0.00169203
-1.067001,-0.001679768
-1.066001,-0.001676702
-1.065001,-0.001661375
-1.064001,-0.001652178
-1.063001,-0.001646047
-1.062001,-0.00163072
-1.061001,-0.001624589
-1.060001,-0.001615393
-1.059001,-0.001603131
-1.058001,-0.001626534
-1.057001,-0.001621935
-1.056001,-0.001607834
-1.055001,-0.00160109
-1.054001,-0.001591281
-1.053001,-0.001577792
-1.052001,-0.001569822
-1.051001,-0.001559706
-1.050001,-0.001549283
-1.049001,-0.001542539
-1.048001,-0.001528745
-1.047001,-0.001517096
-1.046001,-0.001510352
-1.045001,-0.001499316
-1.044001,-0.001487054
-1.043001,-0.001481536
-1.042001,-0.001468968
-1.041001,-0.001454253
-1.040001,-0.001450575
-1.039001,-0.0014377
-1.038001,-0.001422985
-1.037001,-0.001419307
-1.036001,-0.001404286
-1.035001,-0.001394783
-1.034001,-0.001386813
-1.033001,-0.001373938
-1.032001,-0.001363822
-1.031001,-0.001356158
-1.030001,-0.001342976
-1.029001,-0.001334087
-1.028001,-0.001323664
-1.027001,-0.001311708
-1.026001,-0.001302819
-1.025001,-0.001294235
-1.024001,-0.001279214
-1.023001,-0.00127247
-1.022001,-0.001262048
-1.021001,-0.001251318
-1.020001,-0.001241202
-1.019001,-0.001231393
-1.018001,-0.001218518
-1.017001,-0.001209321
-1.016001,-0.001201964
-1.015001,-0.001189396
-1.014001,-0.001182652
-1.013001,-0.001172536
-1.012001,-0.001159354
-1.011001,-0.001151077
-1.010001,-0.001139428
-1.009001,-0.001128699
-1.008001,-0.001121955
-1.007001,-0.00110908
-1.006001,-0.001100803
-1.005001,-0.00109222
-1.004001,-0.001078732
-1.003001,-0.001071988
-1.002001,-0.001064017
-1.001001,-0.001050836
-1.000001,-0.001044092
-0.9990007,-0.001035815
-0.9980007,-0.001021101
-0.9970006,-0.001018035
-0.9960006,-0.001005773
-0.9950007,-0.0009932048
-0.9940007,-0.0009892196
-0.9930006,-0.0009766511
-0.9920006,-0.0009674546
-0.9910007,-0.0009622434
-0.9900007,-0.0009490618
-0.9890007,-0.0009417046
-0.9880006,-0.0009334278
-0.9870006,-0.0009220855
-0.9860007,-0.0009150349
-0.9850007,-0.0009067581
-0.9840007,-0.0008960289
-0.9830006,-0.0008892849
-0.9820006,-0.0008794753
-0.9810007,-0.0008702789
-0.9800007,-0.0008620021
-0.9790006,-0.000852499
-0.9780006,-0.0008429961
-0.9770007,-0.0008350258
-0.9760007,-0.0008246032
-0.9750007,-0.0008154067
-0.9740006,-0.0008068234
-0.9730006,-0.0007985466
-0.9720007,-0.0007875108
-0.9710007,-0.0007798471
-0.9700007,-0.0007740227
-0.9690006,-0.0007602281
-0.9680007,-0.0007556298
-0.9670007,-0.0007449006
-0.9660007,-0.0007344779
-0.9650006,-0.000728347
-0.9640006,-0.0007151655
-0.9630007,-0.0007078083
-0.9620007,-0.0007010642
-0.9610007,-0.0006884958
-0.9600006,-0.0006826713
-0.9590006,-0.0006731683
-0.9580007,-0.0006609064
-0.9570007,-0.0006566148
-0.9560006,-0.0006446594
-0.9550006,-0.0006351563
-0.9540007,-0.0006293319
-0.9530007,-0.0006186027
-0.9520007,-0.0006094063
-0.9510006,-0.0006029688
-0.9500006,-0.0005894807
-0.9490007,-0.0005839628
-0.9480007,-0.0005769122
-0.9470007,-0.0005667961
-0.9460006,-0.0005579062
-0.9450006,-0.0005502424
-0.9440007,-0.0005401264
-0.9430007,-0.0005324627
-0.9420006,-0.0005251055
-0.9410006,-0.0005159091
-0.9400007,-0.000505793
-0.9390007,-0.0004993554
-0.9380007,-0.000490159
-0.9370006,-0.000480656
-0.9360006,-0.0004754447
-0.9350007,-0.0004659417
-0.9340007,-0.0004576649
-0.9330007,-0.0004515339
-0.9320006,-0.0004414178
-0.9310006,-0.0004340607
-0.9300007,-0.0004294625
-0.9290007,-0.0004193464
-0.9280006,-0.0004138285
-0.9270006,-0.000407391
-0.9260007,-0.0003963552
-0.9250007,-0.0003951291
-0.9240007,-0.0003877719
-0.9230006,-0.0003782689
-0.9220006,-0.0003752034
-0.9210007,-0.0003696856
-0.9200007,-0.0003614087
-0.9190007,-0.0003586498
-0.9180006,-0.0003531319
-0.9170007,-0.0003479206
-0.9160007,-0.0003436289
-0.9150007,-0.0003393373
-0.9140006,-0.0003338194
-0.9130006,-0.0003292212
-0.9120007,-0.0003273819
-0.9110007,-0.000321864
-0.9100007,-0.0003187985
-0.9090006,-0.0003163462
-0.9080006,-0.0003099086
-0.9070007,-0.0003077628
-0.9060007,-0.0003053104
-0.9050006,-0.0003000991
-0.9040006,-0.0003000991
-0.9030007,-0.0002951943
-0.9020007,-0.0002905961
-0.9010007,-0.0002912092
-0.9000006,-0.0002872241
-0.8990006,-0.0002826258
-0.8980007,-0.0002813996
-0.8970007,-0.0002780276
-0.8960007,-0.000274349
-0.8950006,-0.0002734294
-0.8940006,-0.0002688312
-0.8930007,-0.0002666853
-0.8920007,-0.0002620871
-0.8910006,-0.0002577954
-0.8900006,-0.000255343
-0.8890007,-0.0002513579
-0.8880007,-0.0002479859
-0.8870007,-0.0002464531
-0.8860006,-0.0002409353
-0.8850006,-0.0002372567
-0.8840007,-0.0002338847
-0.8830007,-0.0002289799
-0.8820007,-0.0002259144
-0.8810006,-0.0002210096
-0.8800007,-0.0002179441
-0.8790007,-0.0002130394
-0.8780007,-0.0002087477
-0.8770006,-0.000204456
-0.8760006,-0.0001986316
-0.8750007,-0.0001955661
-0.8740007,-0.0001909679
-0.8730007,-0.0001839173
-0.8720006,-0.0001805453
-0.8710006,-0.0001741077
-0.8700007,-0.0001682833
-0.8690007,-0.0001646047
-0.8680006,-0.0001575541
-0.8670006,-0.0001517297
-0.8660007,-0.0001471315
-0.8650007,-0.0001403874
-0.8640007,-0.0001346655
-0.8630006,-0.0001314161
-0.8620006,-0.0001234765
-0.8610007,-0.0001164872
-0.8600007,-0.0001109693
-0.8590007,-0.0001015889
-0.8580006,-9.597909E-05
-0.8570006,-8.895914E-05
-0.8560007,-8.074364E-05
-0.8550007,-7.31719E-05
-0.8540006,-6.517099E-05
-0.8530006,-5.63424E-05
-0.8520007,-4.782036E-05
-0.8510007,-3.914504E-05
-0.8500007,-2.988729E-05
-0.8490006,-2.13959E-05
-0.8480006,-1.081999E-05
-0.8470007,-1.623538E-06
-0.8460007,8.615173E-06
-0.8450007,1.738245E-05
-0.8440006,2.924587E-05
-0.8430007,3.933131E-05
-0.8420007,4.972329E-05
-0.8410007,6.226111E-05
-0.8400006,7.299031E-05
-0.8390006,8.457783E-05
-0.8380007,9.77594E-05
-0.8370007,0.0001085805
-0.8360007,0.0001214556
-0.8350006,0.0001352809
-0.8340006,0.0001461021
-0.8330007,0.000160142
-0.8320007,0.0001743045
-0.8310006,0.0001873328
-0.8300006,0.0002013114
-0.8290007,0.0002157498
-0.8280007,0.0002297898
-0.8270007,0.0002447186
-0.8260006,0.0002590651
-0.8250006,0.000273902
-0.8240007,0.000289444
-0.8230007,0.0003077862
-0.8220007,0.0003225004
-0.8210006,0.0003381344
-0.8200006,0.0003534619
-0.8190007,0.0003709351
-0.8180007,0.0003884083
-0.8170006,0.0004043488
-0.8160006,0.0004196763
-0.8150007,0.0004374561
-0.8140007,0.0004537031
-0.8130007,0.0004696437
-0.8120006,0.0004880365
-0.8110006,0.0005042836
-0.8100007,0.0005205307
-0.8090007,0.0005389235
-0.8080007,0.0005557837
-0.8070006,0.0005723373
-0.8060006,0.0005907302
-0.8050007,0.0006072838
-0.8040007,0.0006247571
-0.8030006,0.0006422303
-0.8020006,0.0006600101
-0.8010007,0.0006774833
-0.8000007,0.0006339535
-0.8009993,0.0005567034
-0.8019994,0.0004941675
-0.8029994,0.000436843
-0.8039994,0.0003844232
-0.8049994,0.0003350689
-0.8059993,0.000288167
-0.8069994,0.0002446372
-0.8079994,0.0002023335
-0.8089994,0.0001627888
-0.8099993,0.0001232441
-0.8109994,8.676484E-05
-0.8119994,4.837448E-05
-0.8129994,1.376518E-05
-0.8139994,-1.790125E-05
-0.8149993,-4.999685E-05
-0.8159994,-8.080495E-05
-0.8169994,-0.0001096205
-0.8179994,-0.0001382828
-0.8189994,-0.0001676194
-0.8199994,-0.0001937373
-0.8209994,-0.0002191195
-0.8219994,-0.0002444711
-0.8229994,-0.0002692401
-0.8239993,-0.0002917408
-0.8249994,-0.0003129741
-0.8259994,-0.0003341259
-0.8269994,-0.0003561974
-0.8279994,-0.0003776558
-0.8289993,-0.0003972749
-0.8299994,-0.0004181202
-0.8309994,-0.0004383524
-0.8319994,-0.0004561322
-0.8329993,-0.0004763643
-0.8339994,-0.0004947572
-0.8349994,-0.0005103912
-0.8359994,-0.0005287841
-0.8369994,-0.0005462574
-0.8379993,-0.0005615847
-0.8389994,-0.0005796711
-0.8399994,-0.0005940789
-0.8409994,-0.0006100194
-0.8419994,-0.0006259599
-0.8429993,-0.0006400611
-0.8439994,-0.0006553886
-0.8449994,-0.0006697963
-0.8459994,-0.0006826713
-0.8469993,-0.0006979987
-0.8479994,-0.0007111803
-0.8489994,-0.0007228291
-0.8499994,-0.0007375435
-0.8509994,-0.0007498054
-0.8519993,-0.0007608412
-0.8529994,-0.0007746358
-0.8539994,-0.0007872043
-0.8549994,-0.0007979335
-0.8559994,-0.0008101954
-0.8569994,-0.0008218443
-0.8579994,-0.0008316538
-0.8589994,-0.0008454485
-0.8599994,-0.0008555645
-0.8609993,-0.000864761
-0.8619994,-0.0008776361
-0.8629994,-0.0008868325
-0.8639994,-0.0008975617
-0.8649994,-0.0009101302
-0.8659993,-0.0009177938
-0.8669994,-0.0009285231
-0.8679994,-0.0009395588
-0.8689994,-0.0009466094
-0.8699993,-0.0009582583
-0.8709994,-0.0009689874
-0.8719994,-0.0009757315
-0.8729994,-0.0009864607
-0.8739994,-0.0009962702
-0.8749993,-0.001002095
-0.8759994,-0.001014663
-0.8769994,-0.001024473
-0.8779994,-0.001029684
-0.8789994,-0.001041639
-0.8799993,-0.001049916
-0.8809994,-0.001056967
-0.8819994,-0.001067696
-0.8829994,-0.001075666
-0.8839993,-0.00108241
-0.8849994,-0.001091913
-0.8859994,-0.001100497
-0.8869994,-0.001107241
-0.8879994,-0.00111705
-0.8889993,-0.00112686
-0.8899994,-0.001132071
-0.8909994,-0.001144027
-0.8919994,-0.001151384
-0.8929994,-0.001158434
-0.8939994,-0.001168244
-0.8949994,-0.001176214
-0.8959994,-0.001181119
-0.8969994,-0.001192768
-0.8979993,-0.001200738
-0.8989994,-0.001206869
-0.8999994,-0.001217905
-0.9009994,-0.001224036
-0.9019994,-0.001231393
-0.9029993,-0.001241509
-0.9039994,-0.001247333
-0.9049994,-0.001255917
-0.9059994,-0.001266339
-0.9069993,-0.001271857
-0.9079994,-0.001282586
-0.9089994,-0.001290863
-0.9099994,-0.001296381
-0.9109994,-0.001307417
-0.9119993,-0.001314467
-0.9129994,-0.001321518
-0.9139994,-0.001332554
-0.9149994,-0.001339604
-0.9159994,-0.001348188
-0.9169993,-0.001357997
-0.9179994,-0.001364741
-0.9189994,-0.001372098
-0.9199994,-0.001382828
-0.9209993,-0.001390491
-0.9219994,-0.001397542
-0.9229994,-0.001406432
-0.9239994,-0.001414709
-0.9249994,-0.001423599
-0.9259993,-0.001433408
-0.9269994,-0.001439539
-0.9279994,-0.001447816
-0.9289994,-0.001457932
-0.9299994,-0.001464676
-0.9309993,-0.001473259
-0.9319994,-0.001483682
-0.9329994,-0.001490119
-0.9339994,-0.001499929
-0.9349993,-0.001508206
-0.9359994,-0.00151587
-0.9369994,-0.001525679
-0.9379994,-0.001533036
-0.9389994,-0.0015407
-0.9399993,-0.001551123
-0.9409994,-0.001559706
-0.9419994,-0.001567983
-0.9429994,-0.001576566
-0.9439994,-0.001586376
-0.9449994,-0.001592507
-0.9459994,-0.001603236
-0.9469994,-0.001612432
-0.9479994,-0.001618257
-0.9489993,-0.001629292
-0.9499994,-0.001637876
-0.9509994,-0.001646766
-0.9519994,-0.001655656
-0.9529994,-0.001665159
-0.9539993,-0.001674048
-0.9549994,-0.001682632
-0.9559994,-0.001690909
-0.9569994,-0.001700412
-0.9579993,-0.001708688
-0.9589994,-0.001717578
-0.9599994,-0.001727388
-0.9609994,-0.001736278
-0.9619994,-0.001743941
-0.9629993,-0.001753138
-0.9639994,-0.001762948
-0.9649994,-0.001769692
-0.9659994,-0.001779195
-0.9669994,-0.001789004
-0.9679993,-0.001795135
-0.9689994,-0.001806784
-0.9699994,-0.001814754
-0.9709994,-0.001822418
-0.9719993,-0.001833454
-0.9729994,-0.001841424
-0.9739994,-0.001849088
-0.9749994,-0.001858897
-0.9759994,-0.001866561
-0.9769993,-0.001876064
-0.9779994,-0.001885873
-0.9789994,-0.001892924
-0.9799994,-0.001900281
-0.9809994,-0.00191193
-0.9819994,-0.001918367
-0.9829994,-0.00192787
-0.9839994,-0.001937067
-0.9849994,-0.00194565
-0.9859993,-0.001954847
-0.9869994,-0.00196251
-0.9879994,-0.001970787
-0.9889994,-0.00198121
-0.9899994,-0.001989793
-0.9909993,-0.001996844
-0.9919994,-0.00200604
-0.9929994,-0.002014317
-0.9939994,-0.0020229
-0.9949993,-0.002032403
-0.9959994,-0.00203976
-0.9969994,-0.002049264
-0.9979994,-0.00205754
-0.9989994,-0.002065511
-0.9999993,-0.002074707
-1.000999,-0.002085129
-1.001999,-0.002090648
-1.002999,-0.002100457
-1.003999,-0.002109347
-1.004999,-0.002115171
-1.005999,-0.002126514
-1.006999,-0.002136017
-1.007999,-0.002141228
-1.008999,-0.002153183
-1.009999,-0.002159314
-1.010999,-0.002168511
-1.011999,-0.00218016
-1.012999,-0.002186597
-1.013999,-0.002195487
-1.014999,-0.002207136
-1.015999,-0.002211734
-1.016999,-0.00222185
-1.017999,-0.002234419
-1.018999,-0.002241163
-1.019999,-0.002250666
-1.020999,-0.002263847
-1.021999,-0.002269365
-1.022999,-0.002278562
-1.023999,-0.002293276
-1.024999,-0.002298487
-1.025999,-0.00230983
-1.026999,-0.002321478
-1.027999,-0.002330062
-1.028999,-0.002341097
-1.029999,-0.00235152
-1.030999,-0.002361943
-1.031999,-0.002373898
-1.032999,-0.002383708
-1.033999,-0.002395663
-1.034999,-0.002407618
-1.035999,-0.002418348
-1.036999,-0.002433062
-1.037999,-0.002445324
-1.038999,-0.00245452
-1.039999,-0.002467089
-1.040999,-0.002484255
-1.041999,-0.002491306
-1.042999,-0.002507553
-1.043999,-0.002523494
-1.044999,-0.002532077
-1.045999,-0.002547404
-1.046999,-0.002561506
-1.047999,-0.002574687
-1.048999,-0.002591854
-1.049999,-0.002604422
-1.050999,-0.002619443
-1.051999,-0.002638143
-1.052999,-0.002650711
-1.053999,-0.002665732
-1.054999,-0.002684431
-1.055999,-0.002699759
-1.056999,-0.002715086
-1.057999,-0.002733786
-1.058999,-0.0027485
-1.059999,-0.00276536
-1.060999,-0.002785286
-1.061999,-0.002799387
-1.062999,-0.002816554
-1.063999,-0.002836173
-1.064999,-0.002851807
-1.065999,-0.002867441
-1.066999,-0.002886754
-1.067999,-0.002902387
-1.068999,-0.002918328
-1.069999,-0.002939786
-1.070999,-0.002952968
-1.071999,-0.002967069
-1.072999,-0.00298914
-1.073999,-0.003001403
-1.074999,-0.002982598
-1.075999,-0.002997925
-1.076999,-0.003010187
-1.077999,-0.003025514
-1.078999,-0.003040842
-1.079999,-0.003053104
-1.080999,-0.0030623
-1.081999,-0.003080693
-1.082999,-0.003089889
-1.083999,-0.003102152
-1.084999,-0.003117479
-1.085999,-0.003120545
-1.086999,-0.003135872
-1.087999,-0.003142003
-1.088999,-0.003151199
-1.089999,-0.003160396
-1.090999,-0.003163461
-1.091999,-0.003169592
-1.092999,-0.003175723
-1.093999,-0.003178789
-1.094999,-0.003181854
-1.095999,-0.003184919
-1.096999,-0.003184919
-1.097999,-0.003187985
-1.098999,-0.003187985
-1.099999,-0.003184919
-1.100999,-0.003187985
-1.101999,-0.003184919
-1.102999,-0.003178789
-1.103999,-0.003178789
-1.104999,-0.003175723
-1.105999,-0.003169592
-1.106999,-0.003169592
-1.107999,-0.003160396
-1.108999,-0.00315733
-1.109999,-0.003154265
-1.110999,-0.003148134
-1.111999,-0.003138937
-1.112999,-0.003138937
-1.113999,-0.003129741
-1.114999,-0.003120545
-1.115999,-0.00312361
-1.116999,-0.003114413
-1.117999,-0.003105217
-1.118999,-0.003108283
-1.119999,-0.003096021
-1.120999,-0.003096021
-1.121999,-0.003099086
-1.122999,-0.003086824
-1.123999,-0.003089889
-1.124999,-0.003089889
-1.125999,-0.003083759
-1.126999,-0.003086824
-1.127999,-0.003083759
-1.128999,-0.003080693
-1.129999,-0.003086824
-1.130999,-0.003080693
-1.131999,-0.003080693
-1.132999,-0.003086824
-1.133999,-0.003086824
-1.134999,-0.003089889
-1.135999,-0.003092955
-1.136999,-0.003096021
-1.137999,-0.003096021
-1.138999,-0.003105217
-1.139999,-0.003108283
-1.140999,-0.003108283
-1.141999,-0.003117479
-1.142999,-0.003120545
-1.143999,-0.00312361
-1.144999,-0.003132806
-1.145999,-0.003138937
-1.146999,-0.003138937
-1.147999,-0.003148134
-1.148999,-0.003154265
-1.149999,-0.00315733
-1.150999,-0.003166527
-1.151999,-0.003169592
-1.152999,-0.003175723
-1.153999,-0.003184919
-1.154999,-0.003191051
-1.155999,-0.003197182
-1.156999,-0.003209443
-1.157999,-0.003212509
-1.158999,-0.003221706
-1.159999,-0.003224771
-1.160999,-0.003230902
-1.161999,-0.003237033
-1.162999,-0.003249295
-1.163999,-0.00325236
-1.164999,-0.003264622
-1.165999,-0.003270753
-1.166999,-0.003273819
-1.167999,-0.003286081
-1.168999,-0.003292212
-1.169999,-0.003298342
-1.170999,-0.003310604
-1.171999,-0.003316735
-1.172999,-0.003319801
-1.173999,-0.003332063
-1.174999,-0.003344325
-1.175999,-0.003341259
-1.176999,-0.003359652
-1.177999,-0.003365783
-1.178999,-0.003365783
-1.179999,-0.003384176
-1.180999,-0.003387242
-1.181999,-0.003396438
-1.182999,-0.0034087
-1.183999,-0.003411765
-1.184999,-0.003420962
-1.185999,-0.003433224
-1.186999,-0.003436289
-1.187999,-0.003451617
-1.188999,-0.003460813
-1.189999,-0.003463879
-1.190999,-0.003473075
-1.191999,-0.003485337
-1.192999,-0.003494533
-1.193999,-0.003506796
-1.194999,-0.003512926
-1.195999,-0.003519057
-1.196999,-0.00353745
-1.197999,-0.003546647
-1.198999,-0.003549712
-1.199999,-0.00357117
-1.200999,-0.003577302
-1.201999,-0.003583432
-1.202999,-0.003601825
-1.203999,-0.003607956
-1.204999,-0.003617153
-1.205999,-0.003635545
-1.206999,-0.003641677
-1.207999,-0.003657004
-1.208999,-0.003672331
-1.209999,-0.003675397
-1.210999,-0.003696855
-1.211999,-0.003709117
-1.212999,-0.003712183
-1.213999,-0.003733641
-1.214999,-0.003745903
-1.215999,-0.003752034
-1.216999,-0.003776558
-1.217999,-0.00378882
-1.218999,-0.003794951
-1.219999,-0.003819474
-1.220999,-0.003828671
-1.221999,-0.003847064
-1.222999,-0.003868522
-1.223999,-0.003877719
-1.224999,-0.003896111
-1.225999,-0.003920636
-1.226999,-0.003926767
-1.227999,-0.00395129
-1.228999,-0.003972749
-1.229999,-0.003985011
-1.230999,-0.004009534
-1.231999,-0.004027927
-1.232999,-0.004043255
-1.233999,-0.004067779
-1.234999,-0.004092303
-1.235999,-0.00410763
-1.236999,-0.004135219
-1.237999,-0.004159743
-1.238999,-0.00417507
-1.239999,-0.004208791
-1.240999,-0.004233315
-1.241999,-0.004254773
-1.242999,-0.004285428
-1.243999,-0.004309952
-1.244999,-0.004337541
-1.245999,-0.004371261
-1.246999,-0.004395785
-1.247999,-0.00442644
-1.248999,-0.004463226
-1.249999,-0.004493881
-1.250999,-0.004527601
-1.251999,-0.004564387
-1.252999,-0.004601172
-1.253999,-0.004637958
-1.254999,-0.004683941
-1.255999,-0.004714595
-1.256999,-0.004763643
-1.257999,-0.00480656
-1.258999,-0.004846411
-1.259999,-0.004898524
-1.260999,-0.004944507
-1.261999,-0.004993554
-1.262999,-0.005048733
-1.263999,-0.005100846
-1.264999,-0.005152959
-1.265999,-0.005217335
-1.266999,-0.005275579
-1.267999,-0.005333823
-1.268999,-0.005401264
-1.269999,-0.005465638
-1.270999,-0.005530014
-1.271999,-0.005609716
-1.272999,-0.005680223
-1.273999,-0.00575686
-1.274999,-0.005842693
-1.275999,-0.00591933
-1.276999,-0.006005164
-1.277999,-0.006094063
-1.278999,-0.006179896
-1.279999,-0.006281057
-1.280999,-0.006379152
-1.281999,-0.006477248
-1.282999,-0.006587605
-1.283999,-0.006694897
-1.284999,-0.006799124
-1.285999,-0.006924808
-1.286999,-0.007041297
-1.287999,-0.007166982
-1.288999,-0.007298797
-1.289999,-0.007424482
-1.290999,-0.007565494
-1.291999,-0.007706506
-1.292999,-0.007847519
-1.293999,-0.008000793
-1.294999,-0.008157132
-1.295999,-0.008310406
-1.296999,-0.008482073
-1.297999,-0.008650675
-1.298999,-0.008819276
-1.299999,-0.009006271
-1.300999,-0.0091902
-1.301999,-0.009377195
-1.302999,-0.009573385
-1.303999,-0.009775707
-1.304999,-0.009981094
-1.305999,-0.01018955
-1.306999,-0.01040413
-1.307999,-0.01062178
-1.308999,-0.01084863
-1.309999,-0.01107547
-1.310999,-0.01130845
-1.311999,-0.01155675
-1.312999,-0.01179586
-1.313999,-0.0120503
-1.314999,-0.0123078
-1.315999,-0.01256223
-1.316999,-0.01282893
-1.317999,-0.01309563
-1.318999,-0.01335926
-1.319999,-0.01363822
-1.320999,-0.01391717
-1.321999,-0.01419
-1.322999,-0.01448122
-1.323999,-0.01477244
-1.324999,-0.0150606
-1.325999,-0.01536408
-1.326999,-0.01565837
-1.327999,-0.01595265
-1.328999,-0.0162684
-1.329999,-0.01656575
-1.330999,-0.01687537
-1.331999,-0.01719418
-1.332999,-0.01750072
-1.333999,-0.01781953
-1.334999,-0.01814141
-1.335999,-0.01846022
-1.336999,-0.01878823
-1.337999,-0.01911317
-1.338999,-0.01943198
-1.339999,-0.01976305
-1.340999,-0.0200788
-1.341999,-0.02040374
-1.342999,-0.02073174
-1.343999,-0.02105975
-1.344999,-0.02138469
-1.345999,-0.02172496
-1.346999,-0.02205909
-1.347999,-0.0223871
-1.348999,-0.0227335
-1.349999,-0.0230707
-1.350999,-0.02341097
-1.351999,-0.02375737
-1.352999,-0.02408538
-1.353999,-0.02443178
-1.354999,-0.02478124
-1.355999,-0.02511232
-1.356999,-0.02545565
-1.357999,-0.02579898
-1.358999,-0.02613006
-1.359999,-0.02647952
-1.360999,-0.02683818
-1.361999,-0.02717539
-1.362999,-0.02753405
-1.363999,-0.02787738
-1.364999,-0.02820539
-1.365999,-0.02856711
-1.366999,-0.02891658
-1.367999,-0.02925378
-1.368999,-0.02961244
-1.369999,-0.02996191
-1.370999,-0.03031137
-1.371999,-0.03077628
-1.372999,-0.03111348
-1.373999,-0.03148134
-1.374999,-0.0318492
-1.375999,-0.0321864
-1.376999,-0.03258491
-1.377999,-0.03292212
-1.378999,-0.03328998
-1.379999,-0.03368849
-1.380999,-0.03402569
-1.381999,-0.03439355
-1.382999,-0.03476141
-1.383999,-0.03512926
-1.384999,-0.03549712
-1.385999,-0.03586498
-1.386999,-0.03623284
-1.387999,-0.03660069
-1.388999,-0.03696856
-1.389999,-0.03733641
-1.390999,-0.03770427
-1.391999,-0.03810278
-1.392999,-0.03847064
-1.393999,-0.0388385
-1.394999,-0.03920636
-1.395999,-0.03957421
-1.396999,-0.03994207
-1.397999,-0.04034058
-1.398999,-0.04070844
-1.399999,-0.0410763
-1.400999,-0.04147482
-1.401999,-0.04184267
-1.402999,-0.04221053
-1.403999,-0.04260904
-1.404999,-0.0429769
-1.405999,-0.04334476
-1.406999,-0.04374327
-1.407999,-0.04414178
-1.408999,-0.04450964
-1.409999,-0.0448775
-1.410999,-0.04524536
-1.411999,-0.04564387
-1.412999,-0.04601173
-1.413999,-0.04637958
-1.414999,-0.0467781
-1.415999,-0.04717661
-1.416999,-0.04754447
-1.417999,-0.04791233
-1.418999,-0.04831084
-1.419999,-0.0486787
-1.420999,-0.04907721
-1.421999,-0.04950638
-1.422999,-0.04984358
-1.423999,-0.05024209
-1.424999,-0.05064061
-1.425999,-0.05100846
-1.426999,-0.05143763
-1.427999,-0.05180549
-1.428999,-0.052204
-1.429999,-0.05260251
-1.430999,-0.05300103
-1.431999,-0.05336889
-1.432999,-0.05379805
-1.433999,-0.05416591
-1.434999,-0.05456442
-1.435999,-0.05496293
-1.436999,-0.05533079
-1.437999,-0.05575996
-1.438999,-0.05615847
-1.439999,-0.05652633
-1.440999,-0.05692485
-1.441999,-0.05732336
-1.442999,-0.05769122
-1.443999,-0.05812038
-1.444999,-0.05851889
-1.445999,-0.05891741
-1.446999,-0.05931592
-1.447999,-0.05971443
-1.448999,-0.06011295
-1.449999,-0.06051146
-1.450999,-0.06090998
-1.451999,-0.06130848
-1.452999,-0.06167634
-1.453999,-0.06207486
-1.454999,-0.06247337
-1.455999,-0.06290253
-1.456999,-0.0632704
-1.457999,-0.06369957
-1.458999,-0.06409808
-1.459999,-0.06449659
-1.460999,-0.0648951
-1.461999,-0.06529361
-1.462999,-0.06569213
-1.463999,-0.06609064
-1.464999,-0.0665198
-1.465999,-0.06691832
-1.466999,-0.06728618
-1.467999,-0.06768469
-1.468999,-0.06811386
-1.469999,-0.06848171
-1.470999,-0.06891088
-1.471999,-0.06934005
-1.472999,-0.06973856
-1.473999,-0.07013708
-1.474999,-0.07053559
-1.475999,-0.07096475
-1.476999,-0.07136327
-1.477999,-0.07179244
-1.478999,-0.0722216
-1.479999,-0.07262012
-1.480999,-0.07301863
-1.481999,-0.07344779
-1.482999,-0.07384631
-1.483999,-0.07424482
-1.484999,-0.07467399
-1.485999,-0.07510316
-1.486999,-0.07550167
-1.487999,-0.07590018
-1.488999,-0.07632935
-1.489999,-0.07672786
-1.490999,-0.07718769
-1.491999,-0.0775862
-1.492999,-0.07798471
-1.493999,-0.07844453
-1.494999,-0.07884305
-1.495999,-0.07927221
-1.496999,-0.07970139
-1.497999,-0.0800999
-1.498999,-0.08052906
-1.499999,-0.08068234
-1.499001,-0.08022251
-1.498001,-0.07979335
-1.497001,-0.07933352
-1.496001,-0.0788737
-1.495001,-0.07841388
-1.494001,-0.07795405
-1.493001,-0.07749423
-1.492001,-0.07706507
-1.491001,-0.07660525
-1.490001,-0.07614543
-1.489001,-0.0756856
-1.488001,-0.07525643
-1.487001,-0.07476595
-1.486001,-0.07433679
-1.485001,-0.07390762
-1.484001,-0.07344779
-1.483001,-0.07298797
-1.482001,-0.07255881
-1.481001,-0.07209899
-1.480001,-0.07163917
-1.479001,-0.07120999
-1.478001,-0.07075017
-1.477001,-0.07032101
-1.476001,-0.06986118
-1.475001,-0.06940136
-1.474001,-0.06897219
-1.473001,-0.06854302
-1.472001,-0.06805255
-1.471001,-0.06765404
-1.470001,-0.06722487
-1.469001,-0.06676505
-1.468001,-0.06633588
-1.467001,-0.06587606
-1.466001,-0.06544688
-1.465001,-0.06501772
-1.464001,-0.06458855
-1.463001,-0.06412873
-1.462001,-0.06369957
-1.461001,-0.0632704
-1.460001,-0.06281057
-1.459001,-0.06238141
-1.458001,-0.06195223
-1.457001,-0.06152307
-1.456001,-0.0610939
-1.455001,-0.06063408
-1.454001,-0.06020491
-1.453001,-0.05977575
-1.452001,-0.05934658
-1.451001,-0.05891741
-1.450001,-0.05851889
-1.449001,-0.05805907
-1.448001,-0.05766056
-1.447001,-0.05723139
-1.446001,-0.05677157
-1.445001,-0.0563424
-1.444001,-0.05591324
-1.443001,-0.05548407
-1.442001,-0.0550549
-1.441001,-0.05462573
-1.440001,-0.05422722
-1.439001,-0.05376739
-1.438001,-0.05333823
-1.437001,-0.05293972
-1.436001,-0.05251055
-1.435001,-0.05211204
-1.434001,-0.05168287
-1.433001,-0.0512537
-1.432001,-0.05082453
-1.431001,-0.05039537
-1.430001,-0.04999685
-1.429001,-0.04956769
-1.428001,-0.04913852
-1.427001,-0.04874001
-1.426001,-0.04831084
-1.425001,-0.04788167
-1.424001,-0.04748316
-1.423001,-0.04708464
-1.422001,-0.04665548
-1.421001,-0.04625697
-1.420001,-0.04585845
-1.419001,-0.04542929
-1.418001,-0.04503077
-1.417001,-0.04463226
-1.416001,-0.0442644
-1.415001,-0.04383523
-1.414001,-0.04343672
-1.413001,-0.04303821
-1.412001,-0.0426397
-1.411001,-0.04221053
-1.410001,-0.04181201
-1.409001,-0.04144416
-1.408001,-0.04104565
-1.407001,-0.04064713
-1.406001,-0.04024862
-1.405001,-0.03981945
-1.404001,-0.03942094
-1.403001,-0.03905308
-1.402001,-0.03865457
-1.401001,-0.03825606
-1.400001,-0.0378882
-1.399001,-0.03748969
-1.398001,-0.03709117
-1.397001,-0.03672331
-1.396001,-0.0363248
-1.395001,-0.03592629
-1.394001,-0.03555843
-1.393001,-0.03515992
-1.392001,-0.03479206
-1.391001,-0.0344242
-1.390001,-0.03402569
-1.389001,-0.03365783
-1.388001,-0.03328998
-1.387001,-0.03292212
-1.386001,-0.03255426
-1.385001,-0.03215575
-1.384001,-0.03181854
-1.383001,-0.03145069
-1.382001,-0.03105217
-1.381001,-0.03068431
-1.380001,-0.03031646
-1.379001,-0.0299486
-1.378001,-0.02961139
-1.377001,-0.02924354
-1.376001,-0.02887568
-1.375001,-0.02850782
-1.374001,-0.02817062
-1.373001,-0.02780276
-1.372001,-0.02746556
-1.371001,-0.02712835
-1.370001,-0.02676049
-1.369001,-0.02642329
-1.368001,-0.02608609
-1.367001,-0.02574889
-1.366001,-0.02541168
-1.365001,-0.02507448
-1.364001,-0.02470662
-1.363001,-0.02436942
-1.362001,-0.02406287
-1.361001,-0.02372567
-1.360001,-0.02338847
-1.359001,-0.02308192
-1.358001,-0.02274471
-1.357001,-0.02243817
-1.356001,-0.02210096
-1.355001,-0.02179441
-1.354001,-0.02145721
-1.353001,-0.02115066
-1.352001,-0.02081346
-1.351001,-0.02050691
-1.350001,-0.02020036
-1.349001,-0.01989382
-1.348001,-0.01958727
-1.347001,-0.01928072
-1.346001,-0.01897417
-1.345001,-0.01869828
-1.344001,-0.01842238
-1.343001,-0.01811584
-1.342001,-0.01783994
-1.341001,-0.01753339
-1.340001,-0.0172575
-1.339001,-0.01698161
-1.338001,-0.01670571
-1.337001,-0.01639917
-1.336001,-0.01612327
-1.335001,-0.01597105
-1.334001,-0.01570435
-1.333001,-0.01544072
-1.332001,-0.01518322
-1.331001,-0.01492572
-1.330001,-0.01466822
-1.329001,-0.01441991
-1.328001,-0.01418081
-1.327001,-0.0139325
-1.326001,-0.01369953
-1.325001,-0.01346042
-1.324001,-0.01321518
-1.323001,-0.01299446
-1.322001,-0.01276762
-1.321001,-0.01253464
-1.320001,-0.01232312
-1.319001,-0.01210241
-1.318001,-0.01188783
-1.317001,-0.01168244
-1.316001,-0.01147092
-1.315001,-0.01126553
-1.314001,-0.01106321
-1.313001,-0.01085782
-1.312001,-0.01065857
-1.311001,-0.01046851
-1.310001,-0.01027538
-1.309001,-0.01008532
-1.308001,-0.009907522
-1.307001,-0.009723594
-1.306001,-0.009551927
-1.305001,-0.009377195
-1.304001,-0.009202462
-1.303001,-0.009039992
-1.302001,-0.00887752
-1.301001,-0.00871505
-1.300001,-0.008561776
-1.299001,-0.008411567
-1.298001,-0.008255227
-1.297001,-0.008117281
-1.296001,-0.007970138
-1.295001,-0.007832191
-1.294001,-0.007703441
-1.293001,-0.007565494
-1.292001,-0.007430613
-1.291001,-0.007314125
-1.290001,-0.007182309
-1.289001,-0.007068886
-1.288001,-0.006952398
-1.287001,-0.006832844
-1.286001,-0.006725552
-1.285001,-0.00661826
-1.284001,-0.006507902
-1.283001,-0.006409807
-1.282001,-0.006308646
-1.281001,-0.006207486
-1.280001,-0.006115521
-1.279001,-0.006023556
-1.278001,-0.005928526
-1.277001,-0.005845758
-1.276001,-0.00575686
-1.275001,-0.005677157
-1.274001,-0.005600519
-1.273001,-0.005517752
-1.272001,-0.00544418
-1.271001,-0.005370609
-1.270001,-0.005293972
-1.269001,-0.005232662
-1.268001,-0.005156024
-1.267001,-0.005094715
-1.266001,-0.005036471
-1.265001,-0.004969031
-1.264001,-0.004907721
-1.263001,-0.004858673
-1.262001,-0.004794298
-1.261001,-0.004736054
-1.260001,-0.004687006
-1.259001,-0.004631828
-1.258001,-0.004579714
-1.257001,-0.004536797
-1.256001,-0.004484684
-1.255001,-0.004435637
-1.254001,-0.004395785
-1.253001,-0.004349803
-1.252001,-0.00430382
-1.251001,-0.004267035
-1.250001,-0.004224118
-1.249001,-0.004181202
-1.248001,-0.004150547
-1.247001,-0.004104564
-1.246001,-0.004070844
-1.245001,-0.004040189
-1.244001,-0.003997272
-1.243001,-0.003966617
-1.242001,-0.003932897
-1.241001,-0.003896111
-1.240001,-0.003871588
-1.239001,-0.003837867
-1.238001,-0.003801082
-1.237001,-0.003776558
-1.236001,-0.003748968
-1.235001,-0.003712183
-1.234001,-0.00369379
-1.233001,-0.0036662
-1.232001,-0.00363248
-1.231001,-0.003611021
-1.230001,-0.003583432
-1.229001,-0.003555843
-1.228001,-0.00353745
-1.227001,-0.003509861
-1.226001,-0.003485337
-1.225001,-0.003466944
-1.224001,-0.003439354
-1.223001,-0.003417896
-1.222001,-0.003396438
-1.221001,-0.003374979
-1.220001,-0.003353521
-1.219001,-0.003335128
-1.218001,-0.003310604
-1.217001,-0.003295277
-1.216001,-0.003273819
-1.215001,-0.00325236
-1.214001,-0.003237033
-1.213001,-0.003215575
-1.212001,-0.003200247
-1.211001,-0.003181854
-1.210001,-0.003160396
-1.209001,-0.003138937
-1.208001,-0.003126675
-1.207001,-0.003108283
-1.206001,-0.003089889
-1.205001,-0.003077628
-1.204001,-0.003053104
-1.203001,-0.003043907
-1.202001,-0.00302858
-1.201001,-0.003007122
-1.200001,-0.002997925
-1.199001,-0.002979532
-1.198001,-0.002958074
-1.197001,-0.002951943
-1.196001,-0.00293355
-1.195001,-0.002921288
-1.194001,-0.002909026
-1.193001,-0.002884502
-1.192001,-0.002878371
-1.191001,-0.002863044
-1.190001,-0.002844651
-1.189001,-0.002835455
-1.188001,-0.002823193
-1.187001,-0.0028048
-1.186001,-0.002798669
-1.185001,-0.002783341
-1.184001,-0.002764949
-1.183001,-0.002758818
-1.182001,-0.002746556
-1.181001,-0.002731228
-1.180001,-0.002715901
-1.179001,-0.002706704
-1.178001,-0.002691377
-1.177001,-0.002679115
-1.176001,-0.002672984
-1.175001,-0.002657657
-1.174001,-0.002642329
-1.173001,-0.002636198
-1.172001,-0.002617805
-1.171001,-0.002608609
-1.170001,-0.002602478
-1.169001,-0.002584085
-1.168001,-0.002577954
-1.167001,-0.002565692
-1.166001,-0.002550365
-1.165001,-0.002541168
-1.164001,-0.002531972
-1.163001,-0.002516645
-1.162001,-0.002510513
-1.161001,-0.002498251
-1.160001,-0.00248599
-1.159001,-0.002476793
-1.158001,-0.002467597
-1.157001,-0.002452269
-1.156001,-0.002443073
-1.155001,-0.002433876
-1.154001,-0.002421614
-1.153001,-0.002415484
-1.152001,-0.002406287
-1.151001,-0.00239096
-1.150001,-0.002384829
-1.149001,-0.002375632
-1.148001,-0.002360305
-1.147001,-0.002357239
-1.146001,-0.002341912
-1.145001,-0.002332716
-1.144001,-0.002326585
-1.143001,-0.002311257
-1.142001,-0.002302061
-1.141001,-0.002298995
-1.140001,-0.002280602
-1.139001,-0.002274471
-1.138001,-0.002271406
-1.137001,-0.002253013
-1.136001,-0.002246882
-1.135001,-0.002243817
-1.134001,-0.002225423
-1.133001,-0.002219293
-1.132001,-0.002210096
-1.131001,-0.002197834
-1.130001,-0.002191703
-1.129001,-0.002182507
-1.128001,-0.00217331
-1.127001,-0.002164114
-1.126001,-0.002151852
-1.125001,-0.002142655
-1.124001,-0.002136525
-1.123001,-0.002124263
-1.122001,-0.002115066
-1.121001,-0.002108935
-1.120001,-0.002096673
-1.119001,-0.002087477
-1.118001,-0.002081346
-1.117001,-0.002072149
-1.116001,-0.002062953
-1.115001,-0.002056822
-1.114001,-0.002041495
-1.113001,-0.002035364
-1.112001,-0.002029233
-1.111001,-0.002016971
-1.110001,-0.002004709
-1.109001,-0.002004709
-1.108001,-0.001989381
-1.107001,-0.00198325
-1.106001,-0.001974054
-1.105001,-0.001958727
-1.104001,-0.001955661
-1.103001,-0.001943399
-1.102001,-0.001934203
-1.101001,-0.001931137
-1.100001,-0.00191581
-1.099001,-0.001909679
-1.098001,-0.001900482
-1.097001,-0.00188822
-1.096001,-0.00188209
-1.095001,-0.001872893
-1.094001,-0.001857566
-1.093001,-0.0018545
-1.092001,-0.001845304
-1.091001,-0.001833042
-1.090001,-0.001823845
-1.089001,-0.001817714
-1.088001,-0.001802387
-1.087001,-0.00179319
-1.086001,-0.00178706
-1.085001,-0.001777863
-1.084001,-0.001768667
-1.083001,-0.001756405
-1.082001,-0.001753339
-1.081001,-0.001738012
-1.080001,-0.001731881
-1.079001,-0.001722684
-1.078001,-0.001713488
-1.077001,-0.001704292
-1.076001,-0.00169203
-1.075001,-0.001685899
-1.074001,-0.001676702
-1.073001,-0.001667506
-1.072001,-0.001658309
-1.071001,-0.001642982
-1.070001,-0.001642982
-1.069001,-0.00163072
-1.068001,-0.001615393
-1.067001,-0.001612327
-1.066001,-0.001603131
-1.065001,-0.001623468
-1.064001,-0.001621016
-1.063001,-0.001609367
-1.062001,-0.001597718
-1.061001,-0.001592813
-1.060001,-0.00157626
-1.059001,-0.001569822
-1.058001,-0.001565837
-1.057001,-0.001549283
-1.056001,-0.001544072
-1.055001,-0.001537328
-1.054001,-0.001520774
-1.053001,-0.001517096
-1.052001,-0.00150514
-1.051001,-0.001491652
-1.050001,-0.001487974
-1.049001,-0.001475712
-1.048001,-0.00146345
-1.047001,-0.001456399
-1.046001,-0.001446283
-1.045001,-0.001433102
-1.044001,-0.001426051
-1.043001,-0.001415628
-1.042001,-0.001403673
-1.041001,-0.001398462
-1.040001,-0.0013862
-1.039001,-0.001372405
-1.038001,-0.001368113
-1.037001,-0.001354319
-1.036001,-0.001342976
-1.035001,-0.001338072
-1.034001,-0.001323357
-1.033001,-0.001313548
-1.032001,-0.001306497
-1.031001,-0.001293622
-1.030001,-0.001282893
-1.029001,-0.001277068
-1.028001,-0.001262967
-1.027001,-0.001252851
-1.026001,-0.001245801
-1.025001,-0.001232619
-1.024001,-0.001221277
-1.023001,-0.001215146
-1.022001,-0.001201658
-1.021001,-0.001191541
-1.020001,-0.001182652
-1.019001,-0.001174068
-1.018001,-0.001163033
-1.017001,-0.001153223
-1.016001,-0.001140655
-1.015001,-0.00113391
-1.014001,-0.001122262
-1.013001,-0.001111226
-1.012001,-0.001102949
-1.011001,-0.001092526
-1.010001,-0.001081184
-1.009001,-0.00107444
-1.008001,-0.001063098
-1.007001,-0.001051756
-1.006001,-0.001046544
-1.005001,-0.001034589
-1.004001,-0.00102294
-1.003001,-0.001017729
-1.002001,-0.001006386
-1.001001,-0.0009959637
-1.000001,-0.0009904457
-0.9990008,-0.0009769576
-0.9980009,-0.0009680677
-0.9970009,-0.0009622434
-0.9960009,-0.0009481421
-0.9950009,-0.000940785
-0.9940009,-0.0009328147
-0.9930009,-0.0009196331
-0.9920009,-0.0009138088
-0.9910009,-0.0009055319
-0.9900008,-0.0008908176
-0.9890009,-0.0008883653
-0.9880009,-0.0008757967
-0.9870009,-0.0008653741
-0.9860009,-0.0008589366
-0.9850008,-0.0008479009
-0.9840009,-0.0008383978
-0.9830009,-0.0008310407
-0.9820009,-0.0008193919
-0.9810008,-0.000810502
-0.9800009,-0.0008003859
-0.9790009,-0.0007942549
-0.9780009,-0.0007829126
-0.9770009,-0.0007743293
-0.9760008,-0.0007672787
-0.9750009,-0.0007547102
-0.9740009,-0.0007470464
-0.9730009,-0.0007381566
-0.9720009,-0.0007258946
-0.9710009,-0.0007206833
-0.9700009,-0.0007096475
-0.9690009,-0.000699838
-0.9680009,-0.0006940136
-0.9670008,-0.0006811386
-0.9660009,-0.0006716356
-0.9650009,-0.0006658112
-0.9640009,-0.0006532427
-0.9630009,-0.0006446594
-0.9620008,-0.0006385284
-0.9610009,-0.0006262665
-0.9600009,-0.0006182962
-0.9590009,-0.0006100194
-0.9580009,-0.0005977575
-0.9570009,-0.0005931592
-0.9560009,-0.0005818169
-0.9550009,-0.000572927
-0.9540009,-0.0005655699
-0.9530008,-0.0005548407
-0.9520009,-0.0005459508
-0.9510009,-0.0005392068
-0.9500009,-0.000528171
-0.9490009,-0.0005205073
-0.9480008,-0.0005106977
-0.9470009,-0.0005033406
-0.9460009,-0.000492918
-0.9450009,-0.0004846411
-0.9440009,-0.0004778971
-0.9430009,-0.0004668614
-0.9420009,-0.0004595042
-0.9410009,-0.0004509208
-0.9400009,-0.0004398851
-0.9390008,-0.0004343672
-0.9380009,-0.0004267035
-0.9370009,-0.0004150547
-0.9360009,-0.0004095368
-0.9350009,-0.0003991142
-0.9340008,-0.0003932898
-0.9330009,-0.0003874653
-0.9320009,-0.0003742838
-0.9310009,-0.0003712183
-0.9300008,-0.0003641677
-0.9290009,-0.0003525188
-0.9280009,-0.0003494534
-0.9270009,-0.0003417897
-0.9260009,-0.0003325932
-0.9250008,-0.0003304474
-0.9240009,-0.0003212509
-0.9230009,-0.0003151199
-0.9220009,-0.0003099086
-0.9210009,-0.000302858
-0.9200009,-0.0002970336
-0.9190009,-0.0002930485
-0.9180009,-0.000286611
-0.9170009,-0.0002829324
-0.9160008,-0.0002786407
-0.9150009,-0.0002725097
-0.9140009,-0.0002685246
-0.9130009,-0.0002660722
-0.9120009,-0.0002617805
-0.9110008,-0.000258102
-0.9100009,-0.0002547299
-0.9090009,-0.0002492121
-0.9080009,-0.0002489055
-0.9070009,-0.0002446139
-0.9060009,-0.0002406287
-0.9050009,-0.0002397091
-0.9040009,-0.000236337
-0.9030009,-0.0002320454
-0.9020008,-0.0002308192
-0.9010009,-0.0002277537
-0.9000009,-0.0002240751
-0.8990009,-0.0002243817
-0.8980009,-0.0002197834
-0.8970008,-0.0002167179
-0.8960009,-0.0002164114
-0.8950009,-0.0002108935
-0.8940009,-0.0002084412
-0.8930008,-0.000207215
-0.8920009,-0.0002013905
-0.8910009,-0.0001992447
-0.8900009,-0.0001974054
-0.8890009,-0.0001900483
-0.8880008,-0.0001906613
-0.8870009,-0.0001875959
-0.8860009,-0.0001814649
-0.8850009,-0.0001814649
-0.8840009,-0.0001762536
-0.8830009,-0.0001701226
-0.8820009,-0.0001688964
-0.8810009,-0.0001639917
-0.8800009,-0.0001593934
-0.8790008,-0.0001569411
-0.8780009,-0.0001514232
-0.8770009,-0.0001471315
-0.8760009,-0.0001447509
-0.8750009,-0.0001416548
-0.8740008,-0.000135861
-0.8730009,-0.0001330408
-0.8720009,-0.0001277682
-0.8710009,-0.0001213
-0.8700009,-0.0001173762
-0.8690009,-0.0001119503
-0.8680009,-0.0001057273
-0.8670009,-0.0001018342
-0.8660009,-9.478355E-05
-0.8650008,-8.852997E-05
-0.8640009,-8.374781E-05
-0.8630009,-7.654393E-05
-0.8620009,-7.047428E-05
-0.8610009,-6.449658E-05
-0.8600008,-5.655699E-05
-0.8590009,-5.036471E-05
-0.8580009,-4.46016E-05
-0.8570009,-3.558908E-05
-0.8560008,-2.826258E-05
-0.8550009,-2.127328E-05
-0.8540009,-1.15557E-05
-0.8530009,-4.443782E-06
-0.8520009,4.354153E-06
-0.8510008,1.394911E-05
-0.8500009,2.179675E-05
-0.8490009,3.160629E-05
-0.8480009,4.135453E-05
-0.8470009,4.972329E-05
-0.8460009,6.026855E-05
-0.8450009,6.97409E-05
-0.8440009,8.040878E-05
-0.8430009,9.061684E-05
-0.8420008,0.0001022963
-0.8410009,0.000112627
-0.8400009,0.0001236934
-0.8390009,0.0001362619
-0.8380009,0.0001470524
-0.8370008,0.0001587012
-0.8360009,0.0001727105
-0.8350009,0.0001839301
-0.8340009,0.0001969278
-0.8330009,0.0002109677
-0.8320009,0.0002232909
-0.8310009,0.0002374228
-0.8300009,0.0002513401
-0.8290009,0.0002643377
-0.8280008,0.0002804315
-0.8270009,0.0002973635
-0.8260009,0.0003105451
-0.8250009,0.0003267921
-0.8240009,0.0003405868
-0.8230008,0.000354688
-0.8220009,0.0003718548
-0.8210009,0.0003859559
-0.8200009,0.000402203
-0.8190009,0.0004209024
-0.8180009,0.0004353102
-0.8170009,0.0004524769
-0.8160009,0.0004699502
-0.8150009,0.0004852776
-0.8140008,0.0005018312
-0.8130009,0.000519611
-0.8120009,0.000535858
-0.8110009,0.0005530248
-0.8100009,0.0005714177
-0.8090008,0.0005882778
-0.8080009,0.000605138
-0.8070009,0.000624144
-0.8060009,0.0006410041
-0.8050008,0.0006578643
-0.8040009,0.000678403
-0.8030009,0.0006934239
-0.8020009,0.0007118168
-0.8010009,0.0007308228
-0.8000008,0.0006830012
-0.8009992,0.000602379
-0.8019992,0.0005380039
-0.8029991,0.0004785335
-0.8039991,0.0004236614
-0.8049992,0.0003724678
-0.8059992,0.0003231135
-0.8069991,0.0002789706
-0.8079991,0.0002351342
-0.8089992,0.0001928305
-0.8099992,0.000154512
-0.8109992,0.0001155804
-0.8119991,7.818149E-05
-0.8129991,4.095601E-05
-0.8139992,6.316061E-06
-0.8149992,-2.660722E-05
-0.8159992,-5.597454E-05
-0.8169991,-8.788622E-05
-0.8179991,-0.0001181425
-0.8189992,-0.0001464369
-0.8199992,-0.0001743635
-0.8209991,-0.0002017382
-0.8219991,-0.0002253118
-0.8229992,-0.0002522574
-0.8239992,-0.0002758616
-0.8249992,-0.0002992206
-0.8259991,-0.0003206378
-0.8269991,-0.0003411766
-0.8279992,-0.0003629415
-0.8289992,-0.0003856261
-0.8299991,-0.0004055517
-0.8309991,-0.0004254773
-0.8319992,-0.000445403
-0.8329992,-0.0004625697
-0.8339992,-0.0004834149
-0.8349991,-0.0005021144
-0.8359991,-0.0005189746
-0.8369992,-0.0005361412
-0.8379992,-0.0005536145
-0.8389992,-0.0005698616
-0.8399991,-0.0005861087
-0.8409991,-0.0006026622
-0.8419992,-0.0006179896
-0.8429992,-0.000632704
-0.8439991,-0.0006483379
-0.8449991,-0.0006621326
-0.8459992,-0.0006756207
-0.8469992,-0.0006921744
-0.8479992,-0.0007035166
-0.8489991,-0.0007170048
-0.8499991,-0.0007323321
-0.8509992,-0.0007433679
-0.8519992,-0.000756856
-0.8529992,-0.0007709572
-0.8539991,-0.0007807668
-0.8549991,-0.0007936418
-0.8559992,-0.0008062103
-0.8569992,-0.0008169395
-0.8579991,-0.0008301211
-0.8589991,-0.0008420764
-0.8599992,-0.0008506598
-0.8609992,-0.0008644544
-0.8619992,-0.0008745705
-0.8629991,-0.0008846867
-0.8639991,-0.000896642
-0.8649992,-0.0009058384
-0.8659992,-0.0009150349
-0.8669991,-0.0009269903
-0.8679991,-0.0009371064
-0.8689992,-0.0009459963
-0.8699992,-0.0009582583
-0.8709992,-0.0009659219
-0.8719991,-0.0009748118
-0.8729991,-0.0009852345
-0.8739992,-0.0009928982
-0.8749992,-0.001002401
-0.8759992,-0.001012824
-0.8769991,-0.001020181
-0.8779991,-0.00103091
-0.8789992,-0.001039494
-0.8799992,-0.001046238
-0.8809991,-0.001055741
-0.8819991,-0.001065857
-0.8829992,-0.001073827
-0.8839992,-0.00108333
-0.8849992,-0.001089461
-0.8859991,-0.001099271
-0.8869991,-0.001108774
-0.8879992,-0.001115211
-0.8889992,-0.001125021
-0.8899992,-0.001135137
-0.8909991,-0.001140041
-0.8919991,-0.001151077
-0.8929992,-0.001159661
-0.8939992,-0.001164872
-0.8949991,-0.001176827
-0.8959991,-0.001183265
-0.8969992,-0.001190009
-0.8979992,-0.001200431
-0.8989992,-0.001208402
-0.8999991,-0.001214226
-0.9009991,-0.001224649
-0.9019992,-0.001232619
-0.9029992,-0.001239976
-0.9039991,-0.00124672
-0.9049991,-0.001256223
-0.9059991,-0.001262967
-0.9069992,-0.001271244
-0.9079992,-0.001280747
-0.9089991,-0.001287185
-0.9099991,-0.001295461
-0.9109992,-0.001304964
-0.9119992,-0.001310789
-0.9129992,-0.001319985
-0.9139991,-0.001329182
-0.9149991,-0.001335006
-0.9159992,-0.001344509
-0.9169992,-0.001353399
-0.9179991,-0.00135953
-0.9189991,-0.001368726
-0.9199992,-0.001377923
-0.9209992,-0.001383747
-0.9219992,-0.00139417
-0.9229991,-0.001402753
-0.9239991,-0.001408578
-0.9249992,-0.001419307
-0.9259992,-0.00142789
-0.9269992,-0.001433102
-0.9279991,-0.001442605
-0.9289991,-0.001452414
-0.9299992,-0.001459771
-0.9309992,-0.001469274
-0.9319991,-0.001478777
-0.9329991,-0.001483376
-0.9339992,-0.001495331
-0.9349992,-0.001503301
-0.9359992,-0.001510045
-0.9369991,-0.001521387
-0.9379991,-0.001529358
-0.9389992,-0.001536102
-0.9399992,-0.001547138
-0.9409992,-0.001555108
-0.9419991,-0.001563691
-0.9429991,-0.001575646
-0.9439992,-0.001580858
-0.9449992,-0.001590667
-0.9459991,-0.001601396
-0.9469991,-0.001606914
-0.9479992,-0.001617644
-0.9489992,-0.00162776
-0.9499992,-0.001633891
-0.9509991,-0.001645846
-0.9519991,-0.001654123
-0.9529992,-0.00166148
-0.9539992,-0.001673742
-0.9549991,-0.001682325
-0.9559991,-0.001689682
-0.9569992,-0.001700412
-0.9579992,-0.001708995
-0.9589992,-0.001716965
-0.9599991,-0.001729227
-0.9609991,-0.001736891
-0.9619992,-0.001744861
-0.9629992,-0.00175651
-0.9639992,-0.001764787
-0.9649991,-0.001773064
-0.9659991,-0.001784099
-0.9669992,-0.001789924
-0.9679992,-0.00180004
-0.9689991,-0.001812608
-0.9699991,-0.001819965
-0.9709992,-0.001827936
-0.9719992,-0.001840198
-0.9729992,-0.001846329
-0.9739991,-0.001856138
-0.9749991,-0.001866561
-0.9759992,-0.001873305
-0.9769992,-0.001882195
-0.9779992,-0.00189323
-0.9789991,-0.001901507
-0.9799991,-0.001909784
-0.9809992,-0.001920207
-0.9819992,-0.001929097
-0.9829991,-0.00193768
-0.9839991,-0.001945037
-0.9849992,-0.001953927
-0.9859992,-0.001966189
-0.9869992,-0.00197324
-0.9879991,-0.001979984
-0.9889991,-0.001991939
-0.9899992,-0.002000216
-0.9909992,-0.00200788
-0.9919991,-0.002017383
-0.9929991,-0.002027192
-0.9939992,-0.002033017
-0.9949992,-0.002043132
-0.9959992,-0.002054168
-0.9969991,-0.00205938
-0.9979991,-0.002071642
-0.9989992,-0.00208329
-0.9999992,-0.002083903
-1.000999,-0.002100764
-1.001999,-0.002107508
-1.002999,-0.002113945
-1.003999,-0.00212682
-1.004999,-0.002133871
-1.005999,-0.002141534
-1.006999,-0.002154103
-1.007999,-0.002159314
-1.008999,-0.002169737
-1.009999,-0.002180773
-1.010999,-0.002186291
-1.011999,-0.002198246
-1.012999,-0.002208362
-1.013999,-0.002214799
-1.014999,-0.002226448
-1.015999,-0.002236564
-1.016999,-0.002243922
-1.017999,-0.002256183
-1.018999,-0.002265993
-1.019999,-0.002271511
-1.020999,-0.002287758
-1.021999,-0.002294809
-1.022999,-0.002302166
-1.023999,-0.002319026
-1.024999,-0.002327303
-1.025999,-0.00233466
-1.026999,-0.002350294
-1.027999,-0.002358571
-1.028999,-0.00236838
-1.029999,-0.002382788
-1.030999,-0.002393517
-1.031999,-0.002401181
-1.032999,-0.002419574
-1.033999,-0.002427851
-1.034999,-0.00243766
-1.035999,-0.002453907
-1.036999,-0.002467089
-1.037999,-0.002475979
-1.038999,-0.002494371
-1.039999,-0.002503875
-1.040999,-0.002515523
-1.041999,-0.002534529
-1.042999,-0.002542806
-1.043999,-0.00256028
-1.044999,-0.002577446
-1.045999,-0.002587562
-1.046999,-0.00260289
-1.047999,-0.00262067
-1.048999,-0.002632625
-1.049999,-0.002649485
-1.050999,-0.002667571
-1.051999,-0.002681366
-1.052999,-0.002694241
-1.053999,-0.002715393
-1.054999,-0.002727961
-1.055999,-0.00274145
-1.056999,-0.002763215
-1.057999,-0.002776703
-1.058999,-0.002793869
-1.059999,-0.002811036
-1.060999,-0.002825444
-1.061999,-0.002842917
-1.062999,-0.002859777
-1.063999,-0.002872652
-1.064999,-0.002892271
-1.065999,-0.002907292
-1.066999,-0.002920474
-1.067999,-0.002938867
-1.068999,-0.002953274
-1.069999,-0.002963697
-1.070999,-0.00298209
-1.071999,-0.002996498
-1.072999,-0.002970336
-1.073999,-0.002988729
-1.074999,-0.002997925
-1.075999,-0.003010187
-1.076999,-0.003025514
-1.077999,-0.003034711
-1.078999,-0.003043907
-1.079999,-0.003056169
-1.080999,-0.003068431
-1.081999,-0.003074562
-1.082999,-0.003083759
-1.083999,-0.003096021
-1.084999,-0.003099086
-1.085999,-0.003111348
-1.086999,-0.003117479
-1.087999,-0.003117479
-1.088999,-0.003132806
-1.089999,-0.003132806
-1.090999,-0.003135872
-1.091999,-0.003145068
-1.092999,-0.003145068
-1.093999,-0.003148134
-1.094999,-0.003154265
-1.095999,-0.003151199
-1.096999,-0.003154265
-1.097999,-0.00315733
-1.098999,-0.003151199
-1.099999,-0.003154265
-1.100999,-0.003151199
-1.101999,-0.003145068
-1.102999,-0.003145068
-1.103999,-0.003145068
-1.104999,-0.003135872
-1.105999,-0.003135872
-1.106999,-0.003132806
-1.107999,-0.003126675
-1.108999,-0.003126675
-1.109999,-0.00312361
-1.110999,-0.003108283
-1.111999,-0.003111348
-1.112999,-0.003105217
-1.113999,-0.003092955
-1.114999,-0.003096021
-1.115999,-0.003089889
-1.116999,-0.003080693
-1.117999,-0.003086824
-1.118999,-0.003077628
-1.119999,-0.003071497
-1.120999,-0.003074562
-1.121999,-0.003065366
-1.122999,-0.0030623
-1.123999,-0.003068431
-1.124999,-0.0030623
-1.125999,-0.0030623
-1.126999,-0.003065366
-1.127999,-0.003056169
-1.128999,-0.003065366
-1.129999,-0.003068431
-1.130999,-0.0030623
-1.131999,-0.003068431
-1.132999,-0.003074562
-1.133999,-0.003065366
-1.134999,-0.003074562
-1.135999,-0.003077628
-1.136999,-0.003077628
-1.137999,-0.003086824
-1.138999,-0.003089889
-1.139999,-0.003092955
-1.140999,-0.003099086
-1.141999,-0.003105217
-1.142999,-0.003108283
-1.143999,-0.003111348
-1.144999,-0.003120545
-1.145999,-0.003126675
-1.146999,-0.003129741
-1.147999,-0.003142003
-1.148999,-0.003138937
-1.149999,-0.003154265
-1.150999,-0.00315733
-1.151999,-0.003160396
-1.152999,-0.003172658
-1.153999,-0.003181854
-1.154999,-0.003181854
-1.155999,-0.003191051
-1.156999,-0.003200247
-1.157999,-0.003203312
-1.158999,-0.003215575
-1.159999,-0.003224771
-1.160999,-0.003221706
-1.161999,-0.003243164
-1.162999,-0.003246229
-1.163999,-0.00325236
-1.164999,-0.003264622
-1.165999,-0.003267688
-1.166999,-0.003273819
-1.167999,-0.003289146
-1.168999,-0.003292212
-1.169999,-0.003301408
-1.170999,-0.00331367
-1.171999,-0.003319801
-1.172999,-0.003322866
-1.173999,-0.003338194
-1.174999,-0.003344325
-1.175999,-0.00334739
-1.176999,-0.003365783
-1.177999,-0.003368848
-1.178999,-0.003374979
-1.179999,-0.003393373
-1.180999,-0.003393373
-1.181999,-0.003402569
-1.182999,-0.003417896
-1.183999,-0.003417896
-1.184999,-0.003433224
-1.185999,-0.003439354
-1.186999,-0.003445486
-1.187999,-0.003460813
-1.188999,-0.003473075
-1.189999,-0.003473075
-1.190999,-0.003488402
-1.191999,-0.003497599
-1.192999,-0.003500664
-1.193999,-0.003512926
-1.194999,-0.003528254
-1.195999,-0.003534385
-1.196999,-0.003549712
-1.197999,-0.003558908
-1.198999,-0.003561974
-1.199999,-0.003580367
-1.200999,-0.003589563
-1.201999,-0.00359876
-1.202999,-0.003614087
-1.203999,-0.003626349
-1.204999,-0.00363248
-1.205999,-0.003650873
-1.206999,-0.003657004
-1.207999,-0.003672331
-1.208999,-0.00369379
-1.209999,-0.003699921
-1.210999,-0.003709117
-1.211999,-0.003730575
-1.212999,-0.003736707
-1.213999,-0.003755099
-1.214999,-0.003773492
-1.215999,-0.003782689
-1.216999,-0.003794951
-1.217999,-0.003819474
-1.218999,-0.003825605
-1.219999,-0.003847064
-1.220999,-0.003868522
-1.221999,-0.003874653
-1.222999,-0.003899177
-1.223999,-0.00391757
-1.224999,-0.003929832
-1.225999,-0.003954356
-1.226999,-0.003972749
-1.227999,-0.003985011
-1.228999,-0.0040126
-1.229999,-0.004030993
-1.230999,-0.00404632
-1.231999,-0.004076975
-1.232999,-0.004101499
-1.233999,-0.004110695
-1.234999,-0.004147481
-1.235999,-0.004172005
-1.236999,-0.004187332
-1.237999,-0.004217987
-1.238999,-0.004242511
-1.239999,-0.00426397
-1.240999,-0.004300755
-1.241999,-0.004328344
-1.242999,-0.004352869
-1.243999,-0.004389654
-1.244999,-0.004414178
-1.245999,-0.004444833
-1.246999,-0.00448775
-1.247999,-0.004512274
-1.248999,-0.004552125
-1.249999,-0.004591976
-1.250999,-0.004628762
-1.251999,-0.004665548
-1.252999,-0.00471153
-1.253999,-0.004751381
-1.254999,-0.004791233
-1.255999,-0.004843346
-1.256999,-0.004886262
-1.257999,-0.00493531
-1.258999,-0.004990489
-1.259999,-0.005036471
-1.260999,-0.00509165
-1.261999,-0.005149893
-1.262999,-0.005202007
-1.263999,-0.005266382
-1.264999,-0.005327692
-1.265999,-0.005389001
-1.266999,-0.005459507
-1.267999,-0.005533079
-1.268999,-0.005594389
-1.269999,-0.005677157
-1.270999,-0.005750729
-1.271999,-0.005821235
-1.272999,-0.005913199
-1.273999,-0.005995967
-1.274999,-0.006078735
-1.275999,-0.00617683
-1.276999,-0.006271861
-1.277999,-0.006363825
-1.278999,-0.006471117
-1.279999,-0.006572278
-1.280999,-0.006676504
-1.281999,-0.006799124
-1.282999,-0.006909481
-1.283999,-0.00702597
-1.284999,-0.007160851
-1.285999,-0.00728347
-1.286999,-0.007415285
-1.287999,-0.007556298
-1.288999,-0.007694244
-1.289999,-0.007835257
-1.290999,-0.007991596
-1.291999,-0.008141804
-1.292999,-0.008301211
-1.293999,-0.008472877
-1.294999,-0.008638413
-1.295999,-0.008816211
-1.296999,-0.00900014
-1.297999,-0.009177938
-1.298999,-0.009371064
-1.299999,-0.009567254
-1.300999,-0.00976038
-1.301999,-0.009971898
-1.302999,-0.01018342
-1.303999,-0.01039187
-1.304999,-0.01062178
-1.305999,-0.01084556
-1.306999,-0.01106628
-1.307999,-0.01131151
-1.308999,-0.01155062
-1.309999,-0.0117928
-1.310999,-0.01204723
-1.311999,-0.0122986
-1.312999,-0.01254997
-1.313999,-0.0128228
-1.314999,-0.01308336
-1.315999,-0.01335619
-1.316999,-0.01363822
-1.317999,-0.01391104
-1.318999,-0.01418694
-1.319999,-0.01447816
-1.320999,-0.01476018
-1.321999,-0.01505447
-1.322999,-0.01535182
-1.323999,-0.01564611
-1.324999,-0.01594346
-1.325999,-0.01625307
-1.326999,-0.01655349
-1.327999,-0.0168631
-1.328999,-0.01716965
-1.329999,-0.01747927
-1.330999,-0.01780421
-1.331999,-0.01811995
-1.332999,-0.0184357
-1.333999,-0.01875757
-1.334999,-0.01908558
-1.335999,-0.01940439
-1.336999,-0.0197324
-1.337999,-0.02006653
-1.338999,-0.02039454
-1.339999,-0.02072254
-1.340999,-0.02106281
-1.341999,-0.02139082
-1.342999,-0.02172189
-1.343999,-0.02205296
-1.344999,-0.02238403
-1.345999,-0.02272737
-1.346999,-0.02306151
-1.347999,-0.02339258
-1.348999,-0.02373285
-1.349999,-0.02407312
-1.350999,-0.02441338
-1.351999,-0.02476592
-1.352999,-0.02511538
-1.353999,-0.02544645
-1.354999,-0.02579285
-1.355999,-0.02614538
-1.356999,-0.02647645
-1.357999,-0.02682592
-1.358999,-0.02717539
-1.359999,-0.02752792
-1.360999,-0.02788351
-1.361999,-0.02822684
-1.362999,-0.02857324
-1.363999,-0.02892884
-1.364999,-0.02927524
-1.365999,-0.02961857
-1.366999,-0.02998337
-1.367999,-0.03033283
-1.368999,-0.03080693
-1.369999,-0.03117479
-1.370999,-0.03154265
-1.371999,-0.03191051
-1.372999,-0.03227837
-1.373999,-0.03264622
-1.374999,-0.03301408
-1.375999,-0.03338194
-1.376999,-0.0337498
-1.377999,-0.03411765
-1.378999,-0.03448552
-1.379999,-0.03482271
-1.380999,-0.03522123
-1.381999,-0.03555843
-1.382999,-0.03592629
-1.383999,-0.0363248
-1.384999,-0.03669266
-1.385999,-0.03706052
-1.386999,-0.03745903
-1.387999,-0.03782689
-1.388999,-0.03816409
-1.389999,-0.03856261
-1.390999,-0.03893046
-1.391999,-0.03929832
-1.392999,-0.03969683
-1.393999,-0.04006469
-1.394999,-0.04046321
-1.395999,-0.04086172
-1.396999,-0.04122957
-1.397999,-0.04159743
-1.398999,-0.04199595
-1.399999,-0.0423638
-1.400999,-0.04276232
-1.401999,-0.04313017
-1.402999,-0.04349803
-1.403999,-0.04389654
-1.404999,-0.0442644
-1.405999,-0.04463226
-1.406999,-0.04506143
-1.407999,-0.04542929
-1.408999,-0.0458278
-1.409999,-0.04622631
-1.410999,-0.04662482
-1.411999,-0.04699268
-1.412999,-0.04739119
-1.413999,-0.04775905
-1.414999,-0.04812691
-1.415999,-0.04852542
-1.416999,-0.04892394
-1.417999,-0.04929179
-1.418999,-0.04972096
-1.419999,-0.05015013
-1.420999,-0.05051799
-1.421999,-0.0509165
-1.422999,-0.05128435
-1.423999,-0.05168287
-1.424999,-0.05208138
-1.425999,-0.05247989
-1.426999,-0.05284775
-1.427999,-0.05324627
-1.428999,-0.05364478
-1.429999,-0.05407395
-1.430999,-0.05447246
-1.431999,-0.05484032
-1.432999,-0.05523883
-1.433999,-0.055668
-1.434999,-0.05603585
-1.435999,-0.05643437
-1.436999,-0.05686354
-1.437999,-0.05726204
-1.438999,-0.05766056
-1.439999,-0.05805907
-1.440999,-0.05845758
-1.441999,-0.0588561
-1.442999,-0.05925461
-1.443999,-0.05965312
-1.444999,-0.06005164
-1.445999,-0.0604808
-1.446999,-0.06087932
-1.447999,-0.06127783
-1.448999,-0.061707
-1.449999,-0.06210551
-1.450999,-0.06250402
-1.451999,-0.06293319
-1.452999,-0.06330105
-1.453999,-0.06369957
-1.454999,-0.06412873
-1.455999,-0.06452724
-1.456999,-0.06495641
-1.457999,-0.06535492
-1.458999,-0.06575344
-1.459999,-0.06618261
-1.460999,-0.06658112
-1.461999,-0.06697963
-1.462999,-0.06740879
-1.463999,-0.06780731
-1.464999,-0.06817517
-1.465999,-0.06863499
-1.466999,-0.0690335
-1.467999,-0.06943201
-1.468999,-0.06986118
-1.469999,-0.07029035
-1.470999,-0.07068887
-1.471999,-0.07111803
-1.472999,-0.0715472
-1.473999,-0.07194571
-1.474999,-0.07237487
-1.475999,-0.07277339
-1.476999,-0.07314125
-1.477999,-0.07360107
-1.478999,-0.07403024
-1.479999,-0.07442875
-1.480999,-0.07488858
-1.481999,-0.07528709
-1.482999,-0.0756856
-1.483999,-0.07611477
-1.484999,-0.07651328
-1.485999,-0.07694244
-1.486999,-0.07734096
-1.487999,-0.07777013
-1.488999,-0.07819929
-1.489999,-0.07862847
-1.490999,-0.07902697
-1.491999,-0.07945614
-1.492999,-0.07988531
-1.493999,-0.08031448
-1.494999,-0.08074365
-1.495999,-0.08117282
-1.496999,-0.08160198
-1.497999,-0.08200049
-1.498999,-0.08242966
-1.499999,-0.08255228
-1.499001,-0.08212312
-1.498001,-0.08169394
-1.497001,-0.08123412
-1.496001,-0.0807743
-1.495001,-0.08031448
-1.494001,-0.07985466
-1.493001,-0.07939483
-1.492001,-0.07893501
-1.491001,-0.07847519
-1.490001,-0.07804602
-1.489001,-0.0775862
-1.488001,-0.07712638
-1.487001,-0.07666656
-1.486001,-0.07620674
-1.485001,-0.07574691
-1.484001,-0.07531774
-1.483001,-0.07488858
-1.482001,-0.07442875
-1.481001,-0.07396893
-1.480001,-0.07353976
-1.479001,-0.07307994
-1.478001,-0.07258946
-1.477001,-0.07219095
-1.476001,-0.07173113
-1.475001,-0.0712713
-1.474001,-0.07084214
-1.473001,-0.07035166
-1.472001,-0.06992249
-1.471001,-0.06949332
-1.470001,-0.06906416
-1.469001,-0.06863499
-1.468001,-0.06820583
-1.467001,-0.06771534
-1.466001,-0.06728618
-1.465001,-0.06685701
-1.464001,-0.06639718
-1.463001,-0.06596802
-1.462001,-0.06550819
-1.461001,-0.06504837
-1.460001,-0.06464987
-1.459001,-0.06419004
-1.458001,-0.06373022
-1.457001,-0.06333171
-1.456001,-0.06287188
-1.455001,-0.06244272
-1.454001,-0.06201354
-1.453001,-0.06155372
-1.452001,-0.06112456
-1.451001,-0.06069539
-1.450001,-0.06023557
-1.449001,-0.05983705
-1.448001,-0.05940789
-1.447001,-0.05897872
-1.446001,-0.05854955
-1.445001,-0.05808973
-1.444001,-0.05766056
-1.443001,-0.05723139
-1.442001,-0.05680222
-1.441001,-0.05637306
-1.440001,-0.05594389
-1.439001,-0.05551472
-1.438001,-0.0550549
-1.437001,-0.05465639
-1.436001,-0.05422722
-1.435001,-0.05376739
-1.434001,-0.05336889
-1.433001,-0.05293972
-1.432001,-0.05251055
-1.431001,-0.05208138
-1.430001,-0.05165222
-1.429001,-0.05122305
-1.428001,-0.05082453
-1.427001,-0.05036471
-1.426001,-0.0499662
-1.425001,-0.04956769
-1.424001,-0.04913852
-1.423001,-0.04874001
-1.422001,-0.04834149
-1.421001,-0.04788167
-1.420001,-0.04748316
-1.419001,-0.04705399
-1.418001,-0.04665548
-1.417001,-0.04622631
-1.416001,-0.0458278
-1.415001,-0.04542929
-1.414001,-0.04500012
-1.413001,-0.0446016
-1.412001,-0.04420309
-1.411001,-0.04383523
-1.410001,-0.04340607
-1.409001,-0.04300755
-1.408001,-0.04260904
-1.407001,-0.04217988
-1.406001,-0.04178136
-1.405001,-0.04138285
-1.404001,-0.04098434
-1.403001,-0.04058582
-1.402001,-0.04018731
-1.401001,-0.03975814
-1.400001,-0.03939028
-1.399001,-0.03899177
-1.398001,-0.03859326
-1.397001,-0.0382254
-1.396001,-0.03779623
-1.395001,-0.03739772
-1.394001,-0.03702986
-1.393001,-0.03663135
-1.392001,-0.03623284
-1.391001,-0.03583432
-1.390001,-0.03546647
-1.389001,-0.03506796
-1.388001,-0.0347001
-1.387001,-0.03433224
-1.386001,-0.03393373
-1.385001,-0.03356587
-1.384001,-0.03319801
-1.383001,-0.0327995
-1.382001,-0.03243164
-1.381001,-0.03209443
-1.380001,-0.03169592
-1.379001,-0.03132806
-1.378001,-0.03096021
-1.377001,-0.03059235
-1.376001,-0.03022449
-1.375001,-0.02982598
-1.374001,-0.02945812
-1.373001,-0.02912092
-1.372001,-0.02875306
-1.371001,-0.0283852
-1.370001,-0.028048
-1.369001,-0.02768014
-1.368001,-0.02734294
-1.367001,-0.02697508
-1.366001,-0.02666853
-1.365001,-0.02630067
-1.364001,-0.02593282
-1.363001,-0.02559561
-1.362001,-0.02525841
-1.361001,-0.02492121
-1.360001,-0.024584
-1.359001,-0.0242468
-1.358001,-0.0239096
-1.357001,-0.02357239
-1.356001,-0.02323519
-1.355001,-0.02292864
-1.354001,-0.02259144
-1.353001,-0.02225424
-1.352001,-0.02194769
-1.351001,-0.02161049
-1.350001,-0.02130394
-1.349001,-0.02096673
-1.348001,-0.02066019
-1.347001,-0.02035364
-1.346001,-0.02004709
-1.345001,-0.01974054
-1.344001,-0.01943399
-1.343001,-0.01912744
-1.342001,-0.01882089
-1.341001,-0.018545
-1.340001,-0.01823845
-1.339001,-0.01793191
-1.338001,-0.01765601
-1.337001,-0.01738012
-1.336001,-0.01707357
-1.335001,-0.01679768
-1.334001,-0.01649113
-1.333001,-0.01621523
-1.332001,-0.01597
-1.331001,-0.01579018
-1.330001,-0.01552962
-1.329001,-0.01528438
-1.328001,-0.01502075
-1.327001,-0.01476631
-1.326001,-0.01452108
-1.325001,-0.01426664
-1.324001,-0.0140214
-1.323001,-0.01377923
-1.322001,-0.01353705
-1.321001,-0.01330101
-1.320001,-0.01306497
-1.319001,-0.0128228
-1.318001,-0.01260515
-1.317001,-0.0123783
-1.316001,-0.01215146
-1.315001,-0.01193381
-1.314001,-0.01171309
-1.313001,-0.01149544
-1.312001,-0.01129312
-1.311001,-0.01107854
-1.310001,-0.01087008
-1.309001,-0.01067696
-1.308001,-0.01048077
-1.307001,-0.01028151
-1.306001,-0.01009758
-1.305001,-0.009910588
-1.304001,-0.009723594
-1.303001,-0.009542731
-1.302001,-0.009367998
-1.301001,-0.009202462
-1.300001,-0.009030795
-1.299001,-0.008865259
-1.298001,-0.008708919
-1.297001,-0.008546448
-1.296001,-0.008390109
-1.295001,-0.008242966
-1.294001,-0.008095822
-1.293001,-0.007951745
-1.292001,-0.007810732
-1.291001,-0.007672786
-1.290001,-0.007537905
-1.289001,-0.00741222
-1.288001,-0.007286535
-1.287001,-0.007157785
-1.286001,-0.007035166
-1.285001,-0.006921743
-1.284001,-0.006799124
-1.283001,-0.006694897
-1.282001,-0.00658454
-1.281001,-0.006477248
-1.280001,-0.006376087
-1.279001,-0.006271861
-1.278001,-0.006170699
-1.277001,-0.0060818
-1.276001,-0.005986771
-1.275001,-0.005897872
-1.274001,-0.005815104
-1.273001,-0.005723139
-1.272001,-0.005643437
-1.271001,-0.0055668
-1.270001,-0.005480966
-1.269001,-0.00541046
-1.268001,-0.005336888
-1.267001,-0.005257186
-1.266001,-0.005198942
-1.265001,-0.005131501
-1.264001,-0.005060995
-1.263001,-0.005005816
-1.262001,-0.004938376
-1.261001,-0.004870935
-1.260001,-0.004821887
-1.259001,-0.004760577
-1.258001,-0.004702333
-1.257001,-0.004647155
-1.256001,-0.004601172
-1.255001,-0.004545994
-1.254001,-0.004496946
-1.253001,-0.004450964
-1.252001,-0.004398851
-1.251001,-0.004355934
-1.250001,-0.004313017
-1.249001,-0.00426397
-1.248001,-0.004227184
-1.247001,-0.004184267
-1.246001,-0.00414135
-1.245001,-0.004104564
-1.244001,-0.004064713
-1.243001,-0.004030993
-1.242001,-0.003997272
-1.241001,-0.003954356
-1.240001,-0.00391757
-1.239001,-0.00388998
-1.238001,-0.003850129
-1.237001,-0.003825605
-1.236001,-0.003791885
-1.235001,-0.003755099
-1.234001,-0.003730575
-1.233001,-0.003696855
-1.232001,-0.003669266
-1.231001,-0.003644742
-1.230001,-0.003617153
-1.229001,-0.003583432
-1.228001,-0.003565039
-1.227001,-0.00353745
-1.226001,-0.003506796
-1.225001,-0.003485337
-1.224001,-0.003463879
-1.223001,-0.003433224
-1.222001,-0.003414831
-1.221001,-0.003393373
-1.220001,-0.003362718
-1.219001,-0.00334739
-1.218001,-0.003322866
-1.217001,-0.003301408
-1.216001,-0.003283015
-1.215001,-0.003255426
-1.214001,-0.003237033
-1.213001,-0.003221706
-1.212001,-0.003194116
-1.211001,-0.003181854
-1.210001,-0.003163461
-1.209001,-0.003138937
-1.208001,-0.00312361
-1.207001,-0.003108283
-1.206001,-0.003080693
-1.205001,-0.003074562
-1.204001,-0.003056169
-1.203001,-0.00302858
-1.202001,-0.003019383
-1.201001,-0.003004056
-1.200001,-0.002982598
-1.199001,-0.002973401
-1.198001,-0.002951943
-1.197001,-0.00293355
-1.196001,-0.002924354
-1.195001,-0.002902895
-1.194001,-0.002887568
-1.193001,-0.002875306
-1.192001,-0.002859978
-1.191001,-0.002844651
-1.190001,-0.002835455
-1.189001,-0.002817062
-1.188001,-0.002795603
-1.187001,-0.002789472
-1.186001,-0.00277108
-1.185001,-0.002758818
-1.184001,-0.002749621
-1.183001,-0.002728163
-1.182001,-0.002718966
-1.181001,-0.002706704
-1.180001,-0.002688312
-1.179001,-0.002679115
-1.178001,-0.002666853
-1.177001,-0.00264846
-1.176001,-0.002639264
-1.175001,-0.002630068
-1.174001,-0.002611674
-1.173001,-0.002602478
-1.172001,-0.002590216
-1.171001,-0.002577954
-1.170001,-0.002568757
-1.169001,-0.002550365
-1.168001,-0.002544234
-1.167001,-0.002535037
-1.166001,-0.002516645
-1.165001,-0.002507448
-1.164001,-0.002498251
-1.163001,-0.002479859
-1.162001,-0.002476793
-1.161001,-0.002464531
-1.160001,-0.002446138
-1.159001,-0.002440007
-1.158001,-0.002430811
-1.157001,-0.002412418
-1.156001,-0.002406287
-1.155001,-0.002394025
-1.154001,-0.002381763
-1.153001,-0.002369501
-1.152001,-0.00236337
-1.151001,-0.002351108
-1.150001,-0.002338846
-1.149001,-0.002335781
-1.148001,-0.002314323
-1.147001,-0.002311257
-1.146001,-0.002302061
-1.145001,-0.002289799
-1.144001,-0.002280602
-1.143001,-0.002271406
-1.142001,-0.002256078
-1.141001,-0.002253013
-1.140001,-0.002237685
-1.139001,-0.002228489
-1.138001,-0.002222358
-1.137001,-0.002203965
-1.136001,-0.002197834
-1.135001,-0.002191703
-1.134001,-0.002176376
-1.133001,-0.002170245
-1.132001,-0.002164114
-1.131001,-0.002148786
-1.130001,-0.00213959
-1.129001,-0.002136525
-1.128001,-0.002124263
-1.127001,-0.002112001
-1.126001,-0.00210587
-1.125001,-0.002093608
-1.124001,-0.002084411
-1.123001,-0.00207828
-1.122001,-0.002066019
-1.121001,-0.002059887
-1.120001,-0.002047626
-1.119001,-0.002038429
-1.118001,-0.002032298
-1.117001,-0.002023102
-1.116001,-0.00201084
-1.115001,-0.002004709
-1.114001,-0.001995512
-1.113001,-0.001980185
-1.112001,-0.00197712
-1.111001,-0.001967923
-1.110001,-0.001955661
-1.109001,-0.00194953
-1.108001,-0.001937268
-1.107001,-0.001925006
-1.106001,-0.001921941
-1.105001,-0.001909679
-1.104001,-0.001900482
-1.103001,-0.001891286
-1.102001,-0.00188209
-1.101001,-0.001872893
-1.100001,-0.001863697
-1.099001,-0.0018545
-1.098001,-0.001842238
-1.097001,-0.001839173
-1.096001,-0.001826911
-1.095001,-0.001814649
-1.094001,-0.001811583
-1.093001,-0.001799321
-1.092001,-0.00178706
-1.091001,-0.001780929
-1.090001,-0.001768667
-1.089001,-0.001762536
-1.088001,-0.001753339
-1.087001,-0.001741077
-1.086001,-0.001734946
-1.085001,-0.001728815
-1.084001,-0.001713488
-1.083001,-0.001707357
-1.082001,-0.001698161
-1.081001,-0.001685899
-1.080001,-0.001679768
-1.079001,-0.001673637
-1.078001,-0.001655244
-1.077001,-0.001652178
-1.076001,-0.001642982
-1.075001,-0.001627655
-1.074001,-0.001627655
-1.073001,-0.001612327
-1.072001,-0.001603131
-1.071001,-0.001597
-1.070001,-0.001621016
-1.069001,-0.00160906
-1.068001,-0.001605688
-1.067001,-0.001595879
-1.066001,-0.001581164
-1.065001,-0.001579019
-1.064001,-0.001566757
-1.063001,-0.00155756
-1.062001,-0.001551123
-1.061001,-0.001537635
-1.060001,-0.001528438
-1.059001,-0.001520468
-1.058001,-0.001510658
-1.057001,-0.001503608
-1.056001,-0.001492572
-1.055001,-0.001481843
-1.054001,-0.001474792
-1.053001,-0.001464063
-1.052001,-0.001453947
-1.051001,-0.001450268
-1.050001,-0.001435554
-1.049001,-0.001425744
-1.048001,-0.00142084
-1.047001,-0.001406738
-1.046001,-0.001396622
-1.045001,-0.001390798
-1.044001,-0.00137547
-1.043001,-0.001370566
-1.042001,-0.001362902
-1.041001,-0.001344203
-1.040001,-0.001342976
-1.039001,-0.001332247
-1.038001,-0.001317839
-1.037001,-0.001311708
-1.036001,-0.001300979
-1.035001,-0.001288717
-1.034001,-0.001281667
-1.033001,-0.001269711
-1.032001,-0.001258676
-1.031001,-0.001252545
-1.030001,-0.001241509
-1.029001,-0.001226488
-1.028001,-0.00122281
-1.027001,-0.001210241
-1.026001,-0.001200431
-1.025001,-0.001191848
-1.024001,-0.001176521
-1.023001,-0.001167324
-1.022001,-0.001161806
-1.021001,-0.001147705
-1.020001,-0.001137282
-1.019001,-0.001132071
-1.018001,-0.001117663
-1.017001,-0.001106015
-1.016001,-0.001103562
-1.015001,-0.001088848
-1.014001,-0.001078119
-1.013001,-0.001073827
-1.012001,-0.001056354
-1.011001,-0.00104961
-1.010001,-0.001043172
-1.009001,-0.001028458
-1.008001,-0.001022634
-1.007001,-0.001011291
-1.006001,-0.001000869
-1.005001,-0.000994431
-1.004001,-0.0009809429
-1.003001,-0.0009735856
-1.002001,-0.0009668416
-1.001001,-0.0009524338
-1.000001,-0.0009466094
-0.9990011,-0.000937413
-0.9980011,-0.0009236183
-0.9970011,-0.0009181004
-0.9960011,-0.0009079843
-0.9950011,-0.0008954158
-0.9940011,-0.0008880587
-0.9930011,-0.0008797819
-0.9920011,-0.0008684396
-0.9910011,-0.0008595497
-0.9900011,-0.0008509663
-0.9890011,-0.0008399306
-0.9880011,-0.0008304276
-0.9870011,-0.0008227639
-0.9860011,-0.0008114216
-0.9850011,-0.0008025317
-0.9840011,-0.0007951746
-0.9830011,-0.0007835258
-0.9820011,-0.0007740227
-0.9810011,-0.0007678918
-0.9800011,-0.0007544036
-0.9790011,-0.0007479661
-0.9780011,-0.000740609
-0.9770011,-0.0007255881
-0.9760011,-0.0007212964
-0.9750011,-0.0007114868
-0.9740011,-0.0007022904
-0.9730011,-0.0006927875
-0.9720011,-0.0006814452
-0.9710011,-0.0006707159
-0.9700011,-0.0006679571
-0.9690011,-0.0006526296
-0.9680011,-0.0006461921
-0.9670011,-0.0006385284
-0.9660011,-0.0006281057
-0.9650011,-0.0006173765
-0.9640011,-0.0006115522
-0.9630011,-0.0005999033
-0.9620011,-0.0005900938
-0.9610011,-0.0005836562
-0.9600011,-0.0005732336
-0.9590011,-0.0005655699
-0.9580011,-0.0005575996
-0.9570011,-0.0005459508
-0.9560011,-0.0005370609
-0.9550011,-0.0005300103
-0.9540011,-0.0005195877
-0.9530011,-0.0005110043
-0.9520011,-0.000503034
-0.9510011,-0.0004941442
-0.9500011,-0.0004861739
-0.9490011,-0.0004782036
-0.9480011,-0.0004644089
-0.9470011,-0.000458278
-0.9460011,-0.0004509208
-0.9450011,-0.0004386589
-0.9440011,-0.0004309952
-0.9430011,-0.0004248642
-0.9420011,-0.0004144416
-0.9410011,-0.0004083106
-0.9400011,-0.0003963552
-0.9390011,-0.000388385
-0.9380011,-0.000382254
-0.9370011,-0.0003715248
-0.9360011,-0.0003657004
-0.9350011,-0.0003583433
-0.9340011,-0.0003476141
-0.9330011,-0.0003424028
-0.9320011,-0.0003328998
-0.9310011,-0.0003243164
-0.9300011,-0.0003197182
-0.9290011,-0.0003108283
-0.9280011,-0.0003019384
-0.9270011,-0.0002976467
-0.9260011,-0.0002896764
-0.9250011,-0.0002813996
-0.9240011,-0.0002761883
-0.9230011,-0.0002706705
-0.9220011,-0.0002633133
-0.9210011,-0.0002590216
-0.9200011,-0.0002528907
-0.9190011,-0.0002455335
-0.9180011,-0.0002430811
-0.9170011,-0.0002366436
-0.9160011,-0.0002314323
-0.9150011,-0.0002292864
-0.9140011,-0.0002237686
-0.9130011,-0.0002194769
-0.9120011,-0.0002176376
-0.9110011,-0.0002115066
-0.9100011,-0.0002099739
-0.9090011,-0.0002078281
-0.9080011,-0.0002007774
-0.9070011,-0.0001995512
-0.9060011,-0.0001980185
-0.9050011,-0.0001934203
-0.9040011,-0.0001925007
-0.9030011,-0.0001894352
-0.9020011,-0.0001848369
-0.9010011,-0.0001829976
-0.9000011,-0.0001808518
-0.8990011,-0.0001777863
-0.8980011,-0.0001756405
-0.8970011,-0.0001731881
-0.8960011,-0.0001701226
-0.8950011,-0.0001667506
-0.8940011,-0.0001646047
-0.8930011,-0.0001612327
-0.8920011,-0.0001557148
-0.8910011,-0.0001566345
-0.8900011,-0.0001523428
-0.8890011,-0.0001471315
-0.8880011,-0.0001465184
-0.8870011,-0.0001410005
-0.8860011,-0.0001394476
-0.8850011,-0.0001383134
-0.8840011,-0.0001329488
-0.8830011,-0.0001305271
-0.8820011,-0.0001266339
-0.8810011,-0.0001213613
-0.8800011,-0.0001195833
-0.8790011,-0.0001148625
-0.8780011,-0.0001098657
-0.8770011,-0.0001064017
-0.8760011,-0.0001016196
-0.8750011,-9.662284E-05
-0.8740011,-9.371064E-05
-0.8730011,-8.610824E-05
-0.8720011,-8.304276E-05
-0.8710011,-8.003858E-05
-0.8700011,-7.292666E-05
-0.8690011,-6.731683E-05
-0.8680011,-6.323974E-05
-0.8670011,-5.502424E-05
-0.8660011,-5.195876E-05
-0.8650011,-4.665548E-05
-0.8640011,-3.908373E-05
-0.8630011,-3.44242E-05
-0.8620011,-2.841586E-05
-0.8610011,-2.072149E-05
-0.8600011,-1.523428E-05
-0.8590011,-8.091706E-06
-0.8580011,-6.42584E-07
-0.8570011,6.254752E-06
-0.8560011,1.379584E-05
-0.8550011,2.225657E-05
-0.8540011,2.841819E-05
-0.8530011,3.758398E-05
-0.8520011,4.668847E-05
-0.8510011,5.38617E-05
-0.8500011,6.293552E-05
-0.8490011,7.207066E-05
-0.8480011,7.921323E-05
-0.8470011,9.049421E-05
-0.8460011,0.0001006716
-0.8450011,0.0001077529
-0.8440011,0.0001205666
-0.8430011,0.0001297324
-0.8420011,0.0001389288
-0.8410011,0.0001522943
-0.8400011,0.0001614295
-0.8390011,0.0001731396
-0.8380011,0.000186076
-0.8370011,0.0001957322
-0.8360011,0.0002088832
-0.8350011,0.0002217582
-0.8340011,0.000231813
-0.8330011,0.0002466806
-0.8320011,0.0002590344
-0.8310011,0.0002713577
-0.8300011,0.0002857961
-0.8290011,0.0003025748
-0.8280011,0.0003160629
-0.8270011,0.0003301642
-0.8260011,0.0003448785
-0.8250011,0.0003583666
-0.8240011,0.000373694
-0.8230011,0.0003890214
-0.8220011,0.0004028161
-0.8210011,0.0004196763
-0.8200011,0.0004346971
-0.8190011,0.0004518639
-0.8180011,0.0004684174
-0.8170011,0.0004843579
-0.8160011,0.0004996854
-0.8150011,0.0005180782
-0.8140011,0.0005334057
-0.8130011,0.0005499593
-0.8120011,0.0005689653
-0.8110011,0.0005849058
-0.8100011,0.0006017659
-0.8090011,0.0006201588
-0.8080011,0.0006360994
-0.8070011,0.0006541857
-0.8060011,0.0006734983
-0.8050011,0.0006888256
-0.8040011,0.0007090578
-0.8030011,0.0007265311
-0.8020011,0.0007430847
-0.8010011,0.0007623972
