EXPID. 1221
[电化学]: CV : -0.8 >> -0.8 >> -1.5 >> -0.8(V) @ 0.01(V/s) X 10(Seg)
起始电位 (V),-0.8
上限电位 (V),-0.8
下限电位 (V),-1.5
终止电位 (V),-0.8
扫速 (V/s),0.01
电解液 信息:
KOH,1
-0.8,-0.3626349
-0.801,-0.2292864
-0.802,-0.1437595
-0.803,-0.1081999
-0.804,-0.08975616
-0.805,-0.07712638
-0.806,-0.06820583
-0.807,-0.06143111
-0.808,-0.05612782
-0.809,-0.05168287
-0.81,-0.04791233
-0.811,-0.0446016
-0.812,-0.04159743
-0.813,-0.03896112
-0.814,-0.03669266
-0.815,-0.03466944
-0.816,-0.03283015
-0.817,-0.03120545
-0.818,-0.02973401
-0.819,-0.02835455
-0.82,-0.02712835
-0.821,-0.02602478
-0.822,-0.02495186
-0.823,-0.02394025
-0.824,-0.02298995
-0.825,-0.02207031
-0.826,-0.02112001
-0.827,-0.02026167
-0.828,-0.01952596
-0.829,-0.01885155
-0.83,-0.01823845
-0.831,-0.01768667
-0.832,-0.01716554
-0.833,-0.0166444
-0.834,-0.01618458
-0.835,-0.01572476
-0.836,-0.01544685
-0.837,-0.0150514
-0.838,-0.01467741
-0.839,-0.01431875
-0.84,-0.01397235
-0.841,-0.01365048
-0.842,-0.0133286
-0.843,-0.01302818
-0.844,-0.01274309
-0.845,-0.01246414
-0.846,-0.01219437
-0.847,-0.011943
-0.848,-0.01168857
-0.849,-0.0114464
-0.85,-0.01121648
-0.851,-0.0109927
-0.852,-0.01077199
-0.853,-0.01056354
-0.854,-0.01035508
-0.855,-0.0101497
-0.856,-0.009950439
-0.857,-0.009751183
-0.858,-0.009548862
-0.859,-0.009340408
-0.86,-0.00912889
-0.861,-0.008911241
-0.862,-0.008696658
-0.863,-0.008469812
-0.864,-0.008242966
-0.865,-0.008028382
-0.866,-0.007822994
-0.867,-0.007626804
-0.868,-0.007449006
-0.869,-0.007277339
-0.87,-0.007117934
-0.871,-0.006970791
-0.872,-0.006823647
-0.873,-0.006691832
-0.874,-0.006563081
-0.875,-0.006434331
-0.876,-0.006317842
-0.877,-0.00620442
-0.878,-0.006090997
-0.879,-0.005986771
-0.88,-0.005888675
-0.881,-0.005787514
-0.882,-0.00569555
-0.883,-0.00560665
-0.884,-0.005517752
-0.885,-0.005431918
-0.886,-0.005352216
-0.887,-0.005269447
-0.888,-0.005195876
-0.889,-0.005122304
-0.89,-0.005048733
-0.891,-0.004981292
-0.892,-0.004913852
-0.893,-0.004846411
-0.894,-0.004782036
-0.895,-0.004723792
-0.896,-0.004662482
-0.897,-0.004604238
-0.898,-0.00454906
-0.899,-0.004490815
-0.9,-0.004438702
-0.901,-0.004386589
-0.902,-0.00433141
-0.903,-0.004282362
-0.904,-0.004227184
-0.905,-0.004178136
-0.906,-0.004129088
-0.907,-0.00408004
-0.908,-0.004034058
-0.909,-0.003988076
-0.91,-0.003942094
-0.911,-0.003899177
-0.912,-0.00385626
-0.913,-0.003816409
-0.914,-0.003776558
-0.915,-0.003739772
-0.916,-0.003702986
-0.917,-0.0036662
-0.918,-0.00363248
-0.919,-0.00359876
-0.92,-0.003568105
-0.921,-0.00353745
-0.922,-0.003506796
-0.923,-0.003479206
-0.924,-0.003451617
-0.925,-0.003424027
-0.926,-0.003399503
-0.927,-0.003371914
-0.928,-0.00334739
-0.929,-0.003325932
-0.93,-0.003298342
-0.931,-0.003276884
-0.932,-0.003258491
-0.933,-0.003233967
-0.934,-0.003215575
-0.935,-0.003197182
-0.936,-0.003172658
-0.937,-0.00315733
-0.938,-0.003138937
-0.939,-0.003120545
-0.94,-0.003105217
-0.941,-0.003089889
-0.942,-0.003068431
-0.943,-0.003056169
-0.944,-0.003040842
-0.945,-0.003025514
-0.946,-0.003010187
-0.947,-0.002997925
-0.948,-0.002982598
-0.949,-0.00296727
-0.95,-0.002955008
-0.951,-0.002939681
-0.952,-0.002927419
-0.953,-0.002915157
-0.954,-0.002902895
-0.955,-0.002890633
-0.956,-0.002878371
-0.957,-0.00286611
-0.958,-0.002853847
-0.959,-0.002841586
-0.96,-0.002832389
-0.961,-0.002823193
-0.962,-0.002810931
-0.963,-0.002801734
-0.964,-0.002792538
-0.965,-0.002783341
-0.966,-0.002774145
-0.967,-0.002764949
-0.968,-0.002755752
-0.969,-0.002749621
-0.97,-0.002740425
-0.971,-0.002731228
-0.972,-0.002722032
-0.973,-0.002712835
-0.974,-0.002706704
-0.975,-0.002697508
-0.976,-0.002691377
-0.977,-0.00268218
-0.978,-0.002676049
-0.979,-0.002669919
-0.98,-0.002660722
-0.981,-0.002654591
-0.982,-0.00264846
-0.983,-0.002642329
-0.984,-0.002636198
-0.985,-0.002627002
-0.986,-0.002623936
-0.987,-0.002617805
-0.988,-0.002608609
-0.989,-0.002605543
-0.99,-0.002599412
-0.991,-0.002593281
-0.992,-0.002590216
-0.993,-0.002584085
-0.994,-0.002577954
-0.995,-0.002574889
-0.996,-0.002571823
-0.997,-0.002562626
-0.998,-0.002559561
-0.999,-0.002556496
-1,-0.002547299
-1.001,-0.002544234
-1.002,-0.002541168
-1.003,-0.002535037
-1.004,-0.002531972
-1.005,-0.002528906
-1.006,-0.002522775
-1.007,-0.00251971
-1.008,-0.002516645
-1.009,-0.002510513
-1.01,-0.002507448
-1.011,-0.002504382
-1.012,-0.002501317
-1.013,-0.002498251
-1.014,-0.00249212
-1.015,-0.002489055
-1.016,-0.00248599
-1.017,-0.002482924
-1.018,-0.002479859
-1.019,-0.002476793
-1.02,-0.002473728
-1.021,-0.002470662
-1.022,-0.002470662
-1.023,-0.002464531
-1.024,-0.002461466
-1.025,-0.002461466
-1.026,-0.0024584
-1.027,-0.002455335
-1.028,-0.002455335
-1.029,-0.002449204
-1.03,-0.002449204
-1.031,-0.002446138
-1.032,-0.002443073
-1.033,-0.002443073
-1.034,-0.002440007
-1.035,-0.002436942
-1.036,-0.002436942
-1.037,-0.002433876
-1.038,-0.002433876
-1.039,-0.002430811
-1.04,-0.002430811
-1.041,-0.00242468
-1.042,-0.00242468
-1.043,-0.00242468
-1.044,-0.002418549
-1.045,-0.002418549
-1.046,-0.002418549
-1.047,-0.002415484
-1.048,-0.002415484
-1.049,-0.002412418
-1.05,-0.002412418
-1.051,-0.002409352
-1.052,-0.002406287
-1.053,-0.002406287
-1.054,-0.002406287
-1.055,-0.002403222
-1.056,-0.002403222
-1.057,-0.002400156
-1.058,-0.002397091
-1.059,-0.002397091
-1.06,-0.002397091
-1.061,-0.002394025
-1.062,-0.002394025
-1.063,-0.002397091
-1.064,-0.00239096
-1.065,-0.002394025
-1.066,-0.002394025
-1.067,-0.00239096
-1.068,-0.00239096
-1.069,-0.00239096
-1.07,-0.002387894
-1.071,-0.00239096
-1.072,-0.002387894
-1.073,-0.002387894
-1.074,-0.002387894
-1.075,-0.002387894
-1.076,-0.002384829
-1.077,-0.002384829
-1.078,-0.002384829
-1.079,-0.002381763
-1.08,-0.002384829
-1.081,-0.002384829
-1.082,-0.002381763
-1.083,-0.002381763
-1.084,-0.002381763
-1.085,-0.002378698
-1.086,-0.002381763
-1.087,-0.002378698
-1.088,-0.002381763
-1.089,-0.002378698
-1.09,-0.002378698
-1.091,-0.002378698
-1.092,-0.002378698
-1.093,-0.002378698
-1.094,-0.002375632
-1.095,-0.002378698
-1.096,-0.002375632
-1.097,-0.002378698
-1.098,-0.002375632
-1.099,-0.002375632
-1.1,-0.002375632
-1.101,-0.002375632
-1.102,-0.002372567
-1.103,-0.002375632
-1.104,-0.002375632
-1.105,-0.002372567
-1.106,-0.002375632
-1.107,-0.002375632
-1.108,-0.002375632
-1.109,-0.002372567
-1.11,-0.002375632
-1.111,-0.002372567
-1.112,-0.002372567
-1.113,-0.002372567
-1.114,-0.002372567
-1.115,-0.002375632
-1.116,-0.002375632
-1.117,-0.002375632
-1.118,-0.002375632
-1.119,-0.002372567
-1.12,-0.002375632
-1.121,-0.002375632
-1.122,-0.002375632
-1.123,-0.002375632
-1.124,-0.002375632
-1.125,-0.002375632
-1.126,-0.002375632
-1.127,-0.002378698
-1.128,-0.002375632
-1.129,-0.002378698
-1.13,-0.002378698
-1.131,-0.002378698
-1.132,-0.002378698
-1.133,-0.002378698
-1.134,-0.002378698
-1.135,-0.002378698
-1.136,-0.002378698
-1.137,-0.002378698
-1.138,-0.002381763
-1.139,-0.002381763
-1.14,-0.002381763
-1.141,-0.002381763
-1.142,-0.002381763
-1.143,-0.002381763
-1.144,-0.002384829
-1.145,-0.002384829
-1.146,-0.002384829
-1.147,-0.002384829
-1.148,-0.002387894
-1.149,-0.002387894
-1.15,-0.002387894
-1.151,-0.002387894
-1.152,-0.002387894
-1.153,-0.002387894
-1.154,-0.00239096
-1.155,-0.00239096
-1.156,-0.00239096
-1.157,-0.00239096
-1.158,-0.00239096
-1.159,-0.002394025
-1.16,-0.002394025
-1.161,-0.002394025
-1.162,-0.002394025
-1.163,-0.002397091
-1.164,-0.002397091
-1.165,-0.002397091
-1.166,-0.002400156
-1.167,-0.002400156
-1.168,-0.002400156
-1.169,-0.002403222
-1.17,-0.002403222
-1.171,-0.002406287
-1.172,-0.002406287
-1.173,-0.002406287
-1.174,-0.002409352
-1.175,-0.002406287
-1.176,-0.002409352
-1.177,-0.002412418
-1.178,-0.002412418
-1.179,-0.002412418
-1.18,-0.002415484
-1.181,-0.002415484
-1.182,-0.002418549
-1.183,-0.002421614
-1.184,-0.002421614
-1.185,-0.002421614
-1.186,-0.00242468
-1.187,-0.00242468
-1.188,-0.002427745
-1.189,-0.002430811
-1.19,-0.002430811
-1.191,-0.002433876
-1.192,-0.002436942
-1.193,-0.002436942
-1.194,-0.002436942
-1.195,-0.002440007
-1.196,-0.002443073
-1.197,-0.002443073
-1.198,-0.002446138
-1.199,-0.002449204
-1.2,-0.002449204
-1.201,-0.002455335
-1.202,-0.002455335
-1.203,-0.0024584
-1.204,-0.002461466
-1.205,-0.002461466
-1.206,-0.002464531
-1.207,-0.002467597
-1.208,-0.002470662
-1.209,-0.002473728
-1.21,-0.002476793
-1.211,-0.002479859
-1.212,-0.002482924
-1.213,-0.00248599
-1.214,-0.002489055
-1.215,-0.002495186
-1.216,-0.002495186
-1.217,-0.002498251
-1.218,-0.002504382
-1.219,-0.002507448
-1.22,-0.002510513
-1.221,-0.002516645
-1.222,-0.00251971
-1.223,-0.002522775
-1.224,-0.002528906
-1.225,-0.002531972
-1.226,-0.002535037
-1.227,-0.002541168
-1.228,-0.002547299
-1.229,-0.002550365
-1.23,-0.002556496
-1.231,-0.002562626
-1.232,-0.002565692
-1.233,-0.002571823
-1.234,-0.00258102
-1.235,-0.002584085
-1.236,-0.002590216
-1.237,-0.002596347
-1.238,-0.002602478
-1.239,-0.002611674
-1.24,-0.00261474
-1.241,-0.002623936
-1.242,-0.002630068
-1.243,-0.002636198
-1.244,-0.002645395
-1.245,-0.002651526
-1.246,-0.002657657
-1.247,-0.002666853
-1.248,-0.002676049
-1.249,-0.00268218
-1.25,-0.002691377
-1.251,-0.002700574
-1.252,-0.00270977
-1.253,-0.002718966
-1.254,-0.002728163
-1.255,-0.002737359
-1.256,-0.002746556
-1.257,-0.002755752
-1.258,-0.002768014
-1.259,-0.002780276
-1.26,-0.002786407
-1.261,-0.002798669
-1.262,-0.002810931
-1.263,-0.002823193
-1.264,-0.002835455
-1.265,-0.002844651
-1.266,-0.002853847
-1.267,-0.002869175
-1.268,-0.002881437
-1.269,-0.002893699
-1.27,-0.002905961
-1.271,-0.002918222
-1.272,-0.002930485
-1.273,-0.002945812
-1.274,-0.002958074
-1.275,-0.002973401
-1.276,-0.002988729
-1.277,-0.002997925
-1.278,-0.003013253
-1.279,-0.003031645
-1.28,-0.003043907
-1.281,-0.003059235
-1.282,-0.003074562
-1.283,-0.003086824
-1.284,-0.003105217
-1.285,-0.00312361
-1.286,-0.003135872
-1.287,-0.003154265
-1.288,-0.003172658
-1.289,-0.003184919
-1.29,-0.003206378
-1.291,-0.003221706
-1.292,-0.003237033
-1.293,-0.003255426
-1.294,-0.003273819
-1.295,-0.003289146
-1.296,-0.003307539
-1.297,-0.003325932
-1.298,-0.003341259
-1.299,-0.003359652
-1.3,-0.003374979
-1.301,-0.003393373
-1.302,-0.003411765
-1.303,-0.003430158
-1.304,-0.003445486
-1.305,-0.003466944
-1.306,-0.003482271
-1.307,-0.003500664
-1.308,-0.003515992
-1.309,-0.00353745
-1.31,-0.003555843
-1.311,-0.003574236
-1.312,-0.003592629
-1.313,-0.003611021
-1.314,-0.003626349
-1.315,-0.003647808
-1.316,-0.0036662
-1.317,-0.003684593
-1.318,-0.003702986
-1.319,-0.003721379
-1.32,-0.003739772
-1.321,-0.003758165
-1.322,-0.003776558
-1.323,-0.003798016
-1.324,-0.003816409
-1.325,-0.003834802
-1.326,-0.003853195
-1.327,-0.003871588
-1.328,-0.003893046
-1.329,-0.003914505
-1.33,-0.003932897
-1.331,-0.003954356
-1.332,-0.003972749
-1.333,-0.003994207
-1.334,-0.004015665
-1.335,-0.004037124
-1.336,-0.004058582
-1.337,-0.004083106
-1.338,-0.00410763
-1.339,-0.004129088
-1.34,-0.004150547
-1.341,-0.00417507
-1.342,-0.00420266
-1.343,-0.004227184
-1.344,-0.004254773
-1.345,-0.004282362
-1.346,-0.004313017
-1.347,-0.004340607
-1.348,-0.004371261
-1.349,-0.004404982
-1.35,-0.004438702
-1.351,-0.004475488
-1.352,-0.004512274
-1.353,-0.004552125
-1.354,-0.004598107
-1.355,-0.004644089
-1.356,-0.004693137
-1.357,-0.004748316
-1.358,-0.004809625
-1.359,-0.004867869
-1.36,-0.004938376
-1.361,-0.005011947
-1.362,-0.005094715
-1.363,-0.005183614
-1.364,-0.005284776
-1.365,-0.005392067
-1.366,-0.005508556
-1.367,-0.005643437
-1.368,-0.005787514
-1.369,-0.005940788
-1.37,-0.006115521
-1.371,-0.00629945
-1.372,-0.006501772
-1.373,-0.006722487
-1.374,-0.006955463
-1.375,-0.007209898
-1.376,-0.007482726
-1.377,-0.007767816
-1.378,-0.008074365
-1.379,-0.008399305
-1.38,-0.008742639
-1.381,-0.009104366
-1.382,-0.009481421
-1.383,-0.009870737
-1.384,-0.01027232
-1.385,-0.01069535
-1.386,-0.01112145
-1.387,-0.01156288
-1.388,-0.01201964
-1.389,-0.01247333
-1.39,-0.01293622
-1.391,-0.01340217
-1.392,-0.01387119
-1.393,-0.01434941
-1.394,-0.01482456
-1.395,-0.01530584
-1.396,-0.01579018
-1.397,-0.01626227
-1.398,-0.01673742
-1.399,-0.01719418
-1.4,-0.017654
-1.401,-0.01812608
-1.402,-0.01859204
-1.403,-0.01906106
-1.404,-0.01952088
-1.405,-0.01997457
-1.406,-0.02040067
-1.407,-0.02080838
-1.408,-0.02123448
-1.409,-0.02164526
-1.41,-0.02207136
-1.411,-0.022476
-1.412,-0.02289291
-1.413,-0.02330062
-1.414,-0.02368687
-1.415,-0.02407005
-1.416,-0.0244563
-1.417,-0.02484562
-1.418,-0.02520734
-1.419,-0.02558134
-1.42,-0.02595226
-1.421,-0.02631398
-1.422,-0.02666345
-1.423,-0.02700678
-1.424,-0.02734399
-1.425,-0.02770265
-1.426,-0.02803372
-1.427,-0.02837399
-1.428,-0.02871426
-1.429,-0.02903613
-1.43,-0.02938253
-1.431,-0.029732
-1.432,-0.0300692
-1.433,-0.03038188
-1.434,-0.03086824
-1.435,-0.03117479
-1.436,-0.03151199
-1.437,-0.0318492
-1.438,-0.03215575
-1.439,-0.03249295
-1.44,-0.03283015
-1.441,-0.03316735
-1.442,-0.03350456
-1.443,-0.03384176
-1.444,-0.03417896
-1.445,-0.03448552
-1.446,-0.03485337
-1.447,-0.03519057
-1.448,-0.03552778
-1.449,-0.03583432
-1.45,-0.03614087
-1.451,-0.03647808
-1.452,-0.03681528
-1.453,-0.03715248
-1.454,-0.03745903
-1.455,-0.03779623
-1.456,-0.03813344
-1.457,-0.03843999
-1.458,-0.03877719
-1.459,-0.03908373
-1.46,-0.0394516
-1.461,-0.0397888
-1.462,-0.04009534
-1.463,-0.04043255
-1.464,-0.04076975
-1.465,-0.04110695
-1.466,-0.04144416
-1.467,-0.04178136
-1.468,-0.04211856
-1.469,-0.04245577
-1.47,-0.04285428
-1.471,-0.04319149
-1.472,-0.04352869
-1.473,-0.04386589
-1.474,-0.04423375
-1.475,-0.0446016
-1.476,-0.04493881
-1.477,-0.04527601
-1.478,-0.04564387
-1.479,-0.04601173
-1.48,-0.04637958
-1.481,-0.04674744
-1.482,-0.04708464
-1.483,-0.04745251
-1.484,-0.0477897
-1.485,-0.04815757
-1.486,-0.04852542
-1.487,-0.04892394
-1.488,-0.04926114
-1.489,-0.049629
-1.49,-0.04999685
-1.491,-0.05039537
-1.492,-0.05076323
-1.493,-0.05113108
-1.494,-0.05149894
-1.495,-0.05189746
-1.496,-0.05226531
-1.497,-0.05266382
-1.498,-0.05303168
-1.499,-0.05336889
-1.5,-0.0534915
-1.499,-0.05318496
-1.498,-0.05284775
-1.497,-0.05251055
-1.496,-0.05217335
-1.495,-0.05180549
-1.494,-0.05149894
-1.493,-0.05116174
-1.492,-0.05079388
-1.491,-0.05048734
-1.49,-0.05018078
-1.489,-0.04981292
-1.488,-0.04947572
-1.487,-0.04913852
-1.486,-0.04880131
-1.485,-0.04849477
-1.484,-0.04815757
-1.483,-0.04782036
-1.482,-0.04751381
-1.481,-0.04717661
-1.48,-0.04680875
-1.479,-0.0465022
-1.478,-0.046165
-1.477,-0.0458278
-1.476,-0.04552125
-1.475,-0.0452147
-1.474,-0.0448775
-1.473,-0.0445403
-1.472,-0.04423375
-1.471,-0.04389654
-1.47,-0.04358999
-1.469,-0.04325279
-1.468,-0.04291559
-1.467,-0.04257839
-1.466,-0.04224118
-1.465,-0.04193464
-1.464,-0.04159743
-1.463,-0.04122957
-1.462,-0.04092303
-1.461,-0.04061648
-1.46,-0.04024862
-1.459,-0.03994207
-1.458,-0.03960487
-1.457,-0.03926767
-1.456,-0.03893046
-1.455,-0.03859326
-1.454,-0.03828671
-1.453,-0.03794951
-1.452,-0.0376123
-1.451,-0.03730575
-1.45,-0.03696856
-1.449,-0.03663135
-1.448,-0.03626349
-1.447,-0.03595695
-1.446,-0.0356504
-1.445,-0.03531319
-1.444,-0.03497599
-1.443,-0.03463879
-1.442,-0.03430158
-1.441,-0.03396438
-1.44,-0.03362718
-1.439,-0.03332063
-1.438,-0.03298343
-1.437,-0.03264622
-1.436,-0.03230902
-1.435,-0.03197182
-1.434,-0.03163461
-1.433,-0.03132806
-1.432,-0.03099086
-1.431,-0.03065366
-1.43,-0.03031646
-1.429,-0.02997925
-1.428,-0.0296727
-1.427,-0.0293355
-1.426,-0.02902895
-1.425,-0.02869175
-1.424,-0.02835455
-1.423,-0.02801734
-1.422,-0.0277108
-1.421,-0.02740425
-1.42,-0.02706704
-1.419,-0.02676049
-1.418,-0.02642329
-1.417,-0.02611674
-1.416,-0.0258102
-1.415,-0.02547299
-1.414,-0.02516645
-1.413,-0.02482924
-1.412,-0.02449204
-1.411,-0.02418549
-1.41,-0.02387894
-1.409,-0.02357239
-1.408,-0.02326585
-1.407,-0.02292864
-1.406,-0.02265275
-1.405,-0.0223462
-1.404,-0.022009
-1.403,-0.0217331
-1.402,-0.0213959
-1.401,-0.02108935
-1.4,-0.0207828
-1.399,-0.02047626
-1.398,-0.02016971
-1.397,-0.01989382
-1.396,-0.01958727
-1.395,-0.01928072
-1.394,-0.01900483
-1.393,-0.01869828
-1.392,-0.01842238
-1.391,-0.01811584
-1.39,-0.01783994
-1.389,-0.01756405
-1.388,-0.01728815
-1.387,-0.01698161
-1.386,-0.01670571
-1.385,-0.01642982
-1.384,-0.01615393
-1.383,-0.01599864
-1.382,-0.01572581
-1.381,-0.01545605
-1.38,-0.01519855
-1.379,-0.01494105
-1.378,-0.01468661
-1.377,-0.01443831
-1.376,-0.01418387
-1.375,-0.0139325
-1.374,-0.01369033
-1.373,-0.01344509
-1.372,-0.01320292
-1.371,-0.01296994
-1.37,-0.0127339
-1.369,-0.01250092
-1.368,-0.01228327
-1.367,-0.01205643
-1.366,-0.01183265
-1.365,-0.01162113
-1.364,-0.01140654
-1.363,-0.01119503
-1.362,-0.01098657
-1.361,-0.01078119
-1.36,-0.01058806
-1.359,-0.0103888
-1.358,-0.01019261
-1.357,-0.01000562
-1.356,-0.00982169
-1.355,-0.00963776
-1.354,-0.009463028
-1.353,-0.009294426
-1.352,-0.009125825
-1.351,-0.008960289
-1.35,-0.008797818
-1.349,-0.008635348
-1.348,-0.008488204
-1.347,-0.008337996
-1.346,-0.008193919
-1.345,-0.008055971
-1.344,-0.00792109
-1.343,-0.007783143
-1.342,-0.007654393
-1.341,-0.007525643
-1.34,-0.007399958
-1.339,-0.00728347
-1.338,-0.007170047
-1.337,-0.007050493
-1.336,-0.006946267
-1.335,-0.00684204
-1.334,-0.006740879
-1.333,-0.006645849
-1.332,-0.006547754
-1.331,-0.00645579
-1.33,-0.006369956
-1.329,-0.006281057
-1.328,-0.006198289
-1.327,-0.006121652
-1.326,-0.006041949
-1.325,-0.005971443
-1.324,-0.005897872
-1.323,-0.005827365
-1.322,-0.005762991
-1.321,-0.005698615
-1.32,-0.00563424
-1.319,-0.005575996
-1.318,-0.005517752
-1.317,-0.005459507
-1.316,-0.005404329
-1.315,-0.005355281
-1.314,-0.005300103
-1.313,-0.00525412
-1.312,-0.005205072
-1.311,-0.005156024
-1.31,-0.005113108
-1.309,-0.005067126
-1.308,-0.005024209
-1.307,-0.004987423
-1.306,-0.004944507
-1.305,-0.004904655
-1.304,-0.004870935
-1.303,-0.004828018
-1.302,-0.004794298
-1.301,-0.004760577
-1.3,-0.004723792
-1.299,-0.004693137
-1.298,-0.004662482
-1.297,-0.004628762
-1.296,-0.004601172
-1.295,-0.004570518
-1.294,-0.004539863
-1.293,-0.004512274
-1.292,-0.004481619
-1.291,-0.004454029
-1.29,-0.004429505
-1.289,-0.004401916
-1.288,-0.004380458
-1.287,-0.004352869
-1.286,-0.004325279
-1.285,-0.00430382
-1.284,-0.004279297
-1.283,-0.004254773
-1.282,-0.004233315
-1.281,-0.004208791
-1.28,-0.004187332
-1.279,-0.004165874
-1.278,-0.00414135
-1.277,-0.004119892
-1.276,-0.004101499
-1.275,-0.00408004
-1.274,-0.004055517
-1.273,-0.004040189
-1.272,-0.004018731
-1.271,-0.003997272
-1.27,-0.00397888
-1.269,-0.003957421
-1.268,-0.003939028
-1.267,-0.003920636
-1.266,-0.003902242
-1.265,-0.003880784
-1.264,-0.003865457
-1.263,-0.003847064
-1.262,-0.003828671
-1.261,-0.003813344
-1.26,-0.003794951
-1.259,-0.003776558
-1.258,-0.00376123
-1.257,-0.003742838
-1.256,-0.00372751
-1.255,-0.003712183
-1.254,-0.00369379
-1.253,-0.003678462
-1.252,-0.003660069
-1.251,-0.003644742
-1.25,-0.003629415
-1.249,-0.003614087
-1.248,-0.00359876
-1.247,-0.003583432
-1.246,-0.00357117
-1.245,-0.003555843
-1.244,-0.00353745
-1.243,-0.003528254
-1.242,-0.003509861
-1.241,-0.003497599
-1.24,-0.003485337
-1.239,-0.003466944
-1.238,-0.003457748
-1.237,-0.00344242
-1.236,-0.003427093
-1.235,-0.003417896
-1.234,-0.003402569
-1.233,-0.003384176
-1.232,-0.003374979
-1.231,-0.003359652
-1.23,-0.003344325
-1.229,-0.003335128
-1.228,-0.003322866
-1.227,-0.003304473
-1.226,-0.003295277
-1.225,-0.00327995
-1.224,-0.003267688
-1.223,-0.003255426
-1.222,-0.003243164
-1.221,-0.003227836
-1.22,-0.003215575
-1.219,-0.003203312
-1.218,-0.003191051
-1.217,-0.003178789
-1.216,-0.003166527
-1.215,-0.003154265
-1.214,-0.003142003
-1.213,-0.003126675
-1.212,-0.003117479
-1.211,-0.003108283
-1.21,-0.003092955
-1.209,-0.003083759
-1.208,-0.003068431
-1.207,-0.003056169
-1.206,-0.003046973
-1.205,-0.003034711
-1.204,-0.003019383
-1.203,-0.003013253
-1.202,-0.002997925
-1.201,-0.002985663
-1.2,-0.002976467
-1.199,-0.002964205
-1.198,-0.002951943
-1.197,-0.002942747
-1.196,-0.002927419
-1.195,-0.002918222
-1.194,-0.002909026
-1.193,-0.002893699
-1.192,-0.002884502
-1.191,-0.002875306
-1.19,-0.002859978
-1.189,-0.002850782
-1.188,-0.002841586
-1.187,-0.002829324
-1.186,-0.002817062
-1.185,-0.002807865
-1.184,-0.002795603
-1.183,-0.002786407
-1.182,-0.002774145
-1.181,-0.002761883
-1.18,-0.002752687
-1.179,-0.002740425
-1.178,-0.002731228
-1.177,-0.002718966
-1.176,-0.00270977
-1.175,-0.002697508
-1.174,-0.002688312
-1.173,-0.002679115
-1.172,-0.002666853
-1.171,-0.002657657
-1.17,-0.00264846
-1.169,-0.002636198
-1.168,-0.002627002
-1.167,-0.00261474
-1.166,-0.002605543
-1.165,-0.002596347
-1.164,-0.002587151
-1.163,-0.002574889
-1.162,-0.002565692
-1.161,-0.00255343
-1.16,-0.002544234
-1.159,-0.002535037
-1.158,-0.002525841
-1.157,-0.002513579
-1.156,-0.002504382
-1.155,-0.002495186
-1.154,-0.002482924
-1.153,-0.002476793
-1.152,-0.002467597
-1.151,-0.002455335
-1.15,-0.002446138
-1.149,-0.002436942
-1.148,-0.002427745
-1.147,-0.002418549
-1.146,-0.002409352
-1.145,-0.002397091
-1.144,-0.002387894
-1.143,-0.002381763
-1.142,-0.002369501
-1.141,-0.00236337
-1.14,-0.002354174
-1.139,-0.002341912
-1.138,-0.002332716
-1.137,-0.002323519
-1.136,-0.002314323
-1.135,-0.002305126
-1.134,-0.00229593
-1.133,-0.002286733
-1.132,-0.002277537
-1.131,-0.002271406
-1.13,-0.002262209
-1.129,-0.002253013
-1.128,-0.002246882
-1.127,-0.00223462
-1.126,-0.002228489
-1.125,-0.002219293
-1.124,-0.002210096
-1.123,-0.0022009
-1.122,-0.002191703
-1.121,-0.002185572
-1.12,-0.002176376
-1.119,-0.002167179
-1.118,-0.002161048
-1.117,-0.002151852
-1.116,-0.002142655
-1.115,-0.002133459
-1.114,-0.002127328
-1.113,-0.002118132
-1.112,-0.002108935
-1.111,-0.002102804
-1.11,-0.002093608
-1.109,-0.002087477
-1.108,-0.002081346
-1.107,-0.002069084
-1.106,-0.002062953
-1.105,-0.002056822
-1.104,-0.00204456
-1.103,-0.002038429
-1.102,-0.002032298
-1.101,-0.002023102
-1.1,-0.002013905
-1.099,-0.002007774
-1.098,-0.002001643
-1.097,-0.001992447
-1.096,-0.001986316
-1.095,-0.00197712
-1.094,-0.001967923
-1.093,-0.001961792
-1.092,-0.001952596
-1.091,-0.001946465
-1.09,-0.001940334
-1.089,-0.001931137
-1.088,-0.001921941
-1.087,-0.001918875
-1.086,-0.001909679
-1.085,-0.001900482
-1.084,-0.001894351
-1.083,-0.001885155
-1.082,-0.001879024
-1.081,-0.001872893
-1.08,-0.001863697
-1.079,-0.001857566
-1.078,-0.001848369
-1.077,-0.001842238
-1.076,-0.001836107
-1.075,-0.001829976
-1.074,-0.00182078
-1.073,-0.001814649
-1.072,-0.001805453
-1.071,-0.001799321
-1.07,-0.00179319
-1.069,-0.001783994
-1.068,-0.001777863
-1.067,-0.001771732
-1.066,-0.001762536
-1.065,-0.00175947
-1.064,-0.001753339
-1.063,-0.001741077
-1.062,-0.001734946
-1.061,-0.001728815
-1.06,-0.001719619
-1.059,-0.001713488
-1.058,-0.001707357
-1.057,-0.001698161
-1.056,-0.00169203
-1.055,-0.001685899
-1.054,-0.001676702
-1.053,-0.001670571
-1.052,-0.00166444
-1.051,-0.001655244
-1.05,-0.001649113
-1.049,-0.001642982
-1.048,-0.001633785
-1.047,-0.001627655
-1.046,-0.001621523
-1.045,-0.001612327
-1.044,-0.001638182
-1.043,-0.001632971
-1.042,-0.001625614
-1.041,-0.00161795
-1.04,-0.00160998
-1.039,-0.001602316
-1.038,-0.001595572
-1.037,-0.001586989
-1.036,-0.001579632
-1.035,-0.001572888
-1.034,-0.001563998
-1.033,-0.001557254
-1.032,-0.001551429
-1.031,-0.00154162
-1.03,-0.001534569
-1.029,-0.001527518
-1.028,-0.001518935
-1.027,-0.001510352
-1.026,-0.001504834
-1.025,-0.001495331
-1.024,-0.001486134
-1.023,-0.001480003
-1.022,-0.001472033
-1.021,-0.001465596
-1.02,-0.001455786
-1.019,-0.001449655
-1.018,-0.001441072
-1.017,-0.001432795
-1.016,-0.001424212
-1.015,-0.001417161
-1.014,-0.001407965
-1.013,-0.001401221
-1.012,-0.001392024
-1.011,-0.00138436
-1.01,-0.001375777
-1.009,-0.001368726
-1.008,-0.001359223
-1.007,-0.001351253
-1.006,-0.001344816
-1.005,-0.0013347
-1.004,-0.001328569
-1.003,-0.001321518
-1.002,-0.001310789
-1.001,-0.001303432
-1,-0.001295768
-0.9990003,-0.001285958
-0.9980002,-0.001278601
-0.9970002,-0.001271551
-0.9960002,-0.001261741
-0.9950002,-0.00125469
-0.9940003,-0.001247333
-0.9930002,-0.001235991
-0.9920002,-0.00123078
-0.9910002,-0.00122097
-0.9900002,-0.001212387
-0.9890002,-0.001205643
-0.9880002,-0.001196446
-0.9870002,-0.00118817
-0.9860002,-0.001180812
-0.9850003,-0.001171616
-0.9840002,-0.001164565
-0.9830002,-0.001156595
-0.9820002,-0.001146785
-0.9810002,-0.001139735
-0.9800002,-0.001131765
-0.9790002,-0.001123488
-0.9780002,-0.001114598
-0.9770002,-0.001107547
-0.9760002,-0.001099271
-0.9750002,-0.001090074
-0.9740002,-0.001084556
-0.9730002,-0.001075053
-0.9720002,-0.001066776
-0.9710003,-0.001060032
-0.9700002,-0.001050836
-0.9690002,-0.001043172
-0.9680002,-0.001036122
-0.9670002,-0.001026925
-0.9660002,-0.001019568
-0.9650002,-0.001011598
-0.9640002,-0.001002708
-0.9630002,-0.0009959637
-0.9620003,-0.0009873803
-0.9610002,-0.00097941
-0.9600002,-0.0009729725
-0.9590002,-0.0009640827
-0.9580002,-0.0009548862
-0.9570003,-0.0009478356
-0.9560002,-0.0009380261
-0.9550002,-0.0009322016
-0.9540002,-0.0009248445
-0.9530002,-0.0009138088
-0.9520002,-0.0009064515
-0.9510002,-0.0008997075
-0.9500002,-0.0008895915
-0.9490002,-0.0008819277
-0.9480003,-0.0008736509
-0.9470002,-0.0008641479
-0.9460002,-0.0008561776
-0.9450002,-0.0008482074
-0.9440002,-0.0008383978
-0.9430002,-0.0008295079
-0.9420002,-0.0008218443
-0.9410002,-0.0008126478
-0.9400002,-0.0008034513
-0.9390002,-0.000794868
-0.9380002,-0.0007844454
-0.9370002,-0.000775862
-0.9360002,-0.0007681983
-0.9350002,-0.0007571626
-0.9340003,-0.0007482726
-0.9330002,-0.0007399959
-0.9320002,-0.0007292667
-0.9310002,-0.0007200702
-0.9300002,-0.0007121
-0.9290002,-0.0007010642
-0.9280002,-0.0006909482
-0.9270002,-0.0006829779
-0.9260002,-0.0006725552
-0.9250003,-0.0006630523
-0.9240002,-0.0006535492
-0.9230002,-0.0006437397
-0.9220002,-0.0006333171
-0.9210002,-0.0006247337
-0.9200003,-0.0006146176
-0.9190002,-0.0006045015
-0.9180002,-0.0005953051
-0.9170002,-0.0005867218
-0.9160002,-0.0005759926
-0.9150002,-0.0005680223
-0.9140002,-0.0005582127
-0.9130002,-0.0005477901
-0.9120002,-0.000541046
-0.9110003,-0.0005309299
-0.9100002,-0.00052204
-0.9090002,-0.0005149894
-0.9080002,-0.0005051799
-0.9070002,-0.0004975162
-0.9060002,-0.000490159
-0.9050002,-0.000480656
-0.9040002,-0.0004745251
-0.9030002,-0.0004668614
-0.9020002,-0.0004588911
-0.9010002,-0.0004527601
-0.9000002,-0.0004463226
-0.8990002,-0.000439272
-0.8980002,-0.0004334476
-0.8970003,-0.0004273166
-0.8960002,-0.0004221053
-0.8950002,-0.0004165874
-0.8940002,-0.0004098434
-0.8930002,-0.0004052451
-0.8920002,-0.0003997273
-0.8910002,-0.0003932898
-0.8900002,-0.0003896112
-0.8890002,-0.0003843998
-0.8880002,-0.0003785754
-0.8870002,-0.0003745903
-0.8860002,-0.0003696856
-0.8850002,-0.0003635546
-0.8840002,-0.0003592629
-0.8830003,-0.0003540516
-0.8820002,-0.0003488403
-0.8810002,-0.0003448552
-0.8800002,-0.0003396438
-0.8790002,-0.0003338194
-0.8780002,-0.0003301408
-0.8770002,-0.0003243164
-0.8760002,-0.0003194116
-0.8750002,-0.0003154265
-0.8740003,-0.0003096021
-0.8730002,-0.0003050039
-0.8720002,-0.0003000991
-0.8710002,-0.0002936616
-0.8700002,-0.0002890633
-0.8690003,-0.000283852
-0.8680002,-0.0002764949
-0.8670002,-0.0002725097
-0.8660002,-0.0002672984
-0.8650002,-0.0002602478
-0.8640002,-0.0002550365
-0.8630002,-0.0002492121
-0.8620002,-0.0002427746
-0.8610002,-0.0002360305
-0.8600003,-0.0002305126
-0.8590002,-0.0002240751
-0.8580002,-0.000217331
-0.8570002,-0.000210587
-0.8560002,-0.0002029233
-0.8550002,-0.0001961792
-0.8540002,-0.000188209
-0.8530002,-0.0001814649
-0.8520002,-0.0001731881
-0.8510002,-0.0001646047
-0.8500002,-0.0001566345
-0.8490002,-0.000147438
-0.8480002,-0.0001413789
-0.8470002,-0.0001327342
-0.8460003,-0.000122189
-0.8450002,-0.0001119503
-0.8440002,-0.0001019261
-0.8430002,-9.043057E-05
-0.8420002,-7.844453E-05
-0.8410002,-6.710224E-05
-0.8400002,-5.471769E-05
-0.8390002,-4.135219E-05
-0.8380002,-2.810931E-05
-0.8370003,-1.520363E-05
-0.8360002,9.208121E-07
-0.8350002,1.434763E-05
-0.8340002,3.010421E-05
-0.8330002,4.724025E-05
-0.8320003,6.210784E-05
-0.8310002,7.994896E-05
-0.8300002,9.702369E-05
-0.8290002,0.0001139758
-0.8280002,0.0001329818
-0.8270002,0.0001515586
-0.8260002,0.0001707485
-0.8250002,0.0001913486
-0.8240002,0.0002105385
-0.8230003,0.0002311692
-0.8220002,0.0002526582
-0.8210002,0.0002733502
-0.8200002,0.0002952991
-0.8190002,0.0003225004
-0.8180002,0.0003436523
-0.8170002,0.0003666434
-0.8160002,0.0003896345
-0.8150002,0.0004123191
-0.8140002,0.0004356168
-0.8130002,0.0004595275
-0.8120002,0.0004831318
-0.8110002,0.0005067359
-0.8100002,0.0005309533
-0.8090003,0.0005557837
-0.8080002,0.0005793879
-0.8070002,0.0006042183
-0.8060002,0.0006281291
-0.8050002,0.0006526529
-0.8040002,0.0006771768
-0.8030002,0.0007010876
-0.8020002,0.0007253049
-0.8010002,0.0007495222
-0.8000003,0.0007302097
-0.8009998,0.0006676738
-0.8019998,0.0006109623
-0.8029998,0.0005597688
-0.8039998,0.0005113342
-0.8049998,0.0004647389
-0.8059998,0.0004193697
-0.8069998,0.0003779857
-0.8079998,0.0003362951
-0.8089998,0.0002970569
-0.8099998,0.0002599646
-0.8109998,0.0002231788
-0.8119998,0.0001876192
-0.8129998,0.0001551251
-0.8139998,0.0001220179
-0.8149998,9.013687E-05
-0.8159998,5.766289E-05
-0.8169998,2.771313E-05
-0.8179998,-1.500919E-06
-0.8189998,-2.945812E-05
-0.8199998,-5.686353E-05
-0.8209998,-8.212311E-05
-0.8219998,-0.0001081184
-0.8229998,-0.0001322744
-0.8239998,-0.0001560012
-0.8249998,-0.000179115
-0.8259998,-0.0002018915
-0.8269998,-0.0002230433
-0.8279998,-0.0002448389
-0.8289998,-0.0002652244
-0.8299998,-0.0002849048
-0.8309998,-0.0003016318
-0.8319998,-0.0003209444
-0.8329998,-0.0003390307
-0.8339998,-0.0003568105
-0.8349998,-0.0003748969
-0.8359998,-0.000391757
-0.8369998,-0.0004083106
-0.8379998,-0.0004251708
-0.8389998,-0.0004404982
-0.8399998,-0.0004552125
-0.8409998,-0.000471153
-0.8419998,-0.0004852542
-0.8429998,-0.0004993554
-0.8439998,-0.0005140697
-0.8449998,-0.0005269448
-0.8459998,-0.0005398199
-0.8469998,-0.0005536145
-0.8479998,-0.0005655699
-0.8489998,-0.0005778318
-0.8499998,-0.0005904003
-0.8509998,-0.0006011295
-0.8519998,-0.0006121653
-0.8529998,-0.0006238141
-0.8539998,-0.0006342367
-0.8549998,-0.0006446594
-0.8559998,-0.0006553886
-0.8569998,-0.0006648915
-0.8579998,-0.0006756207
-0.8589998,-0.0006854302
-0.8599998,-0.000693094
-0.8609998,-0.0007041298
-0.8619998,-0.0007127131
-0.8629998,-0.0007203768
-0.8639998,-0.0007298798
-0.8649998,-0.0007384631
-0.8659998,-0.0007449006
-0.8669998,-0.0007537905
-0.8679998,-0.0007620673
-0.8689998,-0.0007681983
-0.8699998,-0.0007761685
-0.8709998,-0.0007844454
-0.8719998,-0.0007899632
-0.8729998,-0.000797627
-0.8739998,-0.0008049841
-0.8749998,-0.0008114216
-0.8759998,-0.0008181657
-0.8769998,-0.0008236835
-0.8779998,-0.0008307341
-0.8789998,-0.0008365586
-0.8799998,-0.0008420764
-0.8809998,-0.000848514
-0.8819998,-0.0008549515
-0.8829998,-0.0008595497
-0.8839998,-0.0008666003
-0.8849998,-0.0008718116
-0.8859998,-0.0008767164
-0.8869998,-0.0008828474
-0.8879998,-0.0008883653
-0.8889998,-0.00089327
-0.8899998,-0.0008984813
-0.8909998,-0.0009052254
-0.8919998,-0.0009085974
-0.8929998,-0.0009147284
-0.8939998,-0.0009196331
-0.8949998,-0.0009236183
-0.8959998,-0.0009297492
-0.8969998,-0.0009340409
-0.8979998,-0.0009395588
-0.8989998,-0.000944157
-0.8999998,-0.0009487552
-0.9009998,-0.00095366
-0.9019998,-0.0009591779
-0.9029998,-0.000963163
-0.9039998,-0.0009683743
-0.9049998,-0.0009732791
-0.9059998,-0.0009769576
-0.9069998,-0.0009824756
-0.9079998,-0.0009873803
-0.9089998,-0.0009916719
-0.9099998,-0.0009968834
-0.9109998,-0.001001482
-0.9119998,-0.001004854
-0.9129998,-0.001010371
-0.9139998,-0.001015583
-0.9149998,-0.001019874
-0.9159998,-0.001025392
-0.9169998,-0.001028764
-0.9179998,-0.001034589
-0.9189998,-0.001039187
-0.9199998,-0.001042559
-0.9209998,-0.001048384
-0.9219998,-0.001053901
-0.9229998,-0.001056967
-0.9239998,-0.001063711
-0.9249998,-0.001068616
-0.9259998,-0.001071988
-0.9269998,-0.001078732
-0.9279998,-0.001083637
-0.9289998,-0.001087315
-0.9299998,-0.001093446
-0.9309998,-0.001098657
-0.9319998,-0.001103562
-0.9329998,-0.00111
-0.9339998,-0.001114598
-0.9349998,-0.001120116
-0.9359998,-0.001125327
-0.9369998,-0.001130845
-0.9379998,-0.001135137
-0.9389998,-0.001141268
-0.9399998,-0.001146479
-0.9409998,-0.001150771
-0.9419998,-0.001158128
-0.9429998,-0.001162419
-0.9439998,-0.00116855
-0.9449998,-0.001175908
-0.9459998,-0.001180199
-0.9469998,-0.00118633
-0.9479998,-0.001192768
-0.9489998,-0.001197366
-0.9499998,-0.001204723
-0.9509998,-0.001211161
-0.9519998,-0.001215452
-0.9529998,-0.001223116
-0.9539998,-0.001229247
-0.9549998,-0.001235684
-0.9559998,-0.001243348
-0.9569998,-0.001247946
-0.9579998,-0.001254997
-0.9589998,-0.001263274
-0.9599998,-0.001268485
-0.9609998,-0.001276762
-0.9619998,-0.001284426
-0.9629998,-0.001290557
-0.9639998,-0.001296994
-0.9649998,-0.001305271
-0.9659998,-0.001313241
-0.9669998,-0.001320598
-0.9679998,-0.001329182
-0.9689998,-0.001336539
-0.9699998,-0.001344203
-0.9709998,-0.001352786
-0.9719998,-0.001361063
-0.9729998,-0.001369646
-0.9739998,-0.001378229
-0.9749998,-0.001385587
-0.9759998,-0.001394783
-0.9769998,-0.001403979
-0.9779998,-0.001411643
-0.9789998,-0.00142084
-0.9799998,-0.001430649
-0.9809998,-0.001438313
-0.9819998,-0.001447509
-0.9829998,-0.001457319
-0.9839998,-0.001465596
-0.9849998,-0.001474792
-0.9859998,-0.001485828
-0.9869998,-0.001494105
-0.9879998,-0.001503914
-0.9889998,-0.00151403
-0.9899998,-0.001522614
-0.9909998,-0.00153273
-0.9919998,-0.001542846
-0.9929998,-0.001551736
-0.9939998,-0.001561239
-0.9949998,-0.001572274
-0.9959998,-0.001581471
-0.9969998,-0.0015922
-0.9979998,-0.001599864
-0.9989998,-0.001611513
-0.9999998,-0.001621629
-1.001,-0.001631438
-1.002,-0.001641248
-1.003,-0.00165259
-1.004,-0.00166056
-1.005,-0.00167129
-1.006,-0.001681712
-1.007,-0.001691215
-1.008,-0.001700412
-1.009,-0.001710834
-1.01,-0.001719724
-1.011,-0.001730453
-1.012,-0.001739343
-1.013,-0.001747927
-1.014,-0.001758349
-1.015,-0.001766933
-1.016,-0.001776129
-1.017,-0.001785939
-1.018,-0.001794215
-1.019,-0.00180096
-1.02,-0.001811995
-1.021,-0.001818126
-1.022,-0.001827016
-1.023,-0.0018356
-1.024,-0.001842037
-1.025,-0.001849701
-1.026,-0.001857671
-1.027,-0.001862882
-1.028,-0.001869933
-1.029,-0.00187729
-1.03,-0.001880969
-1.031,-0.001887713
-1.032,-0.001893537
-1.033,-0.001897216
-1.034,-0.00190212
-1.035,-0.001907332
-1.036,-0.001910397
-1.037,-0.001914689
-1.038,-0.001919287
-1.039,-0.00192082
-1.04,-0.001924192
-1.041,-0.00192787
-1.042,-0.001928484
-1.043,-0.001931856
-1.044,-0.001934001
-1.045,-0.001935228
-1.046,-0.001938906
-1.047,-0.001940132
-1.048,-0.001939519
-1.049,-0.001943198
-1.05,-0.001943198
-1.051,-0.001943811
-1.052,-0.001946877
-1.053,-0.001946877
-1.054,-0.00194657
-1.055,-0.001949329
-1.056,-0.001947796
-1.057,-0.001951475
-1.058,-0.001952394
-1.059,-0.001949942
-1.06,-0.001952088
-1.061,-0.001954847
-1.062,-0.001951781
-1.063,-0.00195638
-1.064,-0.001958219
-1.065,-0.001956686
-1.066,-0.001959751
-1.067,-0.001959751
-1.068,-0.001959445
-1.069,-0.001962817
-1.07,-0.001965269
-1.071,-0.001964656
-1.072,-0.001968948
-1.073,-0.001970174
-1.074,-0.0019714
-1.075,-0.001974772
-1.076,-0.001975692
-1.077,-0.001976612
-1.078,-0.00198121
-1.079,-0.001983049
-1.08,-0.001985195
-1.081,-0.001989487
-1.082,-0.001990713
-1.083,-0.001993778
-1.084,-0.001998683
-1.085,-0.002000216
-1.086,-0.002003281
-1.087,-0.002008186
-1.088,-0.002010638
-1.089,-0.00201585
-1.09,-0.002020448
-1.091,-0.002021981
-1.092,-0.002028418
-1.093,-0.002032097
-1.094,-0.002034856
-1.095,-0.0020416
-1.096,-0.002045891
-1.097,-0.00204957
-1.098,-0.002055088
-1.099,-0.00205846
-1.1,-0.002064591
-1.101,-0.002070415
-1.102,-0.002073787
-1.103,-0.002078079
-1.104,-0.002083903
-1.105,-0.002088808
-1.106,-0.002096165
-1.107,-0.002101377
-1.108,-0.002104442
-1.109,-0.002111493
-1.11,-0.002117011
-1.111,-0.002121915
-1.112,-0.00212774
-1.113,-0.00213479
-1.114,-0.002138162
-1.115,-0.002145213
-1.116,-0.002153183
-1.117,-0.002156555
-1.118,-0.002163606
-1.119,-0.00217127
-1.12,-0.002174335
-1.121,-0.002181386
-1.122,-0.002189969
-1.123,-0.002193648
-1.124,-0.002202231
-1.125,-0.002208056
-1.126,-0.002216026
-1.127,-0.002222463
-1.128,-0.002228594
-1.129,-0.002235951
-1.13,-0.002244535
-1.131,-0.002250359
-1.132,-0.002257716
-1.133,-0.002264767
-1.134,-0.002271511
-1.135,-0.002277642
-1.136,-0.002288678
-1.137,-0.002293276
-1.138,-0.002300633
-1.139,-0.002310136
-1.14,-0.002316573
-1.141,-0.002325157
-1.142,-0.002331288
-1.143,-0.00234171
-1.144,-0.002348148
-1.145,-0.002356425
-1.146,-0.002363782
-1.147,-0.002373285
-1.148,-0.002380029
-1.149,-0.002389839
-1.15,-0.002398116
-1.151,-0.002405779
-1.152,-0.002413443
-1.153,-0.002424172
-1.154,-0.002431222
-1.155,-0.002438886
-1.156,-0.002450229
-1.157,-0.002457586
-1.158,-0.002466169
-1.159,-0.002478431
-1.16,-0.002484869
-1.161,-0.002494678
-1.162,-0.002504488
-1.163,-0.002513071
-1.164,-0.002523494
-1.165,-0.002532384
-1.166,-0.002541273
-1.167,-0.002552309
-1.168,-0.002560892
-1.169,-0.002571315
-1.17,-0.002581431
-1.171,-0.002589402
-1.172,-0.002599824
-1.173,-0.002610247
-1.174,-0.002620363
-1.175,-0.002629559
-1.176,-0.002641515
-1.177,-0.002649178
-1.178,-0.002660214
-1.179,-0.002669717
-1.18,-0.002677687
-1.181,-0.00268811
-1.182,-0.002698533
-1.183,-0.002707729
-1.184,-0.002719071
-1.185,-0.002729188
-1.186,-0.002735931
-1.187,-0.002748806
-1.188,-0.002758003
-1.189,-0.002766586
-1.19,-0.002777316
-1.191,-0.002788045
-1.192,-0.002795402
-1.193,-0.002807357
-1.194,-0.002815328
-1.195,-0.00282575
-1.196,-0.002838012
-1.197,-0.002845063
-1.198,-0.002857631
-1.199,-0.00286836
-1.2,-0.002875718
-1.201,-0.00288706
-1.202,-0.002897176
-1.203,-0.002904227
-1.204,-0.002918328
-1.205,-0.002925992
-1.206,-0.002933962
-1.207,-0.002946224
-1.208,-0.00295634
-1.209,-0.00296431
-1.21,-0.002976572
-1.211,-0.002985155
-1.212,-0.002994352
-1.213,-0.003006614
-1.214,-0.002979532
-1.215,-0.002985663
-1.216,-0.002997925
-1.217,-0.003010187
-1.218,-0.003019383
-1.219,-0.00302858
-1.22,-0.003040842
-1.221,-0.003046973
-1.222,-0.003059235
-1.223,-0.003071497
-1.224,-0.003080693
-1.225,-0.003092955
-1.226,-0.003099086
-1.227,-0.003111348
-1.228,-0.00312361
-1.229,-0.003132806
-1.23,-0.003145068
-1.231,-0.00315733
-1.232,-0.003163461
-1.233,-0.003175723
-1.234,-0.003187985
-1.235,-0.003197182
-1.236,-0.003209443
-1.237,-0.003221706
-1.238,-0.003230902
-1.239,-0.003243164
-1.24,-0.00325236
-1.241,-0.003264622
-1.242,-0.003276884
-1.243,-0.003289146
-1.244,-0.003301408
-1.245,-0.003310604
-1.246,-0.003322866
-1.247,-0.003335128
-1.248,-0.00334739
-1.249,-0.003356587
-1.25,-0.003368848
-1.251,-0.00338111
-1.252,-0.003390307
-1.253,-0.003405634
-1.254,-0.003417896
-1.255,-0.003427093
-1.256,-0.00344242
-1.257,-0.003454682
-1.258,-0.003463879
-1.259,-0.003479206
-1.26,-0.003488402
-1.261,-0.003500664
-1.262,-0.003515992
-1.263,-0.003528254
-1.264,-0.003540515
-1.265,-0.003555843
-1.266,-0.003568105
-1.267,-0.003580367
-1.268,-0.003595694
-1.269,-0.003604891
-1.27,-0.003623284
-1.271,-0.003638611
-1.272,-0.003647808
-1.273,-0.0036662
-1.274,-0.003678462
-1.275,-0.003690724
-1.276,-0.003712183
-1.277,-0.003724444
-1.278,-0.003736707
-1.279,-0.003755099
-1.28,-0.003770427
-1.281,-0.00378882
-1.282,-0.003804147
-1.283,-0.003819474
-1.284,-0.003837867
-1.285,-0.00385626
-1.286,-0.003871588
-1.287,-0.00388998
-1.288,-0.003911439
-1.289,-0.003926767
-1.29,-0.003948225
-1.291,-0.003966617
-1.292,-0.003988076
-1.293,-0.004009534
-1.294,-0.004030993
-1.295,-0.004049386
-1.296,-0.004076975
-1.297,-0.004095368
-1.298,-0.004119892
-1.299,-0.004147481
-1.3,-0.004168939
-1.301,-0.004193463
-1.302,-0.004221053
-1.303,-0.004248642
-1.304,-0.004276231
-1.305,-0.004306886
-1.306,-0.004334475
-1.307,-0.00436513
-1.308,-0.004398851
-1.309,-0.004429505
-1.31,-0.00446016
-1.311,-0.004500012
-1.312,-0.004536797
-1.313,-0.004573583
-1.314,-0.004613434
-1.315,-0.004653286
-1.316,-0.004696202
-1.317,-0.004742185
-1.318,-0.004785101
-1.319,-0.004837214
-1.32,-0.004886262
-1.321,-0.00493531
-1.322,-0.004993554
-1.323,-0.005045668
-1.324,-0.005106977
-1.325,-0.005171353
-1.326,-0.005232662
-1.327,-0.005300103
-1.328,-0.005373674
-1.329,-0.005441115
-1.33,-0.005523883
-1.331,-0.005603585
-1.332,-0.005686353
-1.333,-0.005778318
-1.334,-0.005867217
-1.335,-0.005962247
-1.336,-0.006063408
-1.337,-0.006173765
-1.338,-0.006277991
-1.339,-0.006397545
-1.34,-0.006517099
-1.341,-0.006639718
-1.342,-0.006774599
-1.343,-0.006909481
-1.344,-0.007056624
-1.345,-0.007203767
-1.346,-0.007360106
-1.347,-0.007525643
-1.348,-0.007694244
-1.349,-0.007868977
-1.35,-0.008059037
-1.351,-0.008246032
-1.352,-0.008445288
-1.353,-0.00865374
-1.354,-0.008865259
-1.355,-0.009089039
-1.356,-0.009322016
-1.357,-0.009554992
-1.358,-0.009800231
-1.359,-0.0100516
-1.36,-0.0103091
-1.361,-0.0105758
-1.362,-0.01084863
-1.363,-0.01112758
-1.364,-0.01141268
-1.365,-0.01171003
-1.366,-0.01200738
-1.367,-0.01231699
-1.368,-0.01263274
-1.369,-0.01295461
-1.37,-0.01328262
-1.371,-0.01361982
-1.372,-0.01395396
-1.373,-0.01429729
-1.374,-0.01464369
-1.375,-0.01499009
-1.376,-0.01534262
-1.377,-0.01570435
-1.378,-0.01605995
-1.379,-0.01642781
-1.38,-0.01679566
-1.381,-0.01716352
-1.382,-0.01754057
-1.383,-0.0179115
-1.384,-0.01828549
-1.385,-0.01866254
-1.386,-0.01903653
-1.387,-0.01941972
-1.388,-0.0198029
-1.389,-0.02018302
-1.39,-0.02056621
-1.391,-0.02094939
-1.392,-0.02132951
-1.393,-0.02170963
-1.394,-0.02209588
-1.395,-0.022476
-1.396,-0.02284999
-1.397,-0.02322398
-1.398,-0.02361023
-1.399,-0.02399955
-1.4,-0.02438579
-1.401,-0.02476898
-1.402,-0.0251491
-1.403,-0.02553228
-1.404,-0.02590321
-1.405,-0.02629253
-1.406,-0.02666651
-1.407,-0.02704663
-1.408,-0.02743289
-1.409,-0.02780687
-1.41,-0.028187
-1.411,-0.02857324
-1.412,-0.0289411
-1.413,-0.02931509
-1.414,-0.02970134
-1.415,-0.03007227
-1.416,-0.03044932
-1.417,-0.03092955
-1.418,-0.03129741
-1.419,-0.03169592
-1.42,-0.03206378
-1.421,-0.03243164
-1.422,-0.03283015
-1.423,-0.03319801
-1.424,-0.03356587
-1.425,-0.03396438
-1.426,-0.03433224
-1.427,-0.0347001
-1.428,-0.03506796
-1.429,-0.03546647
-1.43,-0.03583432
-1.431,-0.03620218
-1.432,-0.03660069
-1.433,-0.03696856
-1.434,-0.03733641
-1.435,-0.03773492
-1.436,-0.03810278
-1.437,-0.03847064
-1.438,-0.03886915
-1.439,-0.03923701
-1.44,-0.03960487
-1.441,-0.03997273
-1.442,-0.04037124
-1.443,-0.0407391
-1.444,-0.04113761
-1.445,-0.04150547
-1.446,-0.04187332
-1.447,-0.04221053
-1.448,-0.04260904
-1.449,-0.04294625
-1.45,-0.04334476
-1.451,-0.04368196
-1.452,-0.04404982
-1.453,-0.04441768
-1.454,-0.04478553
-1.455,-0.04515339
-1.456,-0.0454906
-1.457,-0.04585845
-1.458,-0.04625697
-1.459,-0.04659417
-1.46,-0.04696203
-1.461,-0.04732988
-1.462,-0.0477284
-1.463,-0.04809625
-1.464,-0.04846412
-1.465,-0.04883197
-1.466,-0.04923048
-1.467,-0.04959834
-1.468,-0.0499662
-1.469,-0.05033405
-1.47,-0.05070192
-1.471,-0.05110043
-1.472,-0.05146828
-1.473,-0.05183614
-1.474,-0.05223466
-1.475,-0.05257186
-1.476,-0.05293972
-1.477,-0.05333823
-1.478,-0.05370609
-1.479,-0.05407395
-1.48,-0.05447246
-1.481,-0.05484032
-1.482,-0.05520818
-1.483,-0.05557603
-1.484,-0.05597454
-1.485,-0.05637306
-1.486,-0.05671026
-1.487,-0.05707812
-1.488,-0.05747664
-1.489,-0.05784449
-1.49,-0.05821235
-1.491,-0.05858021
-1.492,-0.05891741
-1.493,-0.05931592
-1.494,-0.05971443
-1.495,-0.06005164
-1.496,-0.06045015
-1.497,-0.06084866
-1.498,-0.06121652
-1.499,-0.06158438
-1.5,-0.06173765
-1.499,-0.06133914
-1.498,-0.06097129
-1.497,-0.06057277
-1.496,-0.06017426
-1.495,-0.0598064
-1.494,-0.05937723
-1.493,-0.05900937
-1.492,-0.05861086
-1.491,-0.05821235
-1.49,-0.05781383
-1.489,-0.05744598
-1.488,-0.05701681
-1.487,-0.0566183
-1.486,-0.05625044
-1.485,-0.05585193
-1.484,-0.05545342
-1.483,-0.0550549
-1.482,-0.05465639
-1.481,-0.05425788
-1.48,-0.05385936
-1.479,-0.0534915
-1.478,-0.05309299
-1.477,-0.05269448
-1.476,-0.05229596
-1.475001,-0.05192811
-1.474,-0.05149894
-1.473,-0.05113108
-1.472,-0.05076323
-1.471,-0.05033405
-1.47,-0.04999685
-1.469,-0.04959834
-1.468,-0.04919983
-1.467,-0.04880131
-1.466,-0.04843346
-1.465,-0.04800429
-1.464,-0.04760578
-1.463,-0.04723792
-1.462,-0.04683941
-1.461,-0.04647155
-1.46,-0.04607304
-1.459,-0.04570518
-1.458,-0.04530666
-1.457,-0.04493881
-1.456,-0.0445403
-1.455,-0.04417244
-1.454,-0.04377393
-1.453,-0.04340607
-1.452,-0.04303821
-1.451,-0.0426397
-1.45,-0.04227184
-1.449,-0.04190398
-1.448,-0.04150547
-1.447,-0.04110695
-1.446,-0.04070844
-1.445,-0.04030993
-1.444,-0.03994207
-1.443,-0.03957421
-1.442,-0.0391757
-1.441,-0.03880784
-1.44,-0.03843999
-1.439,-0.03804147
-1.438,-0.03767361
-1.437,-0.03730575
-1.436,-0.0369379
-1.435,-0.03657004
-1.434,-0.03617153
-1.433,-0.03577302
-1.432,-0.03540516
-1.431,-0.0350373
-1.43,-0.03466944
-1.429,-0.03430158
-1.428,-0.03393373
-1.427,-0.03356587
-1.426,-0.03319801
-1.425,-0.0327995
-1.424,-0.0324623
-1.423,-0.03209443
-1.422,-0.03169592
-1.421,-0.03132806
-1.42,-0.03096021
-1.419,-0.03059235
-1.418,-0.03025514
-1.417,-0.02988729
-1.416,-0.02955008
-1.415,-0.02918223
-1.414,-0.02881437
-1.413,-0.02847717
-1.412,-0.02810931
-1.411,-0.02774145
-1.41,-0.02740425
-1.409,-0.02706704
-1.408,-0.02669919
-1.407,-0.02636199
-1.406,-0.02602478
-1.405,-0.02565692
-1.404,-0.02531972
-1.403,-0.02498252
-1.402,-0.02461466
-1.401,-0.02427745
-1.4,-0.02394025
-1.399,-0.02360305
-1.398,-0.02323519
-1.397,-0.02292864
-1.396,-0.02259144
-1.395,-0.02228489
-1.394,-0.02194769
-1.393,-0.02161049
-1.392,-0.02130394
-1.391,-0.02096673
-1.39,-0.02062953
-1.389,-0.02032298
-1.388,-0.01998578
-1.387,-0.01967923
-1.386,-0.01937268
-1.385,-0.01903548
-1.384,-0.01872893
-1.383,-0.01842238
-1.382,-0.01811584
-1.381,-0.01780929
-1.38,-0.01750274
-1.379,-0.01719619
-1.378,-0.0169203
-1.377,-0.01661375
-1.376,-0.01633785
-1.375,-0.01603131
-1.374,-0.01586069
-1.373,-0.01557254
-1.372,-0.01529358
-1.371,-0.01502075
-1.37,-0.01474792
-1.369,-0.01448429
-1.368,-0.01421759
-1.367,-0.01395703
-1.366,-0.01370566
-1.365,-0.01345122
-1.364,-0.01319985
-1.363,-0.01294848
-1.362,-0.01269711
-1.361,-0.01245494
-1.36,-0.0122189
-1.359,-0.01197979
-1.358,-0.01175294
-1.357,-0.01152303
-1.356,-0.01129312
-1.355,-0.01107854
-1.354,-0.01085782
-1.353,-0.01064017
-1.352,-0.01043479
-1.351,-0.01022327
-1.350001,-0.01001482
-1.349,-0.009824755
-1.348,-0.009625498
-1.347,-0.009438504
-1.346,-0.009254575
-1.345,-0.009061449
-1.344,-0.008889783
-1.343,-0.008711984
-1.342,-0.008534187
-1.341,-0.008371716
-1.34,-0.008209245
-1.339,-0.008046775
-1.338,-0.007893501
-1.337,-0.007740227
-1.336,-0.007593083
-1.335,-0.007452071
-1.334,-0.007311059
-1.333,-0.007176178
-1.332,-0.007047428
-1.331,-0.006915612
-1.33,-0.006796058
-1.329,-0.006676504
-1.328,-0.006560016
-1.327,-0.006446593
-1.326,-0.006342367
-1.325,-0.006235075
-1.324,-0.006130849
-1.323,-0.006035818
-1.322,-0.005937723
-1.321,-0.005848824
-1.32,-0.005759925
-1.319,-0.005671026
-1.318,-0.005588258
-1.317,-0.005508556
-1.316,-0.005431918
-1.315,-0.005358347
-1.314,-0.005284776
-1.313,-0.005214269
-1.312,-0.005143763
-1.311,-0.005082454
-1.31,-0.005018078
-1.309,-0.004959834
-1.308,-0.004898524
-1.307,-0.00484028
-1.306,-0.004788167
-1.305,-0.004732988
-1.304,-0.004683941
-1.303,-0.004637958
-1.302,-0.004585845
-1.301,-0.004542928
-1.3,-0.004496946
-1.299,-0.004450964
-1.298,-0.004411113
-1.297,-0.004371261
-1.296,-0.004328344
-1.295,-0.004291559
-1.294,-0.004254773
-1.293,-0.004217987
-1.292,-0.004184267
-1.291,-0.004147481
-1.29,-0.004116826
-1.289,-0.004083106
-1.288,-0.004049386
-1.287,-0.004021796
-1.286,-0.003991141
-1.285,-0.003960487
-1.284,-0.003932897
-1.283,-0.003905308
-1.282,-0.003877719
-1.281,-0.003853195
-1.28,-0.003825605
-1.279,-0.003801082
-1.278,-0.003776558
-1.277,-0.003755099
-1.276,-0.003730575
-1.275,-0.003709117
-1.274,-0.003684593
-1.273,-0.003663135
-1.272,-0.003641677
-1.271,-0.003623284
-1.27,-0.00359876
-1.269,-0.003580367
-1.268,-0.003561974
-1.267,-0.003540515
-1.266,-0.003522123
-1.265,-0.00350373
-1.264,-0.003482271
-1.263,-0.003466944
-1.262,-0.003448551
-1.261,-0.003430158
-1.26,-0.003414831
-1.259,-0.003399503
-1.258,-0.003378045
-1.257,-0.003365783
-1.256,-0.003350456
-1.255,-0.003332063
-1.254,-0.003319801
-1.253,-0.003301408
-1.252,-0.003286081
-1.251,-0.003273819
-1.25,-0.003255426
-1.249,-0.003243164
-1.248,-0.003227836
-1.247,-0.003212509
-1.246,-0.003200247
-1.245,-0.003184919
-1.244,-0.003169592
-1.243,-0.003160396
-1.242,-0.003145068
-1.241,-0.003129741
-1.24,-0.003117479
-1.239,-0.003105217
-1.238,-0.003089889
-1.237,-0.003080693
-1.236,-0.003065366
-1.235,-0.003053104
-1.234,-0.003043907
-1.233,-0.00302858
-1.232,-0.003016318
-1.231,-0.003004056
-1.23,-0.00299486
-1.229,-0.002982598
-1.228,-0.002970336
-1.227,-0.002958074
-1.226,-0.002948877
-1.225001,-0.002936616
-1.224,-0.002924354
-1.223,-0.002912092
-1.222,-0.00289983
-1.221,-0.002887568
-1.22,-0.002878371
-1.219,-0.002869175
-1.218,-0.002859978
-1.217,-0.002847716
-1.216,-0.002835455
-1.215,-0.002826258
-1.214,-0.002813996
-1.213,-0.0028048
-1.212,-0.002792538
-1.211,-0.002783341
-1.21,-0.002774145
-1.209,-0.002761883
-1.208,-0.002755752
-1.207,-0.00274349
-1.206,-0.002731228
-1.205,-0.002725097
-1.204,-0.002712835
-1.203,-0.002703639
-1.202,-0.002694442
-1.201,-0.00268218
-1.2,-0.002672984
-1.199,-0.002663787
-1.198,-0.002654591
-1.197,-0.002645395
-1.196,-0.002633133
-1.195,-0.002623936
-1.194,-0.002617805
-1.193,-0.002605543
-1.192,-0.002596347
-1.191,-0.002587151
-1.19,-0.002574889
-1.189,-0.002568757
-1.188,-0.002559561
-1.187,-0.002547299
-1.186,-0.002541168
-1.185,-0.002528906
-1.184,-0.00251971
-1.183,-0.002513579
-1.182,-0.002504382
-1.181,-0.00249212
-1.18,-0.00248599
-1.179,-0.002473728
-1.178,-0.002464531
-1.177,-0.0024584
-1.176,-0.002446138
-1.175,-0.002440007
-1.174,-0.002433876
-1.173,-0.002418549
-1.172,-0.002412418
-1.171,-0.002406287
-1.17,-0.002394025
-1.169,-0.002387894
-1.168,-0.002378698
-1.167,-0.002369501
-1.166,-0.002360305
-1.165,-0.002354174
-1.164,-0.002341912
-1.163,-0.002335781
-1.162,-0.002326585
-1.161,-0.002317388
-1.16,-0.002311257
-1.159,-0.002302061
-1.158,-0.002292864
-1.157,-0.002286733
-1.156,-0.002274471
-1.155,-0.002265275
-1.154,-0.002259144
-1.153,-0.002249948
-1.152,-0.002243817
-1.151,-0.002237685
-1.15,-0.002225423
-1.149,-0.002219293
-1.148,-0.002210096
-1.147,-0.0022009
-1.146,-0.002194769
-1.145,-0.002185572
-1.144,-0.002179441
-1.143,-0.002170245
-1.142,-0.002164114
-1.141,-0.002154917
-1.14,-0.002145721
-1.139,-0.00213959
-1.138,-0.002130394
-1.137,-0.002124263
-1.136,-0.002115066
-1.135,-0.002108935
-1.134,-0.002099739
-1.133,-0.002090542
-1.132,-0.002087477
-1.131,-0.00207828
-1.13,-0.002072149
-1.129,-0.002062953
-1.128,-0.002053756
-1.127,-0.00204456
-1.126,-0.002038429
-1.125,-0.002032298
-1.124,-0.002026167
-1.123,-0.002016971
-1.122,-0.002007774
-1.121,-0.002004709
-1.12,-0.001995512
-1.119,-0.001989381
-1.118,-0.00198325
-1.117,-0.001970988
-1.116,-0.001967923
-1.115,-0.001958727
-1.114,-0.001952596
-1.113,-0.001943399
-1.112,-0.001940334
-1.111,-0.001928072
-1.11,-0.001921941
-1.109,-0.001918875
-1.108,-0.001909679
-1.107,-0.001903548
-1.106,-0.001897417
-1.105,-0.00188822
-1.104,-0.001885155
-1.103,-0.001875959
-1.102,-0.001866762
-1.101,-0.001860631
-1.100001,-0.0018545
-1.099,-0.001848369
-1.098,-0.001839173
-1.097,-0.001833042
-1.096,-0.001826911
-1.095,-0.00182078
-1.094,-0.001814649
-1.093,-0.001805453
-1.092,-0.001799321
-1.091,-0.001790125
-1.09,-0.00178706
-1.089,-0.001777863
-1.088,-0.001771732
-1.087,-0.001765601
-1.086,-0.00175947
-1.085,-0.001750274
-1.084,-0.001744143
-1.083,-0.001738012
-1.082,-0.001728815
-1.081,-0.001722684
-1.08,-0.001719619
-1.079,-0.001710422
-1.078,-0.001701226
-1.077,-0.001698161
-1.076,-0.001685899
-1.075,-0.001682833
-1.074,-0.001676702
-1.073,-0.001667506
-1.072,-0.001661375
-1.071,-0.001655244
-1.07,-0.001649113
-1.069,-0.001639916
-1.068,-0.001633785
-1.067,-0.001627655
-1.066,-0.001621523
-1.065,-0.001612327
-1.064,-0.001641554
-1.063,-0.00163481
-1.062,-0.00162776
-1.061,-0.001622242
-1.06,-0.001613352
-1.059,-0.001605075
-1.058,-0.00160109
-1.057,-0.001590974
-1.056,-0.001583617
-1.055,-0.001579938
-1.054,-0.001571048
-1.053,-0.001564304
-1.052,-0.00155756
-1.051,-0.001547138
-1.05,-0.001543152
-1.049,-0.001534569
-1.048,-0.001526905
-1.047,-0.001521081
-1.046,-0.001513724
-1.045,-0.00150606
-1.044,-0.001498396
-1.043,-0.001489506
-1.042,-0.001484602
-1.041,-0.001476325
-1.04,-0.001467435
-1.039,-0.001460384
-1.038,-0.001452721
-1.037,-0.001445364
-1.036,-0.00143678
-1.035,-0.001431262
-1.034,-0.001421146
-1.033,-0.001414096
-1.032,-0.001409191
-1.031,-0.001396316
-1.03,-0.001392024
-1.029,-0.001384054
-1.028,-0.001374244
-1.027,-0.001368113
-1.026,-0.00135861
-1.025,-0.001350334
-1.024,-0.001342057
-1.023,-0.001335313
-1.022,-0.001327036
-1.021,-0.001319372
-1.02,-0.001309256
-1.019,-0.001303125
-1.018,-0.001296074
-1.017,-0.001285039
-1.016,-0.001279214
-1.015,-0.00127247
-1.014,-0.001262661
-1.013,-0.001253158
-1.012,-0.001247027
-1.011,-0.001237217
-1.01,-0.001229247
-1.009,-0.001220051
-1.008,-0.00121392
-1.007,-0.001202884
-1.006,-0.001195527
-1.005,-0.001188783
-1.004,-0.00117836
-1.003,-0.001170083
-1.002,-0.001163952
-1.001,-0.001154449
-1,-0.001147092
-0.9990004,-0.001140655
-0.9980004,-0.001128393
-0.9970005,-0.001122262
-0.9960005,-0.001112759
-0.9950004,-0.001102643
-0.9940004,-0.001095592
-0.9930004,-0.001087928
-0.9920005,-0.001077199
-0.9910004,-0.001070761
-0.9900004,-0.001062485
-0.9890004,-0.001051756
-0.9880005,-0.001043479
-0.9870005,-0.001036428
-0.9860004,-0.001026619
-0.9850004,-0.001018035
-0.9840004,-0.001010371
-0.9830005,-0.001000255
-0.9820005,-0.0009919786
-0.9810004,-0.000984928
-0.9800004,-0.0009735856
-0.9790004,-0.0009659219
-0.9780005,-0.0009579517
-0.9770004,-0.0009472225
-0.9760004,-0.0009404784
-0.9750004,-0.0009309754
-0.9740005,-0.0009211659
-0.9730005,-0.0009141153
-0.9720004,-0.000902773
-0.9710004,-0.0008948027
-0.9700004,-0.0008868325
-0.9690005,-0.0008757967
-0.9680004,-0.0008675199
-0.9670004,-0.0008607759
-0.9660004,-0.0008482074
-0.9650005,-0.0008408502
-0.9640005,-0.0008331866
-0.9630004,-0.0008212312
-0.9620004,-0.0008123412
-0.9610004,-0.0008040644
-0.9600005,-0.000791496
-0.9590005,-0.0007856716
-0.9580004,-0.0007752489
-0.9570004,-0.0007642132
-0.9560004,-0.0007553233
-0.9550005,-0.0007455137
-0.9540004,-0.0007347845
-0.9530004,-0.0007252816
-0.9520004,-0.0007157786
-0.9510005,-0.0007056625
-0.9500005,-0.0006949333
-0.9490004,-0.0006851237
-0.9480004,-0.0006743945
-0.9470004,-0.0006639719
-0.9460005,-0.0006538558
-0.9450005,-0.0006431266
-0.9440004,-0.0006311712
-0.9430004,-0.0006207486
-0.9420004,-0.0006127784
-0.9410005,-0.0005995968
-0.9400004,-0.0005873349
-0.9390004,-0.0005787515
-0.9380004,-0.0005667961
-0.9370005,-0.0005542276
-0.9360005,-0.0005465639
-0.9350004,-0.0005330758
-0.9340004,-0.0005211204
-0.9330004,-0.0005116174
-0.9320005,-0.0004990489
-0.9310004,-0.0004886262
-0.9300004,-0.0004769774
-0.9290004,-0.0004644089
-0.9280005,-0.0004542929
-0.9270005,-0.000442644
-0.9260004,-0.0004303821
-0.9250004,-0.0004199595
-0.9240004,-0.0004080041
-0.9230005,-0.0003951291
-0.9220005,-0.0003856261
-0.9210004,-0.0003736707
-0.9200004,-0.0003611022
-0.9190004,-0.0003519058
-0.9180005,-0.0003393373
-0.9170004,-0.0003292212
-0.9160004,-0.0003175724
-0.9150004,-0.0003071497
-0.9140005,-0.0002973401
-0.9130005,-0.0002853848
-0.9120004,-0.0002752687
-0.9110004,-0.0002663788
-0.9100004,-0.0002550365
-0.9090005,-0.0002461466
-0.9080005,-0.000236337
-0.9070004,-0.0002268341
-0.9060004,-0.000217331
-0.9050004,-0.0002093608
-0.9040005,-0.0001995512
-0.9030004,-0.000191581
-0.9020004,-0.0001848369
-0.9010004,-0.0001762536
-0.9000005,-0.0001695095
-0.8990005,-0.0001633786
-0.8980004,-0.0001557148
-0.8970004,-0.0001492773
-0.8960004,-0.0001437595
-0.8950005,-0.0001364023
-0.8940005,-0.0001335006
-0.8930004,-0.0001280134
-0.8920004,-0.0001214839
-0.8910004,-0.000116855
-0.8900005,-0.0001107241
-0.8890004,-0.0001047464
-0.8880004,-0.0001009758
-0.8870004,-9.456897E-05
-0.8860005,-8.90511E-05
-0.8850005,-8.472877E-05
-0.8840004,-7.841388E-05
-0.8830004,-7.225225E-05
-0.8820004,-6.979987E-05
-0.8810005,-6.247337E-05
-0.8800004,-5.741532E-05
-0.8790004,-5.306234E-05
-0.8780004,-4.644089E-05
-0.8770005,-4.208791E-05
-0.8760005,-3.485337E-05
-0.8750004,-3.092955E-05
-0.8740004,-2.501317E-05
-0.8730004,-1.805452E-05
-0.8720005,-1.327237E-05
-0.8710005,-7.447955E-06
-0.8700004,1.237866E-07
-0.8690004,5.028559E-06
-0.8680004,1.171131E-05
-0.8670005,1.897651E-05
-0.8660004,2.492354E-05
-0.8650004,3.087058E-05
-0.8640004,3.847297E-05
-0.8630005,4.478787E-05
-0.8620005,5.064294E-05
-0.8610004,6.011528E-05
-0.8600004,6.636886E-05
-0.8590004,7.409388E-05
-0.8580005,8.258527E-05
-0.8570005,9.052487E-05
-0.8560004,9.852578E-05
-0.8550004,0.0001076609
-0.8540004,0.0001163056
-0.8530005,0.0001259312
-0.8520004,0.0001362619
-0.8510004,0.0001457036
-0.8500004,0.0001571071
-0.8490005,0.0001676218
-0.8480005,0.0001786575
-0.8470004,0.0001913179
-0.8460004,0.00020312
-0.8450004,0.0002157192
-0.8440005,0.0002302189
-0.8430004,0.0002433085
-0.8420004,0.0002582068
-0.8410004,0.0002739327
-0.8400005,0.0002890762
-0.8390005,0.0003096254
-0.8380004,0.0003258725
-0.8370004,0.0003424261
-0.8360004,0.0003617386
-0.8350005,0.000379825
-0.8340005,0.0003985244
-0.8330004,0.0004202893
-0.8320004,0.0004392953
-0.8310004,0.0004607537
-0.8300005,0.0004831318
-0.8290004,0.0005042836
-0.8280004,0.0005278878
-0.8270004,0.0005517986
-0.8260005,0.0005750962
-0.8250005,0.0006008463
-0.8240004,0.0006256767
-0.8230004,0.0006502006
-0.8220004,0.0006768703
-0.8210005,0.0007029268
-0.8200005,0.0007295966
-0.8190004,0.0007596383
-0.8180004,0.0007869211
-0.8170004,0.0008145105
-0.8160005,0.0008436325
-0.8150004,0.0008721415
-0.8140004,0.0009006505
-0.8130004,0.0009300791
-0.8120005,0.0009595078
-0.8110005,0.0009895496
-0.8100004,0.001019285
-0.8090004,0.001049326
-0.8080004,0.001079675
-0.8070005,0.001110636
-0.8060004,0.001140371
-0.8050004,0.001171333
-0.8040004,0.001202907
-0.8030005,0.001232336
-0.8020005,0.001264217
-0.8010004,0.001294258
-0.8000004,0.001269121
-0.8009996,0.001188193
-0.8019996,0.001115847
-0.8029996,0.001048713
-0.8039996,0.000985871
-0.8049996,0.0009245612
-0.8059996,0.0008660106
-0.8069996,0.0008117515
-0.8079996,0.0007581055
-0.8089996,0.0007059924
-0.8099996,0.0006575577
-0.8109996,0.0006091231
-0.8119996,0.0005625277
-0.8129996,0.000519611
-0.8139996,0.0004745484
-0.8149996,0.0004334709
-0.8159996,0.0003942328
-0.8169996,0.0003531553
-0.8179996,0.000316676
-0.8189996,0.0002786641
-0.8199996,0.0002418783
-0.8209996,0.000208158
-0.8219996,0.0001744376
-0.8229996,0.0001413304
-0.8239996,0.0001109821
-0.8249996,7.587186E-05
-0.8259996,4.589144E-05
-0.8269996,1.814882E-05
-0.8279996,-1.112653E-05
-0.8289996,-3.908373E-05
-0.8299996,-6.480313E-05
-0.8309996,-9.168741E-05
-0.8319996,-0.0001169163
-0.8329996,-0.0001408884
-0.8339996,-0.0001657495
-0.8349996,-0.0001882808
-0.8359996,-0.0002111186
-0.8369996,-0.000233466
-0.8379996,-0.0002547404
-0.8389996,-0.0002761375
-0.8399996,-0.0002961551
-0.8409996,-0.0003126676
-0.8419996,-0.000331367
-0.8429996,-0.0003509861
-0.8439996,-0.000369379
-0.8449996,-0.0003865457
-0.8459996,-0.0004049386
-0.8469996,-0.0004211857
-0.8479996,-0.0004371261
-0.8489996,-0.0004542929
-0.8499996,-0.0004690072
-0.8509996,-0.0004843346
-0.8519996,-0.0004999685
-0.8529996,-0.0005131501
-0.8539996,-0.0005275579
-0.8549996,-0.0005416591
-0.8559996,-0.0005539211
-0.8569996,-0.0005680223
-0.8579996,-0.0005805907
-0.8589996,-0.000591933
-0.8599996,-0.0006051146
-0.8609996,-0.0006161503
-0.8619996,-0.0006268796
-0.8629996,-0.0006388349
-0.8639996,-0.0006495641
-0.8649996,-0.0006596802
-0.8659996,-0.0006707159
-0.8669996,-0.0006808321
-0.8679996,-0.0006900285
-0.8689996,-0.0007010642
-0.8699996,-0.0007090345
-0.8709996,-0.0007185375
-0.8719996,-0.0007277339
-0.8729996,-0.0007357041
-0.8739996,-0.0007445941
-0.8749996,-0.000753484
-0.8759996,-0.0007611477
-0.8769996,-0.0007703441
-0.8779996,-0.0007770882
-0.8789996,-0.0007856716
-0.8799996,-0.0007933353
-0.8809996,-0.0008009989
-0.8819996,-0.0008086627
-0.8829996,-0.0008163264
-0.8839996,-0.0008227639
-0.8849996,-0.0008304276
-0.8859996,-0.0008374782
-0.8869996,-0.0008429961
-0.8879996,-0.0008503532
-0.8889996,-0.0008577104
-0.8899996,-0.0008626151
-0.8909996,-0.0008702789
-0.8919996,-0.0008779426
-0.8929996,-0.0008816211
-0.8939996,-0.0008895915
-0.8949996,-0.0008954158
-0.8959996,-0.0009003207
-0.8969996,-0.0009079843
-0.8979996,-0.0009135022
-0.8989996,-0.0009187135
-0.8999996,-0.0009257642
-0.9009996,-0.0009309754
-0.9019996,-0.0009361868
-0.9029996,-0.0009426242
-0.9039996,-0.0009481421
-0.9049996,-0.0009539665
-0.9059996,-0.0009604041
-0.9069996,-0.0009643892
-0.9079996,-0.0009714398
-0.9089996,-0.0009766511
-0.9099996,-0.0009815559
-0.9109996,-0.0009873803
-0.9119996,-0.0009938178
-0.9129996,-0.0009987226
-0.9139996,-0.00100608
-0.9149996,-0.001009452
-0.9159996,-0.001017116
-0.9169996,-0.00102202
-0.9179996,-0.001026312
-0.9189996,-0.001033056
-0.9199996,-0.001038574
-0.9209996,-0.001043172
-0.9219996,-0.001050223
-0.9229996,-0.001055434
-0.9239996,-0.001059419
-0.9249996,-0.001066163
-0.9259996,-0.001072294
-0.9269996,-0.001077506
-0.9279996,-0.00108425
-0.9289996,-0.001088848
-0.9299996,-0.001094366
-0.9309996,-0.001100803
-0.9319996,-0.001105401
-0.9329996,-0.001111226
-0.9339996,-0.001118277
-0.9349996,-0.001122568
-0.9359996,-0.001129619
-0.9369996,-0.001135443
-0.9379996,-0.001140655
-0.9389996,-0.001146785
-0.9399996,-0.001153836
-0.9409996,-0.001158741
-0.9419996,-0.001165791
-0.9429996,-0.001171309
-0.9439996,-0.001177747
-0.9449996,-0.001184491
-0.9459996,-0.001190009
-0.9469996,-0.001195833
-0.9479996,-0.001202271
-0.9489996,-0.001208708
-0.9499996,-0.00121392
-0.9509996,-0.001222503
-0.9519996,-0.001227408
-0.9529996,-0.001234458
-0.9539996,-0.001243348
-0.9549996,-0.001247027
-0.9559996,-0.001256223
-0.9569996,-0.001262967
-0.9579996,-0.001268792
-0.9589996,-0.001277375
-0.9599996,-0.001284732
-0.9609996,-0.001290557
-0.9619996,-0.001299753
-0.9629996,-0.001306804
-0.9639996,-0.001314467
-0.9649996,-0.001323664
-0.9659996,-0.001329182
-0.9669996,-0.001338072
-0.9679996,-0.001346348
-0.9689996,-0.001353399
-0.9699996,-0.001362289
-0.9709996,-0.001372098
-0.9719996,-0.001379149
-0.9729996,-0.001389265
-0.9739996,-0.001397849
-0.9749996,-0.001405819
-0.9759996,-0.001415628
-0.9769996,-0.001425131
-0.9779996,-0.001435247
-0.9789996,-0.001444444
-0.9799996,-0.00145364
-0.9809996,-0.00146345
-0.9819996,-0.001474486
-0.9829996,-0.001482762
-0.9839996,-0.001492265
-0.9849996,-0.001503914
-0.9859996,-0.001513724
-0.9869996,-0.001523227
-0.9879996,-0.001535795
-0.9889996,-0.001544685
-0.9899996,-0.001554801
-0.9909996,-0.001567676
-0.9919996,-0.001576566
-0.9929996,-0.001587908
-0.9939996,-0.001600783
-0.9949996,-0.001610286
-0.9959996,-0.001621629
-0.9969996,-0.001634504
-0.9979996,-0.001644313
-0.9989996,-0.001655962
-0.9999996,-0.001668531
-1.001,-0.001678953
-1.002,-0.001689989
-1.003,-0.001702558
-1.004,-0.001714206
-1.005,-0.001725855
-1.006,-0.00173873
-1.007,-0.001749459
-1.008,-0.001761415
-1.009,-0.001772451
-1.01,-0.001784406
-1.011,-0.001796974
-1.012,-0.001810156
-1.013,-0.001821192
-1.014,-0.00183376
-1.015,-0.001845409
-1.016,-0.001854912
-1.017,-0.001869013
-1.018,-0.00187821
-1.019,-0.001890165
-1.02,-0.001903347
-1.021,-0.001912543
-1.022,-0.001924192
-1.023,-0.001935841
-1.024,-0.001945344
-1.025,-0.001957606
-1.026,-0.001966496
-1.027,-0.001976612
-1.028,-0.001987954
-1.029,-0.001996231
-1.03,-0.002004814
-1.031,-0.002016769
-1.032,-0.002025046
-1.033,-0.002032097
-1.034,-0.0020416
-1.035,-0.002047118
-1.036,-0.002058154
-1.037,-0.002066124
-1.038,-0.002068576
-1.039,-0.002079612
-1.04,-0.002085129
-1.041,-0.002088502
-1.042,-0.002097085
-1.043,-0.002101377
-1.044,-0.002103829
-1.045,-0.002111493
-1.046,-0.002113945
-1.047,-0.002116704
-1.048,-0.002119157
-1.049,-0.002124981
-1.05,-0.002126207
-1.051,-0.002128353
-1.052,-0.002132951
-1.053,-0.002131725
-1.054,-0.00213479
-1.055,-0.002135097
-1.056,-0.002134484
-1.057,-0.00213663
-1.058,-0.00213571
-1.059,-0.002136017
-1.06,-0.002137856
-1.061,-0.00213571
-1.062,-0.002135097
-1.063,-0.002134484
-1.064,-0.002132951
-1.065,-0.002133258
-1.066,-0.002132032
-1.067,-0.002129273
-1.068,-0.002130499
-1.069,-0.002129273
-1.07,-0.00212682
-1.071,-0.002126514
-1.072,-0.002124368
-1.073,-0.002123755
-1.074,-0.002123142
-1.075,-0.002122528
-1.076,-0.002120383
-1.077,-0.002120383
-1.078,-0.002120383
-1.079,-0.002118543
-1.08,-0.002116704
-1.081,-0.00211793
-1.082,-0.00211793
-1.083,-0.002117624
-1.084,-0.002117011
-1.085,-0.002119463
-1.086,-0.002119463
-1.087,-0.00211885
-1.088,-0.002120383
-1.089,-0.002122835
-1.09,-0.002122528
-1.091,-0.002123755
-1.092,-0.002127127
-1.093,-0.002125594
-1.094,-0.002130499
-1.095,-0.002133564
-1.096,-0.002131725
-1.097,-0.002139082
-1.098,-0.002138469
-1.099,-0.002139082
-1.1,-0.002144907
-1.101,-0.002145213
-1.102,-0.002147972
-1.103,-0.002153797
-1.104,-0.002153797
-1.105,-0.002156555
-1.106,-0.002162993
-1.107,-0.00216238
-1.108,-0.002168204
-1.109,-0.002172803
-1.11,-0.002172189
-1.111,-0.00218016
-1.112,-0.002181999
-1.113,-0.002187517
-1.114,-0.002192115
-1.115,-0.002194874
-1.116,-0.002200698
-1.117,-0.002207442
-1.118,-0.002209588
-1.119,-0.002215106
-1.12,-0.002220011
-1.121,-0.002224303
-1.122,-0.00223166
-1.123,-0.002236564
-1.124,-0.00223871
-1.125,-0.002246067
-1.126,-0.002252198
-1.127,-0.002255571
-1.128,-0.002262008
-1.129,-0.002267832
-1.13,-0.002271818
-1.131,-0.002279481
-1.132,-0.002284386
-1.133,-0.00229113
-1.134,-0.002296648
-1.135,-0.002304618
-1.136,-0.002309216
-1.137,-0.002314428
-1.138,-0.002322705
-1.139,-0.002326996
-1.14,-0.002334967
-1.141,-0.002342324
-1.142,-0.002347535
-1.143,-0.002353973
-1.144,-0.002362249
-1.145,-0.002367767
-1.146,-0.002374205
-1.147,-0.002382788
-1.148,-0.002388612
-1.149,-0.002395663
-1.15,-0.002405166
-1.151,-0.002410684
-1.152,-0.002417735
-1.153,-0.002426318
-1.154,-0.002431222
-1.155,-0.002440419
-1.156,-0.002449002
-1.157,-0.00245452
-1.158,-0.002463717
-1.159,-0.002471994
-1.16,-0.002477818
-1.161,-0.002487015
-1.162,-0.002496517
-1.163,-0.002501729
-1.164,-0.002511538
-1.165,-0.002519815
-1.166,-0.002525946
-1.167,-0.002535142
-1.168,-0.002544952
-1.169,-0.002551083
-1.17,-0.002560892
-1.171,-0.002570396
-1.172,-0.002575913
-1.173,-0.002584497
-1.174,-0.002596145
-1.175,-0.002601664
-1.176,-0.002611473
-1.177,-0.00262067
-1.178,-0.002627414
-1.179,-0.002636303
-1.18,-0.0026455
-1.181,-0.002651937
-1.182,-0.002661747
-1.183,-0.002670943
-1.184,-0.002678607
-1.185,-0.002686884
-1.186,-0.002695774
-1.187,-0.002703744
-1.188,-0.002711714
-1.189,-0.00272275
-1.19,-0.002728881
-1.191,-0.002738077
-1.192,-0.002744821
-1.193,-0.002754018
-1.194,-0.002762601
-1.195,-0.002770265
-1.196,-0.002779155
-1.197,-0.002788658
-1.198,-0.002794176
-1.199,-0.002803066
-1.2,-0.002811956
-1.201,-0.00281778
-1.202,-0.002830042
-1.203,-0.002837399
-1.204,-0.002843837
-1.205,-0.002853953
-1.206,-0.002862229
-1.207,-0.002868667
-1.208,-0.002878783
-1.209,-0.002886447
-1.21,-0.002894724
-1.211,-0.002903307
-1.212,-0.002911277
-1.213,-0.002918021
-1.214,-0.002929977
-1.215,-0.002934881
-1.216,-0.002942852
-1.217,-0.002955114
-1.218,-0.002960018
-1.219,-0.002966149
-1.22,-0.002978718
-1.221,-0.002981477
-1.222,-0.002994965
-1.223,-0.003002629
-1.224,-0.002973401
-1.225,-0.002979532
-1.226,-0.002988729
-1.227,-0.00299486
-1.228,-0.003007122
-1.229,-0.003016318
-1.23,-0.003022449
-1.231,-0.003031645
-1.232,-0.003043907
-1.233,-0.003046973
-1.234,-0.003056169
-1.235,-0.003065366
-1.236,-0.003071497
-1.237,-0.003083759
-1.238,-0.003092955
-1.239,-0.003102152
-1.24,-0.003108283
-1.241,-0.003117479
-1.242,-0.003126675
-1.243,-0.003135872
-1.244,-0.003145068
-1.245,-0.00315733
-1.246,-0.003166527
-1.247,-0.003175723
-1.248,-0.003184919
-1.249,-0.003194116
-1.25,-0.003206378
-1.251,-0.003215575
-1.252,-0.003224771
-1.253,-0.003237033
-1.254,-0.003246229
-1.255,-0.003258491
-1.256,-0.003270753
-1.257,-0.003283015
-1.258,-0.003289146
-1.259,-0.003307539
-1.26,-0.00331367
-1.261,-0.003325932
-1.262,-0.003341259
-1.263,-0.003350456
-1.264,-0.003362718
-1.265,-0.003378045
-1.266,-0.003387242
-1.267,-0.003402569
-1.268,-0.003414831
-1.269,-0.003427093
-1.27,-0.00344242
-1.271,-0.003457748
-1.272,-0.003470009
-1.273,-0.003485337
-1.274,-0.003500664
-1.275,-0.003512926
-1.276,-0.003534385
-1.277,-0.003546647
-1.278,-0.003561974
-1.279,-0.003583432
-1.28,-0.00359876
-1.281,-0.003617153
-1.282,-0.003641677
-1.283,-0.003657004
-1.284,-0.003678462
-1.285,-0.003699921
-1.286,-0.003718314
-1.287,-0.003739772
-1.288,-0.003764296
-1.289,-0.00378882
-1.29,-0.003810278
-1.291,-0.003837867
-1.292,-0.003862391
-1.293,-0.00388998
-1.294,-0.00391757
-1.295,-0.003945159
-1.296,-0.003972749
-1.297,-0.004006469
-1.298,-0.004037124
-1.299,-0.004070844
-1.3,-0.004104564
-1.301,-0.00414135
-1.302,-0.00417507
-1.303,-0.004211857
-1.304,-0.004251707
-1.305,-0.004291559
-1.306,-0.004334475
-1.307,-0.004380458
-1.308,-0.004423374
-1.309,-0.004469357
-1.31,-0.00452147
-1.311,-0.004573583
-1.312,-0.004625696
-1.313,-0.004680875
-1.314,-0.004742185
-1.315,-0.004803495
-1.316,-0.004864804
-1.317,-0.004932245
-1.318,-0.004999685
-1.319,-0.005070191
-1.32,-0.005146828
-1.321,-0.005223466
-1.322,-0.005303168
-1.323,-0.005389001
-1.324,-0.005474835
-1.325,-0.005563734
-1.326,-0.005661829
-1.327,-0.005759925
-1.328,-0.005858021
-1.329,-0.005971443
-1.33,-0.006078735
-1.331,-0.006192158
-1.332,-0.006317842
-1.333,-0.006437397
-1.334,-0.006569212
-1.335,-0.006707159
-1.336,-0.006838975
-1.337,-0.006986118
-1.338,-0.007136327
-1.339,-0.007289601
-1.34,-0.007449006
-1.341,-0.007620673
-1.342,-0.007786209
-1.343,-0.007967073
-1.344,-0.008151001
-1.345,-0.008337996
-1.346,-0.008540317
-1.347,-0.008739574
-1.348,-0.008948027
-1.349,-0.00916261
-1.35,-0.009383325
-1.351,-0.009613236
-1.352,-0.009849278
-1.353,-0.01008532
-1.354,-0.01033669
-1.355,-0.01058806
-1.356,-0.0108425
-1.357,-0.01110919
-1.358,-0.01137896
-1.359,-0.01165485
-1.36,-0.01193074
-1.361,-0.0122189
-1.362,-0.01250399
-1.363,-0.0128044
-1.364,-0.01310482
-1.365,-0.0134083
-1.366,-0.01372712
-1.367,-0.01403366
-1.368,-0.0143586
-1.369,-0.01468661
-1.37,-0.01501462
-1.371,-0.01535182
-1.372,-0.01568902
-1.373,-0.01603236
-1.374,-0.01637876
-1.375,-0.01672209
-1.376,-0.01706849
-1.377,-0.01742409
-1.378,-0.01777662
-1.379,-0.01812302
-1.38,-0.01848168
-1.381,-0.01883727
-1.382,-0.01919593
-1.383,-0.01956379
-1.384,-0.01992552
-1.385,-0.02029644
-1.386,-0.0206643
-1.387,-0.02102603
-1.388,-0.02139389
-1.389,-0.02176787
-1.39,-0.0221388
-1.391,-0.02250972
-1.392,-0.02287758
-1.393,-0.02324544
-1.394,-0.02361329
-1.395,-0.02397809
-1.396,-0.02434595
-1.397,-0.02471687
-1.398,-0.02508473
-1.399,-0.02547098
-1.4,-0.02583271
-1.401,-0.02620363
-1.402,-0.02658681
-1.403,-0.0269608
-1.404,-0.02732866
-1.405,-0.02770265
-1.406,-0.02806744
-1.407,-0.0284353
-1.408,-0.02880622
-1.409,-0.02917715
-1.41,-0.02954194
-1.411,-0.0299098
-1.412,-0.03028072
-1.413,-0.03077628
-1.414,-0.03111348
-1.415,-0.03148134
-1.416,-0.0318492
-1.417,-0.03224771
-1.418,-0.03261557
-1.419,-0.03298343
-1.42,-0.03338194
-1.421,-0.03371914
-1.422,-0.034087
-1.423,-0.03448552
-1.424,-0.03485337
-1.425,-0.03522123
-1.426,-0.03558908
-1.427,-0.03595695
-1.428,-0.03635546
-1.429,-0.03672331
-1.43,-0.03706052
-1.431,-0.03745903
-1.432,-0.03785754
-1.433,-0.0382254
-1.434,-0.03859326
-1.435,-0.03896112
-1.436,-0.03932897
-1.437,-0.03969683
-1.438,-0.04009534
-1.439,-0.04046321
-1.44,-0.04086172
-1.441,-0.04122957
-1.442,-0.04159743
-1.443,-0.04196529
-1.444,-0.04230249
-1.445,-0.04267035
-1.446,-0.04303821
-1.447,-0.04343672
-1.448,-0.04380458
-1.449,-0.04417244
-1.45,-0.0445403
-1.451,-0.04493881
-1.452,-0.04527601
-1.453,-0.04564387
-1.454,-0.04604238
-1.455,-0.04641024
-1.456,-0.04680875
-1.457,-0.04717661
-1.458,-0.04754447
-1.459,-0.04791233
-1.46,-0.04831084
-1.461,-0.0486787
-1.462,-0.04904656
-1.463,-0.04944507
-1.464,-0.04981292
-1.465,-0.05018078
-1.466,-0.05054864
-1.467,-0.05094716
-1.468,-0.05131501
-1.469,-0.05171353
-1.47,-0.05208138
-1.471,-0.05244924
-1.472,-0.05284775
-1.473,-0.05321561
-1.474,-0.05358347
-1.475,-0.05395133
-1.476,-0.05434984
-1.477,-0.0547177
-1.478,-0.05511621
-1.479,-0.05548407
-1.48,-0.05585193
-1.481,-0.05625044
-1.482,-0.05664895
-1.483,-0.05704746
-1.484,-0.05741533
-1.485,-0.05781383
-1.486,-0.05821235
-1.487,-0.05858021
-1.488,-0.05894807
-1.489,-0.05934658
-1.49,-0.05974509
-1.491,-0.0601436
-1.492,-0.06054211
-1.493,-0.06090998
-1.494,-0.06127783
-1.495,-0.061707
-1.496,-0.06210551
-1.497,-0.06250402
-1.498,-0.06290253
-1.499,-0.06330105
-1.5,-0.06342367
-1.499001,-0.06305581
-1.498001,-0.0626573
-1.497001,-0.06225879
-1.496001,-0.06186027
-1.495001,-0.06143111
-1.494001,-0.06103259
-1.493001,-0.06063408
-1.492001,-0.06023557
-1.491001,-0.05983705
-1.490001,-0.05943854
-1.489001,-0.05904003
-1.488001,-0.05864152
-1.487001,-0.05821235
-1.486001,-0.05781383
-1.485001,-0.05741533
-1.484001,-0.05698615
-1.483001,-0.0566183
-1.482001,-0.05621978
-1.481001,-0.05579061
-1.480001,-0.05539211
-1.479001,-0.05496293
-1.478001,-0.05456442
-1.477001,-0.05416591
-1.476001,-0.05379805
-1.475001,-0.05336889
-1.474001,-0.05297038
-1.473001,-0.0525412
-1.472001,-0.05214269
-1.471001,-0.05174418
-1.470001,-0.05137632
-1.469001,-0.05094716
-1.468001,-0.05054864
-1.467001,-0.05018078
-1.466001,-0.04975162
-1.465001,-0.0493531
-1.464001,-0.04895459
-1.463001,-0.04855608
-1.462001,-0.04815757
-1.461001,-0.04775905
-1.460001,-0.04736054
-1.459001,-0.04699268
-1.458001,-0.04656351
-1.457001,-0.046165
-1.456001,-0.04579714
-1.455001,-0.04539863
-1.454001,-0.04500012
-1.453001,-0.0446016
-1.452001,-0.04420309
-1.451001,-0.04380458
-1.450001,-0.04340607
-1.449001,-0.04300755
-1.448001,-0.0426397
-1.447001,-0.04224118
-1.446001,-0.04181201
-1.445001,-0.04144416
-1.444001,-0.04104565
-1.443001,-0.04067779
-1.442001,-0.04027928
-1.441001,-0.03988076
-1.440001,-0.03948225
-1.439001,-0.03911439
-1.438001,-0.03871588
-1.437001,-0.03831736
-1.436001,-0.03794951
-1.435001,-0.03758165
-1.434001,-0.03718314
-1.433001,-0.03678463
-1.432001,-0.03641677
-1.431001,-0.03601825
-1.430001,-0.03561974
-1.429001,-0.03525188
-1.428001,-0.03488402
-1.427001,-0.03448552
-1.426001,-0.03411765
-1.425001,-0.0337498
-1.424001,-0.03338194
-1.423001,-0.03301408
-1.422001,-0.03264622
-1.421001,-0.03224771
-1.420001,-0.03187985
-1.419001,-0.03151199
-1.418001,-0.03114414
-1.417001,-0.03074562
-1.416001,-0.03040842
-1.415001,-0.03000991
-1.414001,-0.02964205
-1.413001,-0.02930485
-1.412001,-0.02893699
-1.411001,-0.02859978
-1.410001,-0.02823193
-1.409001,-0.02786407
-1.408001,-0.02752687
-1.407001,-0.02715901
-1.406001,-0.02679115
-1.405001,-0.02645395
-1.404001,-0.02608609
-1.403001,-0.02574889
-1.402001,-0.02538103
-1.401001,-0.02504382
-1.400001,-0.02470662
-1.399001,-0.02436942
-1.398001,-0.02400156
-1.397001,-0.02366436
-1.396001,-0.02332716
-1.395001,-0.0229593
-1.394001,-0.02265275
-1.393001,-0.02231555
-1.392001,-0.02197834
-1.391001,-0.02164114
-1.390001,-0.02130394
-1.389001,-0.02096673
-1.388001,-0.02062953
-1.387001,-0.02032298
-1.386001,-0.02001643
-1.385001,-0.01967923
-1.384001,-0.01934203
-1.383001,-0.01903548
-1.382001,-0.01872893
-1.381001,-0.01842238
-1.380001,-0.01811584
-1.379001,-0.01780929
-1.378001,-0.01750274
-1.377001,-0.01722685
-1.376001,-0.0169203
-1.375001,-0.01661375
-1.374001,-0.0163072
-1.373001,-0.01600065
-1.372001,-0.01583617
-1.371001,-0.01556027
-1.370001,-0.01527825
-1.369001,-0.01500542
-1.368001,-0.01473872
-1.367001,-0.01446283
-1.366001,-0.01419613
-1.365001,-0.01393557
-1.364001,-0.01367194
-1.363001,-0.01341137
-1.362001,-0.01316307
-1.361001,-0.0129025
-1.360001,-0.01265726
-1.359001,-0.01241509
-1.358001,-0.01217291
-1.357001,-0.01193994
-1.356001,-0.0117039
-1.355001,-0.01147092
-1.354001,-0.01123794
-1.353001,-0.01101416
-1.352001,-0.01079345
-1.351001,-0.01057886
-1.350001,-0.01036428
-1.349001,-0.01015889
-1.348001,-0.009953505
-1.347001,-0.009751183
-1.346001,-0.009554992
-1.345001,-0.009364933
-1.344001,-0.009171807
-1.343001,-0.008987878
-1.342001,-0.008807015
-1.341001,-0.008623085
-1.340001,-0.008454484
-1.339001,-0.008279751
-1.338001,-0.00811115
-1.337001,-0.007954811
-1.336001,-0.00779234
-1.335001,-0.007636
-1.334001,-0.007491923
-1.333001,-0.007347845
-1.332001,-0.007197636
-1.331001,-0.007062755
-1.330001,-0.006927874
-1.329001,-0.006796058
-1.328001,-0.006673439
-1.327001,-0.006544688
-1.326001,-0.006422069
-1.325001,-0.006308646
-1.324001,-0.006192158
-1.323001,-0.006084866
-1.322001,-0.00598064
-1.321001,-0.005873348
-1.320001,-0.005778318
-1.319001,-0.005683288
-1.318001,-0.005582127
-1.317001,-0.005496293
-1.316001,-0.00541046
-1.315001,-0.005324626
-1.314001,-0.005244924
-1.313001,-0.005165222
-1.312001,-0.005088584
-1.311001,-0.005015012
-1.310001,-0.004944507
-1.309001,-0.004874
-1.308001,-0.004809625
-1.307001,-0.004748316
-1.306001,-0.004680875
-1.305001,-0.004622631
-1.304001,-0.004570518
-1.303001,-0.004509208
-1.302001,-0.00446016
-1.301001,-0.004404982
-1.300001,-0.004355934
-1.299001,-0.004306886
-1.298001,-0.004257839
-1.297001,-0.004214922
-1.296001,-0.004168939
-1.295001,-0.004126023
-1.294001,-0.004086172
-1.293001,-0.004043255
-1.292001,-0.004003403
-1.291001,-0.003966617
-1.290001,-0.003929832
-1.289001,-0.003893046
-1.288001,-0.003862391
-1.287001,-0.003828671
-1.286001,-0.003794951
-1.285001,-0.003764296
-1.284001,-0.003733641
-1.283001,-0.003702986
-1.282001,-0.003675397
-1.281001,-0.003644742
-1.280001,-0.003617153
-1.279001,-0.003592629
-1.278001,-0.003565039
-1.277001,-0.003540515
-1.276001,-0.003515992
-1.275001,-0.003491468
-1.274001,-0.003466944
-1.273001,-0.003445486
-1.272001,-0.003424027
-1.271001,-0.003399503
-1.270001,-0.00338111
-1.269001,-0.003359652
-1.268001,-0.003338194
-1.267001,-0.003319801
-1.266001,-0.003298342
-1.265001,-0.00327995
-1.264001,-0.003261557
-1.263001,-0.003240098
-1.262001,-0.003224771
-1.261001,-0.003209443
-1.260001,-0.003187985
-1.259001,-0.003172658
-1.258001,-0.00315733
-1.257001,-0.003138937
-1.256001,-0.003126675
-1.255001,-0.003108283
-1.254001,-0.003092955
-1.253001,-0.003077628
-1.252001,-0.0030623
-1.251001,-0.003046973
-1.250001,-0.003037777
-1.249001,-0.003019383
-1.248001,-0.003007122
-1.247001,-0.00299486
-1.246001,-0.002976467
-1.245001,-0.00296727
-1.244001,-0.002955008
-1.243001,-0.002939681
-1.242001,-0.002930485
-1.241001,-0.002918222
-1.240001,-0.002902895
-1.239001,-0.002890633
-1.238001,-0.002878371
-1.237001,-0.002863044
-1.236001,-0.002853847
-1.235001,-0.002841586
-1.234001,-0.002832389
-1.233001,-0.002823193
-1.232001,-0.002807865
-1.231001,-0.002798669
-1.230001,-0.002786407
-1.229001,-0.002774145
-1.228001,-0.002764949
-1.227001,-0.002755752
-1.226001,-0.00274349
-1.225001,-0.002734293
-1.224001,-0.002725097
-1.223001,-0.002706704
-1.222001,-0.002703639
-1.221001,-0.002691377
-1.220001,-0.002679115
-1.219001,-0.002672984
-1.218001,-0.002660722
-1.217001,-0.00264846
-1.216001,-0.002642329
-1.215001,-0.002630068
-1.214001,-0.002623936
-1.213001,-0.00261474
-1.212001,-0.002599412
-1.211001,-0.002593281
-1.210001,-0.002587151
-1.209001,-0.002574889
-1.208001,-0.002568757
-1.207001,-0.002556496
-1.206001,-0.002547299
-1.205001,-0.002541168
-1.204001,-0.002528906
-1.203001,-0.002522775
-1.202001,-0.002513579
-1.201001,-0.002504382
-1.200001,-0.00249212
-1.199001,-0.002489055
-1.198001,-0.002473728
-1.197001,-0.002467597
-1.196001,-0.002461466
-1.195001,-0.002449204
-1.194001,-0.002443073
-1.193001,-0.002436942
-1.192001,-0.00242468
-1.191001,-0.002418549
-1.190001,-0.002409352
-1.189001,-0.002397091
-1.188001,-0.00239096
-1.187001,-0.002384829
-1.186001,-0.002372567
-1.185001,-0.002366436
-1.184001,-0.002360305
-1.183001,-0.002348043
-1.182001,-0.002344977
-1.181001,-0.002332716
-1.180001,-0.002326585
-1.179001,-0.002320454
-1.178001,-0.002308191
-1.177001,-0.002302061
-1.176001,-0.00229593
-1.175001,-0.002286733
-1.174001,-0.002280602
-1.173001,-0.002274471
-1.172001,-0.002262209
-1.171001,-0.002256078
-1.170001,-0.002249948
-1.169001,-0.002240751
-1.168001,-0.00223462
-1.167001,-0.002225423
-1.166001,-0.002219293
-1.165001,-0.002213162
-1.164001,-0.002203965
-1.163001,-0.002197834
-1.162001,-0.002191703
-1.161001,-0.002179441
-1.160001,-0.00217331
-1.159001,-0.002170245
-1.158001,-0.002157983
-1.157001,-0.002151852
-1.156001,-0.002142655
-1.155001,-0.002136525
-1.154001,-0.002127328
-1.153001,-0.002121197
-1.152001,-0.002108935
-1.151001,-0.00210587
-1.150001,-0.002099739
-1.149001,-0.002087477
-1.148001,-0.002084411
-1.147001,-0.00207828
-1.146001,-0.002066019
-1.145001,-0.002059887
-1.144001,-0.002050691
-1.143001,-0.00204456
-1.142001,-0.002038429
-1.141001,-0.002029233
-1.140001,-0.002023102
-1.139001,-0.002016971
-1.138001,-0.00201084
-1.137001,-0.002001643
-1.136001,-0.001992447
-1.135001,-0.001986316
-1.134001,-0.00198325
-1.133001,-0.001974054
-1.132001,-0.001964858
-1.131001,-0.001958727
-1.130001,-0.001952596
-1.129001,-0.001943399
-1.128001,-0.001940334
-1.127001,-0.001931137
-1.126001,-0.001921941
-1.125001,-0.001918875
-1.124001,-0.001912744
-1.123001,-0.001903548
-1.122001,-0.001900482
-1.121001,-0.001891286
-1.120001,-0.00188209
-1.119001,-0.001879024
-1.118001,-0.001869828
-1.117001,-0.001863697
-1.116001,-0.001857566
-1.115001,-0.001848369
-1.114001,-0.001842238
-1.113001,-0.001839173
-1.112001,-0.001829976
-1.111001,-0.001823845
-1.110001,-0.001817714
-1.109001,-0.001811583
-1.108001,-0.001802387
-1.107001,-0.001799321
-1.106001,-0.001790125
-1.105001,-0.001783994
-1.104001,-0.001780929
-1.103001,-0.001768667
-1.102001,-0.001765601
-1.101001,-0.00175947
-1.100001,-0.001750274
-1.099001,-0.001747208
-1.098001,-0.001741077
-1.097001,-0.001731881
-1.096001,-0.001728815
-1.095001,-0.001719619
-1.094001,-0.001713488
-1.093001,-0.001707357
-1.092001,-0.001698161
-1.091001,-0.001695095
-1.090001,-0.00169203
-1.089001,-0.001679768
-1.088001,-0.001676702
-1.087001,-0.001670571
-1.086001,-0.001661375
-1.085001,-0.001655244
-1.084001,-0.001649113
-1.083001,-0.001642982
-1.082001,-0.001636851
-1.081001,-0.00163072
-1.080001,-0.001621523
-1.079001,-0.001618458
-1.078001,-0.001612327
-1.077001,-0.001606196
-1.076001,-0.001633278
-1.075001,-0.001627147
-1.074001,-0.001620403
-1.073001,-0.001613352
-1.072001,-0.00160906
-1.071001,-0.001600477
-1.070001,-0.001594653
-1.069001,-0.001589748
-1.068001,-0.001581471
-1.067001,-0.001575033
-1.066001,-0.001569516
-1.065001,-0.001559399
-1.064001,-0.001556334
-1.063001,-0.001549283
-1.062001,-0.0015407
-1.061001,-0.001535489
-1.060001,-0.00153089
-1.059001,-0.001521387
-1.058001,-0.001516483
-1.057001,-0.001507286
-1.056001,-0.001499929
-1.055001,-0.001496557
-1.054001,-0.001486748
-1.053001,-0.001480923
-1.052001,-0.001475405
-1.051001,-0.001466209
-1.050001,-0.001461304
-1.049001,-0.00145456
-1.048001,-0.00144475
-1.047001,-0.001438926
-1.046001,-0.001434941
-1.045001,-0.001424825
-1.044001,-0.001417468
-1.043001,-0.001410417
-1.042001,-0.001403366
-1.041001,-0.001394783
-1.040001,-0.001389878
-1.039001,-0.001379456
-1.038001,-0.001373018
-1.037001,-0.001368726
-1.036001,-0.001357384
-1.035001,-0.001352786
-1.034001,-0.001345735
-1.033001,-0.001335313
-1.032001,-0.001329488
-1.031001,-0.001321825
-1.030001,-0.001312935
-1.029001,-0.001307417
-1.028001,-0.001297607
-1.027001,-0.001289637
-1.026001,-0.001283813
-1.025001,-0.001274616
-1.024001,-0.001268792
-1.023001,-0.001259595
-1.022001,-0.001248866
-1.021001,-0.001243961
-1.020001,-0.001235684
-1.019001,-0.001226795
-1.018001,-0.00122097
-1.017001,-0.001212387
-1.016001,-0.001203803
-1.015001,-0.001196753
-1.014001,-0.00118817
-1.013001,-0.001178666
-1.012001,-0.001171616
-1.011001,-0.001165485
-1.010001,-0.001156595
-1.009001,-0.001147092
-1.008001,-0.001140655
-1.007001,-0.001131765
-1.006001,-0.001123488
-1.005001,-0.001117357
-1.004001,-0.001105095
-1.003001,-0.001098657
-1.002001,-0.001090381
-1.001001,-0.001080264
-1.000001,-0.001075666
-0.9990007,-0.001065244
-0.9980007,-0.00105758
-0.9970006,-0.001050529
-0.9960006,-0.001040107
-0.9950007,-0.00103183
-0.9940007,-0.001026005
-0.9930006,-0.001015276
-0.9920006,-0.001008226
-0.9910007,-0.001000562
-0.9900007,-0.0009901392
-0.9890007,-0.0009815559
-0.9880006,-0.0009741987
-0.9870006,-0.0009619368
-0.9860007,-0.0009564189
-0.9850007,-0.0009499814
-0.9840007,-0.0009371064
-0.9830006,-0.0009315885
-0.9820006,-0.0009248445
-0.9810007,-0.0009125826
-0.9800007,-0.0009064515
-0.9790006,-0.0008975617
-0.9780006,-0.0008859128
-0.9770007,-0.0008794753
-0.9760007,-0.0008699723
-0.9750007,-0.0008595497
-0.9740006,-0.0008518859
-0.9730006,-0.0008433026
-0.9720007,-0.0008316538
-0.9710007,-0.0008261359
-0.9700007,-0.0008160198
-0.9690006,-0.0008046775
-0.9680007,-0.0007979335
-0.9670007,-0.0007868978
-0.9660007,-0.000775862
-0.9650006,-0.0007691179
-0.9640006,-0.0007565495
-0.9630007,-0.0007470464
-0.9620007,-0.0007393828
-0.9610007,-0.0007289601
-0.9600006,-0.0007170048
-0.9590006,-0.0007090345
-0.9580007,-0.0006979987
-0.9570007,-0.000686963
-0.9560006,-0.0006780731
-0.9550006,-0.000667344
-0.9540007,-0.0006553886
-0.9530007,-0.0006461921
-0.9520007,-0.0006345432
-0.9510006,-0.0006235075
-0.9500006,-0.0006133915
-0.9490007,-0.0006017426
-0.9480007,-0.0005913199
-0.9470007,-0.0005799776
-0.9460006,-0.0005701681
-0.9450006,-0.0005579062
-0.9440007,-0.0005493228
-0.9430007,-0.0005349151
-0.9420006,-0.0005232662
-0.9410006,-0.0005140697
-0.9400007,-0.0004993554
-0.9390007,-0.0004889328
-0.9380007,-0.0004794298
-0.9370006,-0.0004653286
-0.9360006,-0.0004545994
-0.9350007,-0.0004417244
-0.9340007,-0.0004309952
-0.9330007,-0.000420266
-0.9320006,-0.0004058582
-0.9310006,-0.0003960487
-0.9300007,-0.0003847064
-0.9290007,-0.0003699921
-0.9280006,-0.0003601825
-0.9270006,-0.000347001
-0.9260007,-0.0003328998
-0.9250007,-0.0003230902
-0.9240007,-0.0003105217
-0.9230006,-0.0002967271
-0.9220006,-0.0002863044
-0.9210007,-0.000274349
-0.9200007,-0.0002602478
-0.9190007,-0.0002513579
-0.9180006,-0.0002375632
-0.9170007,-0.0002262209
-0.9160007,-0.0002151852
-0.9150007,-0.0002029233
-0.9140006,-0.000191581
-0.9130006,-0.0001814649
-0.9120007,-0.0001698161
-0.9110007,-0.0001584738
-0.9100007,-0.0001483577
-0.9090006,-0.000137322
-0.9080006,-0.0001293622
-0.9070007,-0.0001217598
-0.9060007,-0.0001100803
-0.9050006,-0.0001017729
-0.9040006,-9.288295E-05
-0.9030007,-8.200049E-05
-0.9020007,-7.525643E-05
-0.9010007,-6.866564E-05
-0.9000006,-5.8243E-05
-0.8990006,-5.312365E-05
-0.8980007,-4.631827E-05
-0.8970007,-3.7551E-05
-0.8960007,-3.304473E-05
-0.8950006,-2.620871E-05
-0.8940006,-1.750274E-05
-0.8930007,-1.449856E-05
-0.8920007,-7.264026E-06
-0.8910006,-1.102406E-06
-0.8900006,3.434508E-06
-0.8890007,9.350889E-06
-0.8880007,1.591102E-05
-0.8870007,1.968157E-05
-0.8860006,2.621104E-05
-0.8850006,3.185153E-05
-0.8840007,3.761464E-05
-0.8830007,4.392953E-05
-0.8820007,4.812924E-05
-0.8810006,5.376973E-05
-0.8800007,5.974742E-05
-0.8790007,6.495875E-05
-0.8780007,6.943435E-05
-0.8770006,7.685281E-05
-0.8760006,8.264658E-05
-0.8750007,8.706087E-05
-0.8740007,9.264005E-05
-0.8730007,9.972131E-05
-0.8720006,0.0001049633
-0.8710006,0.0001129335
-0.8700007,0.0001182368
-0.8690007,0.0001227124
-0.8680006,0.0001322767
-0.8670006,0.0001369669
-0.8660007,0.0001430672
-0.8650007,0.0001519878
-0.8640007,0.0001571071
-0.8630006,0.000164495
-0.8620006,0.0001730783
-0.8610007,0.0001794852
-0.8600007,0.0001880992
-0.8590007,0.0001969584
-0.8580006,0.0002045302
-0.8570006,0.0002142477
-0.8560007,0.0002229231
-0.8550007,0.0002316597
-0.8540006,0.0002428794
-0.8530006,0.0002519225
-0.8520007,0.0002627437
-0.8510007,0.0002748524
-0.8500007,0.0002863173
-0.8490006,0.0003013486
-0.8480006,0.0003136106
-0.8470007,0.0003264856
-0.8460007,0.0003396672
-0.8450007,0.0003549946
-0.8440006,0.0003690958
-0.8430007,0.0003847298
-0.8420007,0.0004012834
-0.8410007,0.000417837
-0.8400006,0.000434084
-0.8390006,0.0004537031
-0.8380007,0.0004711764
-0.8370007,0.0004901824
-0.8360007,0.0005110276
-0.8350006,0.0005309533
-0.8340006,0.0005521051
-0.8330007,0.0005744831
-0.8320007,0.0005968612
-0.8310006,0.0006198523
-0.8300006,0.0006443762
-0.8290007,0.0006685934
-0.8280007,0.0006934239
-0.8270007,0.000719787
-0.8260006,0.0007458436
-0.8250006,0.0007728199
-0.8240007,0.0008004092
-0.8230007,0.000827692
-0.8220007,0.000856201
-0.8210006,0.0008856296
-0.8200006,0.0009147517
-0.8190007,0.0009472458
-0.8180007,0.0009772875
-0.8170006,0.001007329
-0.8160006,0.001038597
-0.8150007,0.001070785
-0.8140007,0.001101746
-0.8130007,0.001134853
-0.8120006,0.001167348
-0.8110006,0.001198922
-0.8100007,0.001232642
-0.8090007,0.001266056
-0.8080007,0.001297937
-0.8070006,0.001332883
-0.8060006,0.001366604
-0.8050007,0.001399404
-0.8040007,0.001434351
-0.8030006,0.001468071
-0.8020006,0.001501179
-0.8010007,0.001536125
-0.8000007,0.001509455
-0.8009993,0.00141933
-0.8019994,0.001342387
-0.8029994,0.001269428
-0.8039994,0.001199228
-0.8049994,0.001133627
-0.8059993,0.001070172
-0.8069994,0.001008862
-0.8079994,0.000951231
-0.8089994,0.000894213
-0.8099993,0.0008393408
-0.8109994,0.0007875342
-0.8119994,0.0007366472
-0.8129994,0.0006872929
-0.8139994,0.0006397779
-0.8149993,0.0005934892
-0.8159994,0.0005487331
-0.8169994,0.0005058163
-0.8179994,0.0004641258
-0.8189994,0.0004209024
-0.8199994,0.0003819708
-0.8209994,0.0003436523
-0.8219994,0.0003053338
-0.8229994,0.0002700807
-0.8239993,0.0002345211
-0.8249994,0.0001995746
-0.8259994,0.000167387
-0.8269994,0.0001342798
-0.8279994,0.0001020923
-0.8289993,6.940369E-05
-0.8299994,3.948458E-05
-0.8309994,9.16696E-06
-0.8319994,-1.799321E-05
-0.8329993,-4.552125E-05
-0.8339994,-7.311059E-05
-0.8349994,-9.778772E-05
-0.8359994,-0.0001248253
-0.8369994,-0.0001495637
-0.8379993,-0.0001724935
-0.8389994,-0.0001974772
-0.8399994,-0.0002189662
-0.8409994,-0.0002410684
-0.8419994,-0.0002634157
-0.8429993,-0.0002840464
-0.8439994,-0.0003010187
-0.8449994,-0.0003209444
-0.8459994,-0.0003402569
-0.8469993,-0.0003592629
-0.8479994,-0.0003773492
-0.8489994,-0.0003951291
-0.8499994,-0.0004138285
-0.8509994,-0.0004300755
-0.8519993,-0.0004463226
-0.8529994,-0.0004634893
-0.8539994,-0.0004782036
-0.8549994,-0.0004932245
-0.8559994,-0.0005094716
-0.8569994,-0.0005229597
-0.8579994,-0.0005379805
-0.8589994,-0.0005517752
-0.8599994,-0.0005649568
-0.8609993,-0.0005775253
-0.8619994,-0.0005913199
-0.8629994,-0.0006035819
-0.8639994,-0.0006149242
-0.8649994,-0.0006271861
-0.8659993,-0.0006388349
-0.8669994,-0.0006504838
-0.8679994,-0.0006627457
-0.8689994,-0.0006710225
-0.8699993,-0.0006826713
-0.8709994,-0.0006934005
-0.8719994,-0.0007016773
-0.8729994,-0.0007127131
-0.8739994,-0.0007225226
-0.8749993,-0.0007298798
-0.8759994,-0.0007399959
-0.8769994,-0.000750725
-0.8779994,-0.0007574691
-0.8789994,-0.000766359
-0.8799993,-0.0007755554
-0.8809994,-0.0007829126
-0.8819994,-0.0007905763
-0.8829994,-0.0008003859
-0.8839993,-0.00080713
-0.8849994,-0.0008151002
-0.8859994,-0.000823377
-0.8869994,-0.0008298145
-0.8879994,-0.000836252
-0.8889993,-0.0008445288
-0.8899994,-0.0008512728
-0.8909994,-0.0008577104
-0.8919994,-0.0008659872
-0.8929994,-0.0008715051
-0.8939994,-0.0008782492
-0.8949994,-0.0008856063
-0.8959994,-0.0008908176
-0.8969994,-0.0008978682
-0.8979993,-0.0009043057
-0.8989994,-0.0009104367
-0.8999994,-0.0009168742
-0.9009994,-0.0009233117
-0.9019994,-0.0009288296
-0.9029993,-0.0009358802
-0.9039994,-0.0009423177
-0.9049994,-0.0009459963
-0.9059994,-0.0009551927
-0.9069993,-0.0009600975
-0.9079994,-0.0009653088
-0.9089994,-0.0009732791
-0.9099994,-0.000978797
-0.9109994,-0.0009837018
-0.9119993,-0.0009907524
-0.9129994,-0.0009965767
-0.9139994,-0.001002095
-0.9149994,-0.001008532
-0.9159994,-0.001014357
-0.9169993,-0.001019874
-0.9179994,-0.001026925
-0.9189994,-0.001031523
-0.9199994,-0.001038267
-0.9209993,-0.001045011
-0.9219994,-0.001049303
-0.9229994,-0.001055434
-0.9239994,-0.001062791
-0.9249994,-0.001067083
-0.9259993,-0.001073521
-0.9269994,-0.001079345
-0.9279994,-0.001083943
-0.9289994,-0.00109222
-0.9299994,-0.001097431
-0.9309993,-0.00110111
-0.9319994,-0.001109693
-0.9329994,-0.001114904
-0.9339994,-0.001119809
-0.9349993,-0.001128699
-0.9359994,-0.001132684
-0.9369994,-0.001139122
-0.9379994,-0.001146172
-0.9389994,-0.001150158
-0.9399993,-0.001157515
-0.9409994,-0.001164565
-0.9419994,-0.001169164
-0.9429994,-0.001175601
-0.9439994,-0.001182038
-0.9449994,-0.001187863
-0.9459994,-0.001196446
-0.9469994,-0.001202271
-0.9479994,-0.001206869
-0.9489993,-0.001214533
-0.9499994,-0.001221277
-0.9509994,-0.001227101
-0.9519994,-0.001233845
-0.9529994,-0.001241509
-0.9539993,-0.001247027
-0.9549994,-0.001254077
-0.9559994,-0.001262661
-0.9569994,-0.001267872
-0.9579993,-0.001274923
-0.9589994,-0.001283506
-0.9599994,-0.00128933
-0.9609994,-0.001296994
-0.9619994,-0.001305577
-0.9629993,-0.001311402
-0.9639994,-0.001319985
-0.9649994,-0.001328875
-0.9659994,-0.001335313
-0.9669994,-0.00134267
-0.9679993,-0.001350947
-0.9689994,-0.001360143
-0.9699994,-0.00136842
-0.9709994,-0.00137731
-0.9719993,-0.00138436
-0.9729994,-0.001394783
-0.9739994,-0.001401527
-0.9749994,-0.00141103
-0.9759994,-0.001420533
-0.9769993,-0.00142973
-0.9779994,-0.001438619
-0.9789994,-0.001449042
-0.9799994,-0.001457932
-0.9809994,-0.001468355
-0.9819994,-0.001478471
-0.9829994,-0.001487054
-0.9839994,-0.001497783
-0.9849994,-0.001509126
-0.9859993,-0.001518015
-0.9869994,-0.001530277
-0.9879994,-0.001541926
-0.9889994,-0.001550816
-0.9899994,-0.001562465
-0.9909993,-0.001575033
-0.9919994,-0.00158423
-0.9929994,-0.001595266
-0.9939994,-0.001607834
-0.9949993,-0.001618257
-0.9959994,-0.001631745
-0.9969994,-0.0016437
-0.9979994,-0.00165351
-0.9989994,-0.001668224
-0.9999993,-0.001678034
-1.000999,-0.001689989
-1.001999,-0.00170409
-1.002999,-0.001715126
-1.003999,-0.001727695
-1.004999,-0.001740876
-1.005999,-0.001753445
-1.006999,-0.00176448
-1.007999,-0.001777049
-1.008999,-0.00179115
-1.009999,-0.001801879
-1.010999,-0.001815674
-1.011999,-0.001829468
-1.012999,-0.001840504
-1.013999,-0.001854299
-1.014999,-0.001865641
-1.015999,-0.00187729
-1.016999,-0.001892004
-1.017999,-0.001902734
-1.018999,-0.001914689
-1.019999,-0.001928177
-1.020999,-0.001937987
-1.021999,-0.001950555
-1.022999,-0.001965576
-1.023999,-0.001973853
-1.024999,-0.001985195
-1.025999,-0.001998683
-1.026999,-0.002004814
-1.027999,-0.002021061
-1.028999,-0.002030871
-1.029999,-0.002039148
-1.030999,-0.002051716
-1.031999,-0.002060606
-1.032999,-0.002069189
-1.033999,-0.002080225
-1.034999,-0.002088195
-1.035999,-0.002096165
-1.036999,-0.002106281
-1.037999,-0.002115478
-1.038999,-0.002120689
-1.039999,-0.002129273
-1.040999,-0.002138469
-1.041999,-0.002140002
-1.042999,-0.002151957
-1.043999,-0.002156862
-1.044999,-0.002160541
-1.045999,-0.002168511
-1.046999,-0.002172803
-1.047999,-0.002174642
-1.048999,-0.002181692
-1.049999,-0.002185064
-1.050999,-0.00218813
-1.051999,-0.002193035
-1.052999,-0.002192422
-1.053999,-0.002195487
-1.054999,-0.002201005
-1.055999,-0.002200698
-1.056999,-0.002201924
-1.057999,-0.00220499
-1.058999,-0.002203764
-1.059999,-0.002204683
-1.060999,-0.002207442
-1.061999,-0.00220499
-1.062999,-0.002204377
-1.063999,-0.00220591
-1.064999,-0.002204377
-1.065999,-0.002203151
-1.066999,-0.002203151
-1.067999,-0.002201312
-1.068999,-0.00219702
-1.069999,-0.002202538
-1.070999,-0.002196407
-1.071999,-0.002193954
-1.072999,-0.002195793
-1.073999,-0.002190276
-1.074999,-0.002190889
-1.075999,-0.002188743
-1.076999,-0.002187823
-1.077999,-0.002185371
-1.078999,-0.002182918
-1.079999,-0.002180773
-1.080999,-0.002181692
-1.081999,-0.002178627
-1.082999,-0.002177707
-1.083999,-0.00217832
-1.084999,-0.002174029
-1.085999,-0.002172803
-1.086999,-0.002175255
-1.087999,-0.002171576
-1.088999,-0.002170657
-1.089999,-0.002173416
-1.090999,-0.002170963
-1.091999,-0.002171576
-1.092999,-0.002172496
-1.093999,-0.00217127
-1.094999,-0.002172803
-1.095999,-0.002173109
-1.096999,-0.002172803
-1.097999,-0.002174335
-1.098999,-0.002177707
-1.099999,-0.002177401
-1.100999,-0.002177401
-1.101999,-0.002180466
-1.102999,-0.002180773
-1.103999,-0.002182918
-1.104999,-0.002187823
-1.105999,-0.002184451
-1.106999,-0.002191502
-1.107999,-0.002193341
-1.108999,-0.002192728
-1.109999,-0.002197633
-1.110999,-0.002201005
-1.111999,-0.002200698
-1.112999,-0.002206829
-1.113999,-0.002208975
-1.114999,-0.002210201
-1.115999,-0.002214799
-1.116999,-0.002220624
-1.117999,-0.002220011
-1.118999,-0.002226755
-1.119999,-0.002232886
-1.120999,-0.00223166
-1.121999,-0.002237791
-1.122999,-0.002243922
-1.123999,-0.002241776
-1.124999,-0.002253118
-1.125999,-0.00225649
-1.126999,-0.002258942
-1.127999,-0.002265073
-1.128999,-0.002268752
-1.129999,-0.002271511
-1.130999,-0.002278868
-1.131999,-0.00228316
-1.132999,-0.002288678
-1.133999,-0.002294502
-1.134999,-0.002296954
-1.135999,-0.002301553
-1.136999,-0.002310749
-1.137999,-0.002314121
-1.138999,-0.0023178
-1.139999,-0.002326383
-1.140999,-0.002329755
-1.141999,-0.002337112
-1.142999,-0.002344776
-1.143999,-0.002346002
-1.144999,-0.002355812
-1.145999,-0.002361023
-1.146999,-0.002364395
-1.147999,-0.002372978
-1.148999,-0.002378496
-1.149999,-0.002385547
-1.150999,-0.002395357
-1.151999,-0.002397809
-1.152999,-0.002406086
-1.153999,-0.002414056
-1.154999,-0.002417735
-1.155999,-0.002426011
-1.156999,-0.002433982
-1.157999,-0.002441032
-1.158999,-0.00244655
-1.159999,-0.002455747
-1.160999,-0.002457892
-1.161999,-0.002470154
-1.162999,-0.002478738
-1.163999,-0.002482723
-1.164999,-0.002491
-1.165999,-0.002502035
-1.166999,-0.002503261
-1.167999,-0.002514297
-1.168999,-0.0025238
-1.169999,-0.002528705
-1.170999,-0.002537902
-1.171999,-0.002544645
-1.172999,-0.002549857
-1.173999,-0.002560892
-1.174999,-0.00256825
-1.175999,-0.002572541
-1.176999,-0.002584497
-1.177999,-0.002589708
-1.178999,-0.002599211
-1.179999,-0.002608408
-1.180999,-0.002612086
-1.181999,-0.00261883
-1.182999,-0.002630172
-1.183999,-0.002635077
-1.184999,-0.002643661
-1.185999,-0.002652551
-1.186999,-0.002659295
-1.187999,-0.002665119
-1.188999,-0.002674009
-1.189999,-0.002682899
-1.190999,-0.002688417
-1.191999,-0.002697613
-1.192999,-0.002707423
-1.193999,-0.002711714
-1.194999,-0.002720604
-1.195999,-0.002729801
-1.196999,-0.002734399
-1.197999,-0.002743902
-1.198999,-0.002751566
-1.199999,-0.002757084
-1.200999,-0.00276628
-1.201999,-0.002775476
-1.202999,-0.002779768
-1.203999,-0.002789271
-1.204999,-0.002796935
-1.205999,-0.002801839
-1.206999,-0.002809503
-1.207999,-0.0028187
-1.208999,-0.002823298
-1.209999,-0.002831881
-1.210999,-0.002841384
-1.211999,-0.002846289
-1.212999,-0.002854872
-1.213999,-0.002862229
-1.214999,-0.002868974
-1.215999,-0.002875718
-1.216999,-0.002883381
-1.217999,-0.002893191
-1.218999,-0.002900241
-1.219999,-0.002906066
-1.220999,-0.002912197
-1.221999,-0.0029217
-1.222999,-0.002928138
-1.223999,-0.002935188
-1.224999,-0.002943465
-1.225999,-0.002950822
-1.226999,-0.00295726
-1.227999,-0.00296523
-1.228999,-0.002975652
-1.229999,-0.00298117
-1.230999,-0.002990367
-1.231999,-0.002999257
-1.232999,-0.003004468
-1.233999,-0.002976467
-1.234999,-0.002985663
-1.235999,-0.002991794
-1.236999,-0.003000991
-1.237999,-0.003013253
-1.238999,-0.003019383
-1.239999,-0.003025514
-1.240999,-0.003037777
-1.241999,-0.003046973
-1.242999,-0.003053104
-1.243999,-0.0030623
-1.244999,-0.003071497
-1.245999,-0.003080693
-1.246999,-0.003086824
-1.247999,-0.003099086
-1.248999,-0.003111348
-1.249999,-0.003117479
-1.250999,-0.003126675
-1.251999,-0.003142003
-1.252999,-0.003148134
-1.253999,-0.003160396
-1.254999,-0.003172658
-1.255999,-0.003178789
-1.256999,-0.003194116
-1.257999,-0.003206378
-1.258999,-0.003215575
-1.259999,-0.003230902
-1.260999,-0.003243164
-1.261999,-0.003249295
-1.262999,-0.003270753
-1.263999,-0.00327995
-1.264999,-0.003292212
-1.265999,-0.003310604
-1.266999,-0.003322866
-1.267999,-0.003335128
-1.268999,-0.003353521
-1.269999,-0.003365783
-1.270999,-0.00338111
-1.271999,-0.003399503
-1.272999,-0.003414831
-1.273999,-0.003433224
-1.274999,-0.003451617
-1.275999,-0.003466944
-1.276999,-0.003485337
-1.277999,-0.003509861
-1.278999,-0.003525188
-1.279999,-0.003549712
-1.280999,-0.003574236
-1.281999,-0.003589563
-1.282999,-0.003617153
-1.283999,-0.003641677
-1.284999,-0.003660069
-1.285999,-0.003687659
-1.286999,-0.003718314
-1.287999,-0.003739772
-1.288999,-0.003767361
-1.289999,-0.003801082
-1.290999,-0.003828671
-1.291999,-0.003859326
-1.292999,-0.003896111
-1.293999,-0.003923701
-1.294999,-0.003966617
-1.295999,-0.004000338
-1.296999,-0.004040189
-1.297999,-0.00408004
-1.298999,-0.004122957
-1.299999,-0.004162808
-1.300999,-0.004208791
-1.301999,-0.004254773
-1.302999,-0.00430382
-1.303999,-0.004355934
-1.304999,-0.004404982
-1.305999,-0.00446016
-1.306999,-0.004518405
-1.307999,-0.004576649
-1.308999,-0.004637958
-1.309999,-0.004702333
-1.310999,-0.004769774
-1.311999,-0.004837214
-1.312999,-0.004916917
-1.313999,-0.004987423
-1.314999,-0.00506406
-1.315999,-0.005152959
-1.316999,-0.005232662
-1.317999,-0.005318495
-1.318999,-0.005413526
-1.319999,-0.00550549
-1.320999,-0.005603585
-1.321999,-0.005707812
-1.322999,-0.005812038
-1.323999,-0.00591933
-1.324999,-0.006038884
-1.325999,-0.006155372
-1.326999,-0.006274926
-1.327999,-0.006403676
-1.328999,-0.006535492
-1.329999,-0.006673439
-1.330999,-0.006814451
-1.331999,-0.006958528
-1.332999,-0.007108737
-1.333999,-0.007268142
-1.334999,-0.007427548
-1.335999,-0.007593083
-1.336999,-0.007764751
-1.337999,-0.007942548
-1.338999,-0.008126478
-1.339999,-0.008310406
-1.340999,-0.008503532
-1.341999,-0.008705853
-1.342999,-0.008908176
-1.343999,-0.009116628
-1.344999,-0.009334277
-1.345999,-0.009545796
-1.346999,-0.009775707
-1.347999,-0.01001175
-1.348999,-0.01024166
-1.349999,-0.0104869
-1.350999,-0.0107352
-1.351999,-0.01098351
-1.352999,-0.01124407
-1.353999,-0.01151077
-1.354999,-0.01177134
-1.355999,-0.01204723
-1.356999,-0.01232619
-1.357999,-0.01260208
-1.358999,-0.0128933
-1.359999,-0.01318759
-1.360999,-0.01347268
-1.361999,-0.01377616
-1.362999,-0.01407658
-1.363999,-0.01438006
-1.364999,-0.01469274
-1.365999,-0.01500235
-1.366999,-0.01531503
-1.367999,-0.01563691
-1.368999,-0.01596185
-1.369999,-0.01628679
-1.370999,-0.01661786
-1.371999,-0.01694587
-1.372999,-0.01728307
-1.373999,-0.01762641
-1.374999,-0.01796055
-1.375999,-0.01830081
-1.376999,-0.01865028
-1.377999,-0.01898748
-1.378999,-0.01934001
-1.379999,-0.01969867
-1.380999,-0.02003588
-1.381999,-0.02039454
-1.382999,-0.02075013
-1.383999,-0.0210996
-1.384999,-0.02146133
-1.385999,-0.02181386
-1.386999,-0.02217252
-1.387999,-0.02254038
-1.388999,-0.02288984
-1.389999,-0.0232485
-1.390999,-0.02361023
-1.391999,-0.02396583
-1.392999,-0.02431836
-1.393999,-0.02468315
-1.394999,-0.02504488
-1.395999,-0.02540354
-1.396999,-0.02577446
-1.397999,-0.02613619
-1.398999,-0.02649485
-1.399999,-0.02686884
-1.400999,-0.02723056
-1.401999,-0.02759536
-1.402999,-0.02796935
-1.403999,-0.02833107
-1.404999,-0.02869586
-1.405999,-0.02906066
-1.406999,-0.02943158
-1.407999,-0.02979024
-1.408999,-0.03014584
-1.409999,-0.030623
-1.410999,-0.03099086
-1.411999,-0.03135872
-1.412999,-0.03172658
-1.413999,-0.03209443
-1.414999,-0.0324623
-1.415999,-0.03283015
-1.416999,-0.03322866
-1.417999,-0.03359652
-1.418999,-0.03393373
-1.419999,-0.03433224
-1.420999,-0.0347001
-1.421999,-0.03506796
-1.422999,-0.03546647
-1.423999,-0.03583432
-1.424999,-0.03620218
-1.425999,-0.03660069
-1.426999,-0.03696856
-1.427999,-0.03733641
-1.428999,-0.03770427
-1.429999,-0.03807213
-1.430999,-0.03843999
-1.431999,-0.03880784
-1.432999,-0.0391757
-1.433999,-0.03957421
-1.434999,-0.03994207
-1.435999,-0.04030993
-1.436999,-0.04067779
-1.437999,-0.0410763
-1.438999,-0.04144416
-1.439999,-0.04181201
-1.440999,-0.04221053
-1.441999,-0.04254773
-1.442999,-0.04294625
-1.443999,-0.04334476
-1.444999,-0.04371261
-1.445999,-0.04408047
-1.446999,-0.04444833
-1.447999,-0.04481619
-1.448999,-0.04518405
-1.449999,-0.04555191
-1.450999,-0.04591976
-1.451999,-0.04625697
-1.452999,-0.04662482
-1.453999,-0.04702334
-1.454999,-0.04736054
-1.455999,-0.0477284
-1.456999,-0.04812691
-1.457999,-0.04852542
-1.458999,-0.04886262
-1.459999,-0.04923048
-1.460999,-0.049629
-1.461999,-0.0499662
-1.462999,-0.05036471
-1.463999,-0.05073257
-1.464999,-0.05110043
-1.465999,-0.05149894
-1.466999,-0.0518668
-1.467999,-0.05223466
-1.468999,-0.05260251
-1.469999,-0.05297038
-1.470999,-0.05336889
-1.471999,-0.05373674
-1.472999,-0.05413526
-1.473999,-0.05450311
-1.474999,-0.05490163
-1.475999,-0.05526949
-1.476999,-0.055668
-1.477999,-0.05603585
-1.478999,-0.05640372
-1.479999,-0.05680222
-1.480999,-0.05717008
-1.481999,-0.05753794
-1.482999,-0.05796711
-1.483999,-0.05836562
-1.484999,-0.05873348
-1.485999,-0.05916265
-1.486999,-0.0595305
-1.487999,-0.05992902
-1.488999,-0.06032753
-1.489999,-0.06075669
-1.490999,-0.06112456
-1.491999,-0.06152307
-1.492999,-0.06192158
-1.493999,-0.06232009
-1.494999,-0.06271861
-1.495999,-0.06311712
-1.496999,-0.06351563
-1.497999,-0.0639448
-1.498999,-0.06431266
-1.499999,-0.06446593
-1.499001,-0.06409808
-1.498001,-0.06363826
-1.497001,-0.06323975
-1.496001,-0.06284123
-1.495001,-0.06241206
-1.494001,-0.06201354
-1.493001,-0.06161503
-1.492001,-0.06118587
-1.491001,-0.06075669
-1.490001,-0.06035819
-1.489001,-0.05995968
-1.488001,-0.05956116
-1.487001,-0.05913199
-1.486001,-0.05873348
-1.485001,-0.05830431
-1.484001,-0.0579058
-1.483001,-0.05750729
-1.482001,-0.05710877
-1.481001,-0.05667961
-1.480001,-0.0562811
-1.479001,-0.05588258
-1.478001,-0.05545342
-1.477001,-0.05502424
-1.476001,-0.05459508
-1.475001,-0.05419657
-1.474001,-0.05379805
-1.473001,-0.05339954
-1.472001,-0.05297038
-1.471001,-0.05260251
-1.470001,-0.05217335
-1.469001,-0.05177484
-1.468001,-0.05137632
-1.467001,-0.05094716
-1.466001,-0.05054864
-1.465001,-0.05015013
-1.464001,-0.04975162
-1.463001,-0.0493531
-1.462001,-0.04895459
-1.461001,-0.04852542
-1.460001,-0.04812691
-1.459001,-0.0477284
-1.458001,-0.04729923
-1.457001,-0.04693137
-1.456001,-0.04653286
-1.455001,-0.04607304
-1.454001,-0.04570518
-1.453001,-0.04527601
-1.452001,-0.04484684
-1.451001,-0.04447899
-1.450001,-0.04408047
-1.449001,-0.04368196
-1.448001,-0.0433141
-1.447001,-0.04288493
-1.446001,-0.04248642
-1.445001,-0.04208791
-1.444001,-0.04172005
-1.443001,-0.04132154
-1.442001,-0.04092303
-1.441001,-0.04052451
-1.440001,-0.040126
-1.439001,-0.03975814
-1.438001,-0.03932897
-1.437001,-0.03896112
-1.436001,-0.03856261
-1.435001,-0.03816409
-1.434001,-0.03779623
-1.433001,-0.03739772
-1.432001,-0.03702986
-1.431001,-0.03663135
-1.430001,-0.03626349
-1.429001,-0.03586498
-1.428001,-0.03549712
-1.427001,-0.03509861
-1.426001,-0.03473075
-1.425001,-0.03433224
-1.424001,-0.03396438
-1.423001,-0.03359652
-1.422001,-0.03319801
-1.421001,-0.03283015
-1.420001,-0.03243164
-1.419001,-0.03206378
-1.418001,-0.03169592
-1.417001,-0.03129741
-1.416001,-0.03092955
-1.415001,-0.03056169
-1.414001,-0.03019384
-1.413001,-0.02985664
-1.412001,-0.02948878
-1.411001,-0.02912092
-1.410001,-0.02875306
-1.409001,-0.0283852
-1.408001,-0.028048
-1.407001,-0.0277108
-1.406001,-0.02734294
-1.405001,-0.02697508
-1.404001,-0.02660722
-1.403001,-0.02623936
-1.402001,-0.02590216
-1.401001,-0.0255343
-1.400001,-0.0251971
-1.399001,-0.02482924
-1.398001,-0.02449204
-1.397001,-0.02415484
-1.396001,-0.02381763
-1.395001,-0.02348043
-1.394001,-0.02311257
-1.393001,-0.02277537
-1.392001,-0.02246882
-1.391001,-0.02210096
-1.390001,-0.02176376
-1.389001,-0.02145721
-1.388001,-0.02112001
-1.387001,-0.02081346
-1.386001,-0.02047626
-1.385001,-0.02013905
-1.384001,-0.0198325
-1.383001,-0.01952596
-1.382001,-0.01918875
-1.381001,-0.01888221
-1.380001,-0.01857566
-1.379001,-0.01826911
-1.378001,-0.01793191
-1.377001,-0.01765601
-1.376001,-0.01734946
-1.375001,-0.01704292
-1.374001,-0.01673637
-1.373001,-0.01646047
-1.372001,-0.01615393
-1.371001,-0.01597718
-1.370001,-0.01569209
-1.369001,-0.015407
-1.368001,-0.01513417
-1.367001,-0.01485215
-1.366001,-0.01458238
-1.365001,-0.01431569
-1.364001,-0.01404592
-1.363001,-0.01378536
-1.362001,-0.01352786
-1.361001,-0.01327036
-1.360001,-0.01302205
-1.359001,-0.01277068
-1.358001,-0.01251931
-1.357001,-0.01228327
-1.356001,-0.01204417
-1.355001,-0.01180506
-1.354001,-0.01157821
-1.353001,-0.0113483
-1.352001,-0.01112145
-1.351001,-0.01090074
-1.350001,-0.01068616
-1.349001,-0.01046851
-1.348001,-0.01026005
-1.347001,-0.01005467
-1.346001,-0.009852344
-1.345001,-0.009656153
-1.344001,-0.009450765
-1.343001,-0.009260706
-1.342001,-0.009073711
-1.341001,-0.008886717
-1.340001,-0.008705853
-1.339001,-0.008534187
-1.338001,-0.008356389
-1.337001,-0.008181657
-1.336001,-0.008019186
-1.335001,-0.00785365
-1.334001,-0.00769731
-1.333001,-0.007547101
-1.332001,-0.007393827
-1.331001,-0.007246684
-1.330001,-0.007105672
-1.329001,-0.006964659
-1.328001,-0.006829778
-1.327001,-0.006701028
-1.326001,-0.006566147
-1.325001,-0.006443528
-1.324001,-0.006320909
-1.323001,-0.006201354
-1.322001,-0.006094063
-1.321001,-0.00598064
-1.320001,-0.005870283
-1.319001,-0.005772187
-1.318001,-0.005671026
-1.317001,-0.0055668
-1.316001,-0.005474835
-1.315001,-0.00538287
-1.314001,-0.005290906
-1.313001,-0.005211203
-1.312001,-0.00512537
-1.311001,-0.005042602
-1.310001,-0.004972096
-1.309001,-0.004892393
-1.308001,-0.004821887
-1.307001,-0.004754446
-1.306001,-0.004683941
-1.305001,-0.0046165
-1.304001,-0.004558256
-1.303001,-0.004490815
-1.302001,-0.004435637
-1.301001,-0.004383523
-1.300001,-0.004319148
-1.299001,-0.004273166
-1.298001,-0.004221053
-1.297001,-0.004165874
-1.296001,-0.004122957
-1.295001,-0.004073909
-1.294001,-0.004024862
-1.293001,-0.003985011
-1.292001,-0.003942094
-1.291001,-0.003899177
-1.290001,-0.003862391
-1.289001,-0.003825605
-1.288001,-0.003779623
-1.287001,-0.003748968
-1.286001,-0.003712183
-1.285001,-0.003678462
-1.284001,-0.003647808
-1.283001,-0.003611021
-1.282001,-0.003580367
-1.281001,-0.003552777
-1.280001,-0.003522123
-1.279001,-0.003494533
-1.278001,-0.003470009
-1.277001,-0.003436289
-1.276001,-0.003414831
-1.275001,-0.003387242
-1.274001,-0.003359652
-1.273001,-0.003338194
-1.272001,-0.003316735
-1.271001,-0.003289146
-1.270001,-0.003273819
-1.269001,-0.003249295
-1.268001,-0.003224771
-1.267001,-0.003206378
-1.266001,-0.003184919
-1.265001,-0.003166527
-1.264001,-0.003148134
-1.263001,-0.003126675
-1.262001,-0.003111348
-1.261001,-0.003092955
-1.260001,-0.003071497
-1.259001,-0.003056169
-1.258001,-0.003040842
-1.257001,-0.003022449
-1.256001,-0.003004056
-1.255001,-0.002991794
-1.254001,-0.002973401
-1.253001,-0.002958074
-1.252001,-0.002948877
-1.251001,-0.002927419
-1.250001,-0.002918222
-1.249001,-0.002902895
-1.248001,-0.002887568
-1.247001,-0.002875306
-1.246001,-0.002859978
-1.245001,-0.002844651
-1.244001,-0.002835455
-1.243001,-0.002823193
-1.242001,-0.002807865
-1.241001,-0.002798669
-1.240001,-0.002783341
-1.239001,-0.00277108
-1.238001,-0.002758818
-1.237001,-0.002746556
-1.236001,-0.002734293
-1.235001,-0.002725097
-1.234001,-0.002712835
-1.233001,-0.002700574
-1.232001,-0.002694442
-1.231001,-0.002679115
-1.230001,-0.002666853
-1.229001,-0.002660722
-1.228001,-0.002645395
-1.227001,-0.002639264
-1.226001,-0.002630068
-1.225001,-0.00261474
-1.224001,-0.002608609
-1.223001,-0.002599412
-1.222001,-0.002587151
-1.221001,-0.002577954
-1.220001,-0.002568757
-1.219001,-0.002556496
-1.218001,-0.002550365
-1.217001,-0.002541168
-1.216001,-0.002531972
-1.215001,-0.002525841
-1.214001,-0.002510513
-1.213001,-0.002504382
-1.212001,-0.002495186
-1.211001,-0.002482924
-1.210001,-0.002476793
-1.209001,-0.002470662
-1.208001,-0.002461466
-1.207001,-0.002449204
-1.206001,-0.002443073
-1.205001,-0.002430811
-1.204001,-0.002421614
-1.203001,-0.002415484
-1.202001,-0.002406287
-1.201001,-0.002397091
-1.200001,-0.00239096
-1.199001,-0.002378698
-1.198001,-0.002372567
-1.197001,-0.00236337
-1.196001,-0.002354174
-1.195001,-0.002348043
-1.194001,-0.002338846
-1.193001,-0.00232965
-1.192001,-0.002323519
-1.191001,-0.002314323
-1.190001,-0.002305126
-1.189001,-0.002298995
-1.188001,-0.002292864
-1.187001,-0.002280602
-1.186001,-0.002274471
-1.185001,-0.00226834
-1.184001,-0.002259144
-1.183001,-0.002253013
-1.182001,-0.002243817
-1.181001,-0.00223462
-1.180001,-0.002228489
-1.179001,-0.002222358
-1.178001,-0.002210096
-1.177001,-0.002207031
-1.176001,-0.002194769
-1.175001,-0.002188638
-1.174001,-0.002182507
-1.173001,-0.00217331
-1.172001,-0.002164114
-1.171001,-0.002161048
-1.170001,-0.002151852
-1.169001,-0.002142655
-1.168001,-0.00213959
-1.167001,-0.002127328
-1.166001,-0.002121197
-1.165001,-0.002118132
-1.164001,-0.002102804
-1.163001,-0.002096673
-1.162001,-0.002093608
-1.161001,-0.002084411
-1.160001,-0.00207828
-1.159001,-0.002072149
-1.158001,-0.002059887
-1.157001,-0.002056822
-1.156001,-0.002050691
-1.155001,-0.002041495
-1.154001,-0.002035364
-1.153001,-0.002029233
-1.152001,-0.002020036
-1.151001,-0.002013905
-1.150001,-0.002007774
-1.149001,-0.001998578
-1.148001,-0.001992447
-1.147001,-0.001989381
-1.146001,-0.00197712
-1.145001,-0.001970988
-1.144001,-0.001964858
-1.143001,-0.001955661
-1.142001,-0.001952596
-1.141001,-0.001946465
-1.140001,-0.001937268
-1.139001,-0.001931137
-1.138001,-0.001925006
-1.137001,-0.00191581
-1.136001,-0.001912744
-1.135001,-0.001903548
-1.134001,-0.001894351
-1.133001,-0.001891286
-1.132001,-0.001885155
-1.131001,-0.001875959
-1.130001,-0.001872893
-1.129001,-0.001866762
-1.128001,-0.001857566
-1.127001,-0.001851435
-1.126001,-0.001842238
-1.125001,-0.001836107
-1.124001,-0.001833042
-1.123001,-0.001823845
-1.122001,-0.00182078
-1.121001,-0.001817714
-1.120001,-0.001805453
-1.119001,-0.001802387
-1.118001,-0.001796256
-1.117001,-0.00178706
-1.116001,-0.001780929
-1.115001,-0.001777863
-1.114001,-0.001768667
-1.113001,-0.001762536
-1.112001,-0.00175947
-1.111001,-0.001750274
-1.110001,-0.001747208
-1.109001,-0.001741077
-1.108001,-0.001731881
-1.107001,-0.001728815
-1.106001,-0.001719619
-1.105001,-0.001710422
-1.104001,-0.001710422
-1.103001,-0.001701226
-1.102001,-0.001695095
-1.101001,-0.00169203
-1.100001,-0.001679768
-1.099001,-0.001676702
-1.098001,-0.001673637
-1.097001,-0.001661375
-1.096001,-0.001658309
-1.095001,-0.001655244
-1.094001,-0.001642982
-1.093001,-0.001642982
-1.092001,-0.001633785
-1.091001,-0.001624589
-1.090001,-0.001621523
-1.089001,-0.001615393
-1.088001,-0.001606196
-1.087001,-0.001639715
-1.086001,-0.001632051
-1.085001,-0.001625307
-1.084001,-0.001620403
-1.083001,-0.001611819
-1.082001,-0.001607834
-1.081001,-0.001602623
-1.080001,-0.001594653
-1.079001,-0.001589135
-1.078001,-0.00158331
-1.077001,-0.00157626
-1.076001,-0.001571968
-1.075001,-0.001566143
-1.074001,-0.001555108
-1.073001,-0.001551429
-1.072001,-0.001546218
-1.071001,-0.001538248
-1.070001,-0.001531197
-1.069001,-0.001528132
-1.068001,-0.001516789
-1.067001,-0.001513111
-1.066001,-0.001508512
-1.065001,-0.00149717
-1.064001,-0.001492572
-1.063001,-0.0014892
-1.062001,-0.001478164
-1.061001,-0.001473566
-1.060001,-0.0014705
-1.059001,-0.001460078
-1.058001,-0.001454866
-1.057001,-0.001449655
-1.056001,-0.001440765
-1.055001,-0.001434328
-1.054001,-0.001430343
-1.053001,-0.001421453
-1.052001,-0.001415935
-1.051001,-0.001409804
-1.050001,-0.001399688
-1.049001,-0.001396622
-1.048001,-0.001387119
-1.047001,-0.001380988
-1.046001,-0.00137547
-1.045001,-0.001366887
-1.044001,-0.00135861
-1.043001,-0.001352173
-1.042001,-0.001346348
-1.041001,-0.001338685
-1.040001,-0.001330714
-1.039001,-0.001323357
-1.038001,-0.001318453
-1.037001,-0.001309869
-1.036001,-0.001302205
-1.035001,-0.001296994
-1.034001,-0.001286265
-1.033001,-0.001283506
-1.032001,-0.001276762
-1.031001,-0.001266033
-1.030001,-0.001259289
-1.029001,-0.001255917
-1.028001,-0.001243961
-1.027001,-0.00123875
-1.026001,-0.001232619
-1.025001,-0.001222503
-1.024001,-0.001214839
-1.023001,-0.001209934
-1.022001,-0.001199818
-1.021001,-0.001192155
-1.020001,-0.001186637
-1.019001,-0.001177747
-1.018001,-0.001170083
-1.017001,-0.001163952
-1.016001,-0.001155062
-1.015001,-0.001147398
-1.014001,-0.001140041
-1.013001,-0.001132071
-1.012001,-0.001123488
-1.011001,-0.001116437
-1.010001,-0.001108774
-1.009001,-0.001101416
-1.008001,-0.001094979
-1.007001,-0.001083637
-1.006001,-0.001079345
-1.005001,-0.001069535
-1.004001,-0.001060032
-1.003001,-0.001054514
-1.002001,-0.001046238
-1.001001,-0.001036122
-1.000001,-0.00103091
-0.9990008,-0.001021407
-0.9980009,-0.001011598
-0.9970009,-0.00100516
-0.9960009,-0.0009984161
-0.9950009,-0.0009876869
-0.9940009,-0.0009818624
-0.9930009,-0.0009729725
-0.9920009,-0.0009628565
-0.9910009,-0.0009561123
-0.9900008,-0.0009472225
-0.9890009,-0.0009377195
-0.9880009,-0.0009306689
-0.9870009,-0.0009214724
-0.9860009,-0.0009110498
-0.9850008,-0.0009046123
-0.9840009,-0.0008954158
-0.9830009,-0.0008862194
-0.9820009,-0.0008794753
-0.9810008,-0.0008699723
-0.9800009,-0.0008595497
-0.9790009,-0.0008528056
-0.9780009,-0.0008414634
-0.9770009,-0.0008334931
-0.9760008,-0.0008261359
-0.9750009,-0.0008157133
-0.9740009,-0.00080713
-0.9730009,-0.0007994662
-0.9720009,-0.0007859781
-0.9710009,-0.0007795406
-0.9700009,-0.0007706507
-0.9690009,-0.0007583887
-0.9680009,-0.000750725
-0.9670008,-0.0007436744
-0.9660009,-0.0007301863
-0.9650009,-0.0007237488
-0.9640009,-0.0007117934
-0.9630009,-0.0007007577
-0.9620008,-0.0006937071
-0.9610009,-0.0006808321
-0.9600009,-0.000671329
-0.9590009,-0.0006624392
-0.9580009,-0.0006507903
-0.9570009,-0.0006412873
-0.9560009,-0.0006296384
-0.9550009,-0.0006189093
-0.9540009,-0.0006094063
-0.9530008,-0.0005974509
-0.9520009,-0.0005867218
-0.9510009,-0.0005769122
-0.9500009,-0.0005646503
-0.9490009,-0.0005536145
-0.9480008,-0.0005416591
-0.9470009,-0.0005330758
-0.9460009,-0.0005195877
-0.9450009,-0.0005085519
-0.9440009,-0.00049629
-0.9430009,-0.0004858673
-0.9420009,-0.0004732989
-0.9410009,-0.0004613435
-0.9400009,-0.0004490816
-0.9390008,-0.0004377393
-0.9380009,-0.0004251708
-0.9370009,-0.0004147482
-0.9360009,-0.0004015666
-0.9350009,-0.0003880784
-0.9340008,-0.0003767362
-0.9330009,-0.0003657004
-0.9320009,-0.0003509861
-0.9310009,-0.0003402569
-0.9300008,-0.0003301408
-0.9290009,-0.0003132806
-0.9280009,-0.0003037777
-0.9270009,-0.0002921289
-0.9260009,-0.0002777211
-0.9250008,-0.0002660722
-0.9240009,-0.0002528907
-0.9230009,-0.0002409353
-0.9220009,-0.0002283668
-0.9210009,-0.0002148787
-0.9200009,-0.0002038429
-0.9190009,-0.000191581
-0.9180009,-0.0001783994
-0.9170009,-0.0001685899
-0.9160008,-0.0001551017
-0.9150009,-0.0001425333
-0.9140009,-0.0001324172
-0.9130009,-0.0001225568
-0.9120009,-0.000111
-0.9110008,-0.0001022327
-0.9100009,-9.082907E-05
-0.9090009,-7.743292E-05
-0.9080009,-6.976922E-05
-0.9070009,-5.870283E-05
-0.9060009,-4.895459E-05
-0.9050009,-3.966617E-05
-0.9040009,-2.979532E-05
-0.9030009,-2.01084E-05
-0.9020008,-1.192356E-05
-0.9010009,-3.86134E-06
-0.9000009,5.611E-06
-0.8990009,1.250834E-05
-0.8980009,1.931371E-05
-0.8970008,2.838754E-05
-0.8960009,3.378278E-05
-0.8950009,4.068012E-05
-0.8940009,4.84971E-05
-0.8930008,5.300336E-05
-0.8920009,6.128017E-05
-0.8910009,6.719655E-05
-0.8900009,7.200935E-05
-0.8890009,7.810966E-05
-0.8880008,8.433259E-05
-0.8870009,8.991177E-05
-0.8860009,9.598142E-05
-0.8850009,0.0001016526
-0.8840009,0.0001064041
-0.8830009,0.0001134547
-0.8820009,0.0001183288
-0.8810009,0.0001240612
-0.8800009,0.0001303761
-0.8790008,0.0001355568
-0.8780009,0.0001408294
-0.8770009,0.0001473896
-0.8760009,0.0001526315
-0.8750009,0.0001587932
-0.8740008,0.0001646176
-0.8730009,0.0001698902
-0.8720009,0.0001759292
-0.8710009,0.0001821828
-0.8700009,0.0001884057
-0.8690009,0.0001949965
-0.8680009,0.0002013421
-0.8670009,0.000207565
-0.8660009,0.0002147689
-0.8650008,0.0002211144
-0.8640009,0.0002281037
-0.8630009,0.0002370243
-0.8620009,0.0002441668
-0.8610009,0.0002510642
-0.8600008,0.0002615788
-0.8590009,0.0002677711
-0.8580009,0.0002762011
-0.8570009,0.0002884324
-0.8560008,0.0002988963
-0.8550009,0.0003087058
-0.8540009,0.0003197415
-0.8530009,0.0003295511
-0.8520009,0.000341813
-0.8510008,0.0003534619
-0.8500009,0.0003644976
-0.8490009,0.0003782923
-0.8480009,0.0003905542
-0.8470009,0.0004040423
-0.8460009,0.0004196763
-0.8450009,0.0004328578
-0.8440009,0.0004491049
-0.8430009,0.0004662716
-0.8420008,0.0004819056
-0.8410009,0.0004990723
-0.8400009,0.0005177717
-0.8390009,0.000535858
-0.8380009,0.0005570099
-0.8370008,0.0005757093
-0.8360009,0.0005962481
-0.8350009,0.0006183196
-0.8340009,0.000640391
-0.8330009,0.0006624625
-0.8320009,0.0006875995
-0.8310009,0.000710284
-0.8300009,0.000735421
-0.8290009,0.0007608645
-0.8280008,0.0007872276
-0.8270009,0.0008132842
-0.8260009,0.0008417932
-0.8250009,0.0008693826
-0.8240009,0.000897585
-0.8230008,0.0009279333
-0.8220009,0.0009567488
-0.8210009,0.000986484
-0.8200009,0.001019285
-0.8190009,0.001051779
-0.8180009,0.001083047
-0.8170009,0.001115847
-0.8160009,0.001147422
-0.8150009,0.001181755
-0.8140008,0.001215169
-0.8130009,0.001248583
-0.8120009,0.001283836
-0.8110009,0.001317556
-0.8100009,0.00135189
-0.8090008,0.001387756
-0.8080009,0.001422089
-0.8070009,0.001457649
-0.8060009,0.001494128
-0.8050008,0.001529074
-0.8040009,0.001565247
-0.8030009,0.001602033
-0.8020009,0.00163606
-0.8010009,0.001673459
-0.8000008,0.001645869
-0.8009992,0.001551759
-0.8019992,0.001470524
-0.8029991,0.001395113
-0.8039991,0.001320928
-0.8049992,0.001253181
-0.8059992,0.001186047
-0.8069991,0.001121672
-0.8079991,0.001061282
-0.8089992,0.001001198
-0.8099992,0.0009438738
-0.8109992,0.0008896147
-0.8119991,0.0008350492
-0.8129991,0.0007832425
-0.8139992,0.0007341948
-0.8149992,0.0006842274
-0.8159992,0.0006376321
-0.8169991,0.0005922629
-0.8179991,0.0005475069
-0.8189992,0.0005027509
-0.8199992,0.0004613668
-0.8209991,0.0004205959
-0.8219991,0.0003804381
-0.8229992,0.0003436523
-0.8239992,0.0003047207
-0.8249992,0.0002688545
-0.8259991,0.0002342146
-0.8269991,0.000199268
-0.8279992,0.0001655477
-0.8289992,0.0001345864
-0.8299991,0.0001014792
-0.8309991,6.750309E-05
-0.8319992,3.79825E-05
-0.8329992,7.634219E-06
-0.8339992,-1.986316E-05
-0.8349991,-4.647155E-05
-0.8359991,-7.528708E-05
-0.8369992,-0.0001000562
-0.8379992,-0.000126358
-0.8389992,-0.0001519241
-0.8399991,-0.0001747314
-0.8409991,-0.0001993165
-0.8419992,-0.0002219398
-0.8429992,-0.0002438273
-0.8439991,-0.0002665425
-0.8449991,-0.0002876024
-0.8459992,-0.0003034711
-0.8469992,-0.0003249295
-0.8479992,-0.0003445486
-0.8489991,-0.0003626349
-0.8499991,-0.0003813344
-0.8509992,-0.0003997273
-0.8519992,-0.000416894
-0.8529992,-0.0004346738
-0.8539991,-0.0004515339
-0.8549991,-0.0004665548
-0.8559992,-0.0004834149
-0.8569992,-0.0004993554
-0.8579991,-0.0005137632
-0.8589991,-0.0005284776
-0.8599992,-0.0005431919
-0.8609992,-0.0005560669
-0.8619992,-0.0005698616
-0.8629991,-0.0005839628
-0.8639991,-0.0005953051
-0.8649992,-0.0006094063
-0.8659992,-0.0006213617
-0.8669991,-0.000632704
-0.8679991,-0.0006449659
-0.8689992,-0.0006560017
-0.8699992,-0.0006664242
-0.8709992,-0.00067746
-0.8719991,-0.0006884958
-0.8729991,-0.0006979987
-0.8739992,-0.0007090345
-0.8749992,-0.0007176179
-0.8759992,-0.0007286536
-0.8769991,-0.00073785
-0.8779991,-0.0007470464
-0.8789992,-0.0007553233
-0.8799992,-0.0007660525
-0.8809991,-0.0007731031
-0.8819991,-0.000782606
-0.8829992,-0.0007911894
-0.8839992,-0.0007991597
-0.8849992,-0.0008065169
-0.8859991,-0.0008157133
-0.8869991,-0.0008227639
-0.8879992,-0.0008304276
-0.8889992,-0.0008390109
-0.8899992,-0.0008454485
-0.8909991,-0.000852499
-0.8919991,-0.0008610824
-0.8929992,-0.0008675199
-0.8939992,-0.0008733444
-0.8949991,-0.0008816211
-0.8959991,-0.0008880587
-0.8969992,-0.0008951093
-0.8979992,-0.0009018534
-0.8989992,-0.0009082909
-0.8999991,-0.000915648
-0.9009991,-0.0009220855
-0.9019992,-0.0009276034
-0.9029992,-0.0009349606
-0.9039991,-0.0009404784
-0.9049991,-0.0009469159
-0.9059991,-0.0009533535
-0.9069992,-0.0009600975
-0.9079992,-0.0009656154
-0.9089991,-0.0009723594
-0.9099991,-0.000978797
-0.9109992,-0.0009843148
-0.9119992,-0.0009901392
-0.9129992,-0.0009971899
-0.9139991,-0.001001482
-0.9149991,-0.001008226
-0.9159992,-0.001014357
-0.9169992,-0.001019261
-0.9179991,-0.001026619
-0.9189991,-0.001032443
-0.9199992,-0.001036735
-0.9209992,-0.001044705
-0.9219992,-0.001050836
-0.9229991,-0.001055741
-0.9239991,-0.001062178
-0.9249992,-0.00106647
-0.9259992,-0.001075053
-0.9269992,-0.001079958
-0.9279991,-0.00108425
-0.9289991,-0.001091607
-0.9299992,-0.001097431
-0.9309992,-0.001101416
-0.9319991,-0.001110306
-0.9329991,-0.001114904
-0.9339992,-0.001120729
-0.9349992,-0.001129006
-0.9359992,-0.001133604
-0.9369991,-0.001138815
-0.9379991,-0.001147705
-0.9389992,-0.001152303
-0.9399992,-0.001157821
-0.9409992,-0.001165178
-0.9419991,-0.001171616
-0.9429991,-0.001176827
-0.9439992,-0.001184184
-0.9449992,-0.001188783
-0.9459991,-0.001196446
-0.9469991,-0.00120411
-0.9479992,-0.001208708
-0.9489992,-0.001216985
-0.9499992,-0.001224955
-0.9509991,-0.001229247
-0.9519991,-0.001237524
-0.9529992,-0.001244574
-0.9539992,-0.001249173
-0.9549991,-0.001257756
-0.9559991,-0.001265113
-0.9569992,-0.001270324
-0.9579992,-0.001278908
-0.9589992,-0.001286265
-0.9599991,-0.001291476
-0.9609991,-0.001301899
-0.9619992,-0.001308643
-0.9629992,-0.001316
-0.9639992,-0.00132581
-0.9649991,-0.001329795
-0.9659991,-0.001339604
-0.9669992,-0.001347881
-0.9679992,-0.001353092
-0.9689991,-0.001363515
-0.9699991,-0.001373018
-0.9709992,-0.001378536
-0.9719992,-0.001390185
-0.9729992,-0.001397542
-0.9739991,-0.001405206
-0.9749991,-0.001416855
-0.9759992,-0.001424212
-0.9769992,-0.001432795
-0.9779992,-0.00144475
-0.9789991,-0.00145364
-0.9799991,-0.001462224
-0.9809992,-0.001472646
-0.9819992,-0.001482456
-0.9829991,-0.001490733
-0.9839991,-0.001501768
-0.9849992,-0.001513417
-0.9859992,-0.001522001
-0.9869992,-0.001534262
-0.9879991,-0.001544685
-0.9889991,-0.001554495
-0.9899992,-0.001567063
-0.9909992,-0.001577179
-0.9919991,-0.001588522
-0.9929991,-0.001600477
-0.9939992,-0.001611819
-0.9949992,-0.001623775
-0.9959992,-0.001636343
-0.9969991,-0.001646153
-0.9979991,-0.001659334
-0.9989992,-0.001673435
-0.9999992,-0.001682019
-1.000999,-0.001696427
-1.001999,-0.001711447
-1.002999,-0.001719418
-1.003999,-0.001734438
-1.004999,-0.001747314
-1.005999,-0.001756203
-1.006999,-0.001774596
-1.007999,-0.001785325
-1.008999,-0.001796668
-1.009999,-0.001811995
-1.010999,-0.001824257
-1.011999,-0.001836519
-1.012999,-0.001850314
-1.013999,-0.001863189
-1.014999,-0.001876064
-1.015999,-0.001888326
-1.016999,-0.001900281
-1.017999,-0.001914076
-1.018999,-0.001925418
-1.019999,-0.001938906
-1.020999,-0.001952394
-1.021999,-0.001961591
-1.022999,-0.001974772
-1.023999,-0.001989793
-1.024999,-0.001999603
-1.025999,-0.002010638
-1.026999,-0.0020229
-1.027999,-0.002033017
-1.028999,-0.002043132
-1.029999,-0.002056927
-1.030999,-0.002066124
-1.031999,-0.002074094
-1.032999,-0.002088195
-1.033999,-0.002094939
-1.034999,-0.002102909
-1.035999,-0.002115478
-1.036999,-0.002123142
-1.037999,-0.002129579
-1.038999,-0.002140615
-1.039999,-0.002143067
-1.040999,-0.002155023
-1.041999,-0.002162687
-1.042999,-0.002164526
-1.043999,-0.002174948
-1.044999,-0.002182305
-1.045999,-0.002184145
-1.046999,-0.002193954
-1.047999,-0.002198552
-1.048999,-0.002199779
-1.049999,-0.002208362
-1.050999,-0.002211734
-1.051999,-0.002212041
-1.052999,-0.002218478
-1.053999,-0.002220931
-1.054999,-0.002224303
-1.055999,-0.002228901
-1.056999,-0.002230127
-1.057999,-0.002228594
-1.058999,-0.002235645
-1.059999,-0.002232886
-1.060999,-0.002234725
-1.061999,-0.002238097
-1.062999,-0.002235951
-1.063999,-0.002234419
-1.064999,-0.00223871
-1.065999,-0.002234725
-1.066999,-0.002236258
-1.067999,-0.002236871
-1.068999,-0.002231353
-1.069999,-0.002232886
-1.070999,-0.002233499
-1.071999,-0.002228594
-1.072999,-0.002231047
-1.073999,-0.002230434
-1.074999,-0.002222157
-1.075999,-0.002227981
-1.076999,-0.002223077
-1.077999,-0.002216945
-1.078999,-0.002220317
-1.079999,-0.002217865
-1.080999,-0.002213267
-1.081999,-0.002216026
-1.082999,-0.002211734
-1.083999,-0.002208975
-1.084999,-0.002209588
-1.085999,-0.002205603
-1.086999,-0.00220591
-1.087999,-0.002207749
-1.088999,-0.00220407
-1.089999,-0.002201005
-1.090999,-0.002202844
-1.091999,-0.002200085
-1.092999,-0.002203457
-1.093999,-0.002203457
-1.094999,-0.002198859
-1.095999,-0.002199779
-1.096999,-0.002201924
-1.097999,-0.002200085
-1.098999,-0.002200698
-1.099999,-0.002203151
-1.100999,-0.002201312
-1.101999,-0.002203151
-1.102999,-0.002205603
-1.103999,-0.00220407
-1.104999,-0.00220499
-1.105999,-0.002210508
-1.106999,-0.002207136
-1.107999,-0.002210814
-1.108999,-0.002217865
-1.109999,-0.002210508
-1.110999,-0.002220011
-1.111999,-0.002221237
-1.112999,-0.002220011
-1.113999,-0.002226755
-1.114999,-0.002227675
-1.115999,-0.002227061
-1.116999,-0.002234419
-1.117999,-0.002236564
-1.118999,-0.002237484
-1.119999,-0.002240243
-1.120999,-0.002246987
-1.121999,-0.002245148
-1.122999,-0.002250053
-1.123999,-0.002258023
-1.124999,-0.002254651
-1.125999,-0.002262928
-1.126999,-0.002267219
-1.127999,-0.002267832
-1.128999,-0.00227519
-1.129999,-0.002275803
-1.130999,-0.002282547
-1.131999,-0.002286838
-1.132999,-0.002290823
-1.133999,-0.002296341
-1.134999,-0.002300326
-1.135999,-0.002304925
-1.136999,-0.002311669
-1.137999,-0.002313508
-1.138999,-0.002319946
-1.139999,-0.002327609
-1.140999,-0.002329448
-1.141999,-0.002335273
-1.142999,-0.002342017
-1.143999,-0.002343243
-1.144999,-0.002354279
-1.145999,-0.002360103
-1.146999,-0.002360716
-1.147999,-0.002369913
-1.148999,-0.002376657
-1.149999,-0.00237819
-1.150999,-0.002387386
-1.151999,-0.002392904
-1.152999,-0.002396889
-1.153999,-0.002405779
-1.154999,-0.002411603
-1.155999,-0.002414976
-1.156999,-0.002423252
-1.157999,-0.002432449
-1.158999,-0.002435208
-1.159999,-0.002442565
-1.160999,-0.002452375
-1.161999,-0.002455747
-1.162999,-0.002464023
-1.163999,-0.002473833
-1.164999,-0.00247322
-1.165999,-0.002488854
-1.166999,-0.002492226
-1.167999,-0.002497437
-1.168999,-0.002508166
-1.169999,-0.002513071
-1.170999,-0.00251675
-1.171999,-0.002529012
-1.172999,-0.00253269
-1.173999,-0.00254066
-1.174999,-0.00255047
-1.175999,-0.002555375
-1.176999,-0.002562425
-1.177999,-0.002573155
-1.178999,-0.00257622
-1.179999,-0.002584497
-1.180999,-0.00259308
-1.181999,-0.002600131
-1.182999,-0.002607794
-1.183999,-0.002616378
-1.184999,-0.002621896
-1.185999,-0.002635384
-1.186999,-0.002637223
-1.187999,-0.002646726
-1.188999,-0.002655922
-1.189999,-0.002659601
-1.190999,-0.00267125
-1.191999,-0.002678607
-1.192999,-0.002681673
-1.193999,-0.002693015
-1.194999,-0.002701598
-1.195999,-0.002703437
-1.196999,-0.002713554
-1.197999,-0.002721831
-1.198999,-0.002726429
-1.199999,-0.002733173
-1.200999,-0.002743902
-1.201999,-0.0027485
-1.202999,-0.002753711
-1.203999,-0.002766586
-1.204999,-0.002769652
-1.205999,-0.002771798
-1.206999,-0.002787432
-1.207999,-0.002790497
-1.208999,-0.002796628
-1.209999,-0.002806131
-1.210999,-0.002815021
-1.211999,-0.002819313
-1.212999,-0.002826976
-1.213999,-0.002835866
-1.214999,-0.002841691
-1.215999,-0.002847209
-1.216999,-0.002857631
-1.217999,-0.002862843
-1.218999,-0.002871733
-1.219999,-0.002876637
-1.220999,-0.002885527
-1.221999,-0.002893191
-1.222999,-0.002898709
-1.223999,-0.002906373
-1.224999,-0.00291189
-1.225999,-0.002921393
-1.226999,-0.002929057
-1.227999,-0.002936108
-1.228999,-0.002947756
-1.229999,-0.002951435
-1.230999,-0.002960938
-1.231999,-0.002969828
-1.232999,-0.002975959
-1.233999,-0.002983929
-1.234999,-0.002994045
-1.235999,-0.003001096
-1.236999,-0.002970336
-1.237999,-0.002982598
-1.238999,-0.002988729
-1.239999,-0.002997925
-1.240999,-0.003010187
-1.241999,-0.003010187
-1.242999,-0.003025514
-1.243999,-0.003034711
-1.244999,-0.003040842
-1.245999,-0.003053104
-1.246999,-0.003065366
-1.247999,-0.003068431
-1.248999,-0.003083759
-1.249999,-0.003092955
-1.250999,-0.003099086
-1.251999,-0.003111348
-1.252999,-0.003126675
-1.253999,-0.003132806
-1.254999,-0.003145068
-1.255999,-0.003160396
-1.256999,-0.003169592
-1.257999,-0.003184919
-1.258999,-0.003191051
-1.259999,-0.003209443
-1.260999,-0.00321864
-1.261999,-0.003230902
-1.262999,-0.003249295
-1.263999,-0.003264622
-1.264999,-0.003273819
-1.265999,-0.003295277
-1.266999,-0.003307539
-1.267999,-0.003322866
-1.268999,-0.003344325
-1.269999,-0.003359652
-1.270999,-0.003374979
-1.271999,-0.003393373
-1.272999,-0.003414831
-1.273999,-0.003433224
-1.274999,-0.003448551
-1.275999,-0.003479206
-1.276999,-0.003494533
-1.277999,-0.003515992
-1.278999,-0.003543581
-1.279999,-0.003561974
-1.280999,-0.003589563
-1.281999,-0.003614087
-1.282999,-0.003641677
-1.283999,-0.003672331
-1.284999,-0.003696855
-1.285999,-0.00372751
-1.286999,-0.00376123
-1.287999,-0.00378882
-1.288999,-0.003828671
-1.289999,-0.003859326
-1.290999,-0.003893046
-1.291999,-0.003932897
-1.292999,-0.003972749
-1.293999,-0.004009534
-1.294999,-0.004055517
-1.295999,-0.004098434
-1.296999,-0.004144416
-1.297999,-0.004193463
-1.298999,-0.004239446
-1.299999,-0.004291559
-1.300999,-0.004346738
-1.301999,-0.004401916
-1.302999,-0.00446016
-1.303999,-0.00452147
-1.304999,-0.004582779
-1.305999,-0.004647155
-1.306999,-0.004717661
-1.307999,-0.004788167
-1.308999,-0.004861739
-1.309999,-0.004941441
-1.310999,-0.005021143
-1.311999,-0.005100846
-1.312999,-0.005189745
-1.313999,-0.005275579
-1.314999,-0.005370609
-1.315999,-0.005468704
-1.316999,-0.0055668
-1.317999,-0.005671026
-1.318999,-0.005778318
-1.319999,-0.005888675
-1.320999,-0.006002098
-1.321999,-0.006124718
-1.322999,-0.006244271
-1.323999,-0.006373021
-1.324999,-0.006504837
-1.325999,-0.006642784
-1.326999,-0.006780731
-1.327999,-0.006927874
-1.328999,-0.007078082
-1.329999,-0.007231356
-1.330999,-0.007393827
-1.331999,-0.007556298
-1.332999,-0.007724899
-1.333999,-0.007902697
-1.334999,-0.008080496
-1.335999,-0.008264424
-1.336999,-0.00845755
-1.337999,-0.008650675
-1.338999,-0.008849931
-1.339999,-0.009055318
-1.340999,-0.009260706
-1.341999,-0.00947529
-1.342999,-0.009696005
-1.343999,-0.00992285
-1.344999,-0.01015889
-1.345999,-0.01039187
-1.346999,-0.01063404
-1.347999,-0.01088235
-1.348999,-0.01113065
-1.349999,-0.01138202
-1.350999,-0.01164565
-1.351999,-0.01190622
-1.352999,-0.01217598
-1.353999,-0.01245187
-1.354999,-0.01272164
-1.355999,-0.01300673
-1.356999,-0.01329488
-1.357999,-0.01357691
-1.358999,-0.01387119
-1.359999,-0.01416548
-1.360999,-0.01446283
-1.361999,-0.01476631
-1.362999,-0.01508206
-1.363999,-0.01538248
-1.364999,-0.01570128
-1.365999,-0.01602623
-1.366999,-0.01633584
-1.367999,-0.01666385
-1.368999,-0.01699185
-1.369999,-0.01731066
-1.370999,-0.01764787
-1.371999,-0.01797587
-1.372999,-0.01830081
-1.373999,-0.01864415
-1.374999,-0.01898442
-1.375999,-0.01931549
-1.376999,-0.01966189
-1.377999,-0.02000829
-1.378999,-0.02033629
-1.379999,-0.02068576
-1.380999,-0.02103522
-1.381999,-0.02137243
-1.382999,-0.02171883
-1.383999,-0.02208668
-1.384999,-0.02243002
-1.385999,-0.02277335
-1.386999,-0.02313201
-1.387999,-0.02348148
-1.388999,-0.02382481
-1.389999,-0.02418041
-1.390999,-0.02454214
-1.391999,-0.02488854
-1.392999,-0.02525333
-1.393999,-0.02561506
-1.394999,-0.02596452
-1.395999,-0.02631398
-1.396999,-0.02667265
-1.397999,-0.02701598
-1.398999,-0.02737464
-1.399999,-0.02774557
-1.400999,-0.0280981
-1.401999,-0.02846289
-1.402999,-0.02883381
-1.403999,-0.02918634
-1.404999,-0.02955113
-1.405999,-0.02991286
-1.406999,-0.03026233
-1.407999,-0.03074562
-1.408999,-0.03108283
-1.409999,-0.03145069
-1.410999,-0.03181854
-1.411999,-0.0321864
-1.412999,-0.03255426
-1.413999,-0.03292212
-1.414999,-0.03328998
-1.415999,-0.03365783
-1.416999,-0.03405635
-1.417999,-0.0344242
-1.418999,-0.03476141
-1.419999,-0.03515992
-1.420999,-0.03549712
-1.421999,-0.03589563
-1.422999,-0.03626349
-1.423999,-0.03660069
-1.424999,-0.03699921
-1.425999,-0.03736707
-1.426999,-0.03773492
-1.427999,-0.03813344
-1.428999,-0.03847064
-1.429999,-0.0388385
-1.430999,-0.03920636
-1.431999,-0.03957421
-1.432999,-0.03997273
-1.433999,-0.04034058
-1.434999,-0.04070844
-1.435999,-0.0410763
-1.436999,-0.04147482
-1.437999,-0.04184267
-1.438999,-0.04221053
-1.439999,-0.04260904
-1.440999,-0.0429769
-1.441999,-0.04334476
-1.442999,-0.04371261
-1.443999,-0.04408047
-1.444999,-0.04444833
-1.445999,-0.04484684
-1.446999,-0.0452147
-1.447999,-0.04558256
-1.448999,-0.04595042
-1.449999,-0.04631827
-1.450999,-0.04668614
-1.451999,-0.04705399
-1.452999,-0.04742185
-1.453999,-0.04782036
-1.454999,-0.04815757
-1.455999,-0.04852542
-1.456999,-0.04892394
-1.457999,-0.04929179
-1.458999,-0.04965965
-1.459999,-0.05002751
-1.460999,-0.05036471
-1.461999,-0.05073257
-1.462999,-0.05113108
-1.463999,-0.05149894
-1.464999,-0.0518668
-1.465999,-0.05226531
-1.466999,-0.05263317
-1.467999,-0.05300103
-1.468999,-0.05339954
-1.469999,-0.05373674
-1.470999,-0.05413526
-1.471999,-0.05450311
-1.472999,-0.05487097
-1.473999,-0.05523883
-1.474999,-0.055668
-1.475999,-0.05603585
-1.476999,-0.05643437
-1.477999,-0.05683288
-1.478999,-0.05720074
-1.479999,-0.05759925
-1.480999,-0.05799776
-1.481999,-0.05836562
-1.482999,-0.05876414
-1.483999,-0.05916265
-1.484999,-0.0595305
-1.485999,-0.05992902
-1.486999,-0.06029687
-1.487999,-0.06072604
-1.488999,-0.06112456
-1.489999,-0.06149241
-1.490999,-0.06189093
-1.491999,-0.06232009
-1.492999,-0.06268796
-1.493999,-0.06311712
-1.494999,-0.06354629
-1.495999,-0.06391414
-1.496999,-0.06434331
-1.497999,-0.06477248
-1.498999,-0.06514034
-1.499999,-0.06526296
-1.499001,-0.0648951
-1.498001,-0.06446593
-1.497001,-0.06403676
-1.496001,-0.06363826
-1.495001,-0.06320909
-1.494001,-0.06281057
-1.493001,-0.06241206
-1.492001,-0.06195223
-1.491001,-0.06155372
-1.490001,-0.06115521
-1.489001,-0.06072604
-1.488001,-0.06035819
-1.487001,-0.05992902
-1.486001,-0.05949985
-1.485001,-0.05910134
-1.484001,-0.05867217
-1.483001,-0.058243
-1.482001,-0.05784449
-1.481001,-0.05744598
-1.480001,-0.05698615
-1.479001,-0.05658764
-1.478001,-0.05618913
-1.477001,-0.05575996
-1.476001,-0.05533079
-1.475001,-0.05493228
-1.474001,-0.05453377
-1.473001,-0.0541046
-1.472001,-0.05370609
-1.471001,-0.05327692
-1.470001,-0.05284775
-1.469001,-0.05244924
-1.468001,-0.05202007
-1.467001,-0.05165222
-1.466001,-0.05122305
-1.465001,-0.05079388
-1.464001,-0.05042602
-1.463001,-0.04999685
-1.462001,-0.04956769
-1.461001,-0.04916918
-1.460001,-0.04877066
-1.459001,-0.04834149
-1.458001,-0.04797364
-1.457001,-0.04754447
-1.456001,-0.04714596
-1.455001,-0.04671679
-1.454001,-0.04631827
-1.453001,-0.04591976
-1.452001,-0.04552125
-1.451001,-0.04512274
-1.450001,-0.04472422
-1.449001,-0.04432571
-1.448001,-0.04395786
-1.447001,-0.04355934
-1.446001,-0.04316083
-1.445001,-0.04273166
-1.444001,-0.04233315
-1.443001,-0.04196529
-1.442001,-0.04153612
-1.441001,-0.04116827
-1.440001,-0.04076975
-1.439001,-0.04034058
-1.438001,-0.03997273
-1.437001,-0.03954356
-1.436001,-0.03914505
-1.435001,-0.03877719
-1.434001,-0.03837867
-1.433001,-0.03798017
-1.432001,-0.0376123
-1.431001,-0.03721379
-1.430001,-0.03684593
-1.429001,-0.03644742
-1.428001,-0.03604891
-1.427001,-0.03568105
-1.426001,-0.03528254
-1.425001,-0.03491468
-1.424001,-0.03451617
-1.423001,-0.03414831
-1.422001,-0.03378045
-1.421001,-0.03338194
-1.420001,-0.03301408
-1.419001,-0.03264622
-1.418001,-0.03224771
-1.417001,-0.03187985
-1.416001,-0.03151199
-1.415001,-0.03114414
-1.414001,-0.03074562
-1.413001,-0.03040842
-1.412001,-0.03000991
-1.411001,-0.02964205
-1.410001,-0.02930485
-1.409001,-0.02893699
-1.408001,-0.02856913
-1.407001,-0.02823193
-1.406001,-0.02786407
-1.405001,-0.02746556
-1.404001,-0.02712835
-1.403001,-0.02676049
-1.402001,-0.02642329
-1.401001,-0.02605543
-1.400001,-0.02571823
-1.399001,-0.02535038
-1.398001,-0.02501317
-1.397001,-0.02467597
-1.396001,-0.02430811
-1.395001,-0.02397091
-1.394001,-0.0236337
-1.393001,-0.0232965
-1.392001,-0.0229593
-1.391001,-0.02259144
-1.390001,-0.02228489
-1.389001,-0.02194769
-1.388001,-0.02161049
-1.387001,-0.02127328
-1.386001,-0.02093608
-1.385001,-0.02059888
-1.384001,-0.02029233
-1.383001,-0.01998578
-1.382001,-0.01964858
-1.381001,-0.01931137
-1.380001,-0.01900483
-1.379001,-0.01869828
-1.378001,-0.01839173
-1.377001,-0.01808518
-1.376001,-0.01777863
-1.375001,-0.01747208
-1.374001,-0.01719619
-1.373001,-0.01688964
-1.372001,-0.01658309
-1.371001,-0.01627655
-1.370001,-0.01600065
-1.369001,-0.01582084
-1.368001,-0.01554188
-1.367001,-0.01526905
-1.366001,-0.01499622
-1.365001,-0.01472033
-1.364001,-0.01445363
-1.363001,-0.01419
-1.362001,-0.01392637
-1.361001,-0.01366887
-1.360001,-0.0134175
-1.359001,-0.01315387
-1.358001,-0.01290557
-1.357001,-0.01265726
-1.356001,-0.01240589
-1.355001,-0.01217598
-1.354001,-0.01193687
-1.353001,-0.01169777
-1.352001,-0.01147398
-1.351001,-0.01124407
-1.350001,-0.01101723
-1.349001,-0.01080264
-1.348001,-0.010585
-1.347001,-0.01036735
-1.346001,-0.01015889
-1.345001,-0.009950439
-1.344001,-0.009748118
-1.343001,-0.009554992
-1.342001,-0.009355736
-1.341001,-0.00916261
-1.340001,-0.008984813
-1.339001,-0.008797818
-1.338001,-0.008616954
-1.337001,-0.008439157
-1.336001,-0.008264424
-1.335001,-0.008098888
-1.334001,-0.007933352
-1.333001,-0.007767816
-1.332001,-0.007614542
-1.331001,-0.007461268
-1.330001,-0.007314125
-1.329001,-0.007170047
-1.328001,-0.007019838
-1.327001,-0.006884957
-1.326001,-0.006753141
-1.325001,-0.00661826
-1.324001,-0.006495641
-1.323001,-0.006373021
-1.322001,-0.006250402
-1.321001,-0.006130849
-1.320001,-0.006020491
-1.319001,-0.005910133
-1.318001,-0.005802842
-1.317001,-0.005698615
-1.316001,-0.005594389
-1.315001,-0.005496293
-1.314001,-0.00541046
-1.313001,-0.005312365
-1.312001,-0.005223466
-1.311001,-0.005140697
-1.310001,-0.005048733
-1.309001,-0.004972096
-1.308001,-0.004895459
-1.307001,-0.004815756
-1.306001,-0.00474525
-1.305001,-0.004674744
-1.304001,-0.004604238
-1.303001,-0.004539863
-1.302001,-0.004472422
-1.301001,-0.004411113
-1.300001,-0.004352869
-1.299001,-0.004291559
-1.298001,-0.00423638
-1.297001,-0.004184267
-1.296001,-0.004129088
-1.295001,-0.00408004
-1.294001,-0.004034058
-1.293001,-0.00397888
-1.292001,-0.003939028
-1.291001,-0.003893046
-1.290001,-0.003850129
-1.289001,-0.003810278
-1.288001,-0.003770427
-1.287001,-0.00372751
-1.286001,-0.00369379
-1.285001,-0.003653938
-1.284001,-0.003614087
-1.283001,-0.003586498
-1.282001,-0.003549712
-1.281001,-0.003515992
-1.280001,-0.003488402
-1.279001,-0.003454682
-1.278001,-0.003424027
-1.277001,-0.003399503
-1.276001,-0.003368848
-1.275001,-0.003344325
-1.274001,-0.003319801
-1.273001,-0.003289146
-1.272001,-0.003267688
-1.271001,-0.003246229
-1.270001,-0.00321864
-1.269001,-0.003197182
-1.268001,-0.003172658
-1.267001,-0.003151199
-1.266001,-0.003132806
-1.265001,-0.003108283
-1.264001,-0.003089889
-1.263001,-0.003074562
-1.262001,-0.003050038
-1.261001,-0.003031645
-1.260001,-0.003013253
-1.259001,-0.002997925
-1.258001,-0.002976467
-1.257001,-0.002961139
-1.256001,-0.002942747
-1.255001,-0.002927419
-1.254001,-0.002912092
-1.253001,-0.002896764
-1.252001,-0.002878371
-1.251001,-0.00286611
-1.250001,-0.002850782
-1.249001,-0.002835455
-1.248001,-0.002826258
-1.247001,-0.002807865
-1.246001,-0.002792538
-1.245001,-0.002780276
-1.244001,-0.002768014
-1.243001,-0.002752687
-1.242001,-0.00274349
-1.241001,-0.002728163
-1.240001,-0.002715901
-1.239001,-0.002706704
-1.238001,-0.002691377
-1.237001,-0.002679115
-1.236001,-0.002669919
-1.235001,-0.002657657
-1.234001,-0.002645395
-1.233001,-0.002636198
-1.232001,-0.002623936
-1.231001,-0.002611674
-1.230001,-0.002605543
-1.229001,-0.002590216
-1.228001,-0.002577954
-1.227001,-0.002574889
-1.226001,-0.002556496
-1.225001,-0.002550365
-1.224001,-0.002544234
-1.223001,-0.002531972
-1.222001,-0.00251971
-1.221001,-0.002513579
-1.220001,-0.002498251
-1.219001,-0.00249212
-1.218001,-0.002482924
-1.217001,-0.002473728
-1.216001,-0.002461466
-1.215001,-0.002455335
-1.214001,-0.002443073
-1.213001,-0.002436942
-1.212001,-0.002427745
-1.211001,-0.002415484
-1.210001,-0.002409352
-1.209001,-0.002400156
-1.208001,-0.00239096
-1.207001,-0.002384829
-1.206001,-0.002372567
-1.205001,-0.00236337
-1.204001,-0.002357239
-1.203001,-0.002348043
-1.202001,-0.002341912
-1.201001,-0.002332716
-1.200001,-0.002323519
-1.199001,-0.002317388
-1.198001,-0.002308191
-1.197001,-0.002298995
-1.196001,-0.002292864
-1.195001,-0.002283668
-1.194001,-0.002274471
-1.193001,-0.002271406
-1.192001,-0.002259144
-1.191001,-0.002253013
-1.190001,-0.002246882
-1.189001,-0.002237685
-1.188001,-0.002228489
-1.187001,-0.002225423
-1.186001,-0.002216227
-1.185001,-0.002207031
-1.184001,-0.002203965
-1.183001,-0.002188638
-1.182001,-0.002188638
-1.181001,-0.002182507
-1.180001,-0.002167179
-1.179001,-0.002164114
-1.178001,-0.002157983
-1.177001,-0.002145721
-1.176001,-0.002142655
-1.175001,-0.002136525
-1.174001,-0.002124263
-1.173001,-0.002121197
-1.172001,-0.002112001
-1.171001,-0.002102804
-1.170001,-0.002096673
-1.169001,-0.002090542
-1.168001,-0.002081346
-1.167001,-0.002075215
-1.166001,-0.002069084
-1.165001,-0.002056822
-1.164001,-0.002056822
-1.163001,-0.002047626
-1.162001,-0.002038429
-1.161001,-0.002035364
-1.160001,-0.002026167
-1.159001,-0.002016971
-1.158001,-0.002013905
-1.157001,-0.002004709
-1.156001,-0.001995512
-1.155001,-0.001989381
-1.154001,-0.00198325
-1.153001,-0.001974054
-1.152001,-0.001970988
-1.151001,-0.001961792
-1.150001,-0.001955661
-1.149001,-0.00194953
-1.148001,-0.001943399
-1.147001,-0.001934203
-1.146001,-0.001931137
-1.145001,-0.001921941
-1.144001,-0.001912744
-1.143001,-0.001909679
-1.142001,-0.001900482
-1.141001,-0.001894351
-1.140001,-0.001891286
-1.139001,-0.00188209
-1.138001,-0.001875959
-1.137001,-0.001869828
-1.136001,-0.001860631
-1.135001,-0.0018545
-1.134001,-0.001851435
-1.133001,-0.001842238
-1.132001,-0.001836107
-1.131001,-0.001829976
-1.130001,-0.001823845
-1.129001,-0.001814649
-1.128001,-0.001811583
-1.127001,-0.001802387
-1.126001,-0.001796256
-1.125001,-0.001790125
-1.124001,-0.001780929
-1.123001,-0.001780929
-1.122001,-0.001771732
-1.121001,-0.001762536
-1.120001,-0.001762536
-1.119001,-0.001750274
-1.118001,-0.001747208
-1.117001,-0.001744143
-1.116001,-0.001734946
-1.115001,-0.001731881
-1.114001,-0.00172575
-1.113001,-0.001716554
-1.112001,-0.001713488
-1.111001,-0.001707357
-1.110001,-0.001698161
-1.109001,-0.001695095
-1.108001,-0.001685899
-1.107001,-0.001679768
-1.106001,-0.001676702
-1.105001,-0.001667506
-1.104001,-0.001661375
-1.103001,-0.001658309
-1.102001,-0.001649113
-1.101001,-0.001642982
-1.100001,-0.001639916
-1.099001,-0.00163072
-1.098001,-0.001627655
-1.097001,-0.001621523
-1.096001,-0.001609262
-1.095001,-0.001606196
-1.094001,-0.001603131
-1.093001,-0.001628373
-1.092001,-0.001625614
-1.091001,-0.001618257
-1.090001,-0.001612432
-1.089001,-0.001607221
-1.088001,-0.001600477
-1.087001,-0.001594039
-1.086001,-0.0015922
-1.085001,-0.001582697
-1.084001,-0.00157442
-1.083001,-0.001570742
-1.082001,-0.001566143
-1.081001,-0.001555414
-1.080001,-0.001554801
-1.079001,-0.001544992
-1.078001,-0.001539167
-1.077001,-0.001538861
-1.076001,-0.001525373
-1.075001,-0.00152384
-1.074001,-0.001518629
-1.073001,-0.001510045
-1.072001,-0.001504834
-1.071001,-0.001498703
-1.070001,-0.001489813
-1.069001,-0.001487361
-1.068001,-0.001477551
-1.067001,-0.001473259
-1.066001,-0.001467742
-1.065001,-0.001460078
-1.064001,-0.001454253
-1.063001,-0.001448429
-1.062001,-0.001441992
-1.061001,-0.001434021
-1.060001,-0.001432795
-1.059001,-0.00142084
-1.058001,-0.001415322
-1.057001,-0.001410724
-1.056001,-0.001399994
-1.055001,-0.001396929
-1.054001,-0.001390185
-1.053001,-0.001382521
-1.052001,-0.001377923
-1.051001,-0.001369646
-1.050001,-0.001363515
-1.049001,-0.001358304
-1.048001,-0.00134972
-1.047001,-0.001342976
-1.046001,-0.001339298
-1.045001,-0.001329488
-1.044001,-0.001322438
-1.043001,-0.001319985
-1.042001,-0.001309869
-1.041001,-0.001301286
-1.040001,-0.001297607
-1.039001,-0.001285958
-1.038001,-0.001283813
-1.037001,-0.001277068
-1.036001,-0.001266646
-1.035001,-0.001262048
-1.034001,-0.001255304
-1.033001,-0.001246107
-1.032001,-0.001240896
-1.031001,-0.001233539
-1.030001,-0.001225568
-1.029001,-0.001220357
-1.028001,-0.001211774
-1.027001,-0.001203803
-1.026001,-0.001199512
-1.025001,-0.001188783
-1.024001,-0.001180506
-1.023001,-0.001175908
-1.022001,-0.001171003
-1.021001,-0.001161806
-1.020001,-0.001151384
-1.019001,-0.001147092
-1.018001,-0.001139428
-1.017001,-0.001130538
-1.016001,-0.001125021
-1.015001,-0.00111797
-1.014001,-0.001107547
-1.013001,-0.001102029
-1.012001,-0.001094366
-1.011001,-0.001085782
-1.010001,-0.001078425
-1.009001,-0.001072601
-1.008001,-0.001062485
-1.007001,-0.001055434
-1.006001,-0.001050529
-1.005001,-0.001038881
-1.004001,-0.001031217
-1.003001,-0.001024779
-1.002001,-0.001014357
-1.001001,-0.001010985
-1.000001,-0.001002095
-0.9990011,-0.0009913654
-0.9980011,-0.0009861541
-0.9970011,-0.0009791035
-0.9960011,-0.0009674546
-0.9950011,-0.0009634696
-0.9940011,-0.0009545796
-0.9930011,-0.0009432373
-0.9920011,-0.0009398654
-0.9910011,-0.0009297492
-0.9900011,-0.0009177938
-0.9890011,-0.0009147284
-0.9880011,-0.0009055319
-0.9870011,-0.0008944962
-0.9860011,-0.0008886718
-0.9850011,-0.0008813146
-0.9840011,-0.0008693592
-0.9830011,-0.0008656807
-0.9820011,-0.0008540318
-0.9810011,-0.0008451419
-0.9800011,-0.0008368651
-0.9790011,-0.000826749
-0.9780011,-0.0008184722
-0.9770011,-0.0008095824
-0.9760011,-0.0008009989
-0.9750011,-0.0007936418
-0.9740011,-0.000782606
-0.9730011,-0.00077249
-0.9720011,-0.0007657459
-0.9710011,-0.0007550167
-0.9700011,-0.0007452072
-0.9690011,-0.0007363172
-0.9680011,-0.0007271208
-0.9670011,-0.0007166982
-0.9660011,-0.0007084214
-0.9650011,-0.000696466
-0.9640011,-0.0006848171
-0.9630011,-0.0006792994
-0.9620011,-0.0006664242
-0.9610011,-0.0006566148
-0.9600011,-0.000648951
-0.9590011,-0.0006366891
-0.9580011,-0.0006268796
-0.9570011,-0.0006173765
-0.9560011,-0.0006035819
-0.9550011,-0.0005959182
-0.9540011,-0.0005848824
-0.9530011,-0.0005710878
-0.9520011,-0.000562811
-0.9510011,-0.0005517752
-0.9500011,-0.0005404329
-0.9490011,-0.0005312365
-0.9480011,-0.0005159091
-0.9470011,-0.0005060995
-0.9460011,-0.0004956769
-0.9450011,-0.000480656
-0.9440011,-0.000471153
-0.9430011,-0.0004601173
-0.9420011,-0.000445403
-0.9410011,-0.0004355934
-0.9400011,-0.0004221053
-0.9390011,-0.0004092303
-0.9380011,-0.0003997273
-0.9370011,-0.0003859326
-0.9360011,-0.0003724445
-0.9350011,-0.0003617153
-0.9340011,-0.0003491468
-0.9330011,-0.0003356587
-0.9320011,-0.0003230902
-0.9310011,-0.0003111348
-0.9300011,-0.0002976467
-0.9290011,-0.0002850782
-0.9280011,-0.0002728163
-0.9270011,-0.0002590216
-0.9260011,-0.0002473728
-0.9250011,-0.0002354174
-0.9240011,-0.00022009
-0.9230011,-0.0002087477
-0.9220011,-0.0001955661
-0.9210011,-0.0001814649
-0.9200011,-0.0001701226
-0.9190011,-0.0001560214
-0.9180011,-0.0001443726
-0.9170011,-0.0001336434
-0.9160011,-0.0001218518
-0.9150011,-0.0001102336
-0.9140011,-0.0001008532
-0.9130011,-8.577103E-05
-0.9120011,-7.562429E-05
-0.9110011,-6.492575E-05
-0.9100011,-5.278644E-05
-0.9090011,-4.199594E-05
-0.9080011,-3.074562E-05
-0.9070011,-1.934203E-05
-0.9060011,-1.081999E-05
-0.9050011,-1.21452E-07
-0.9040011,1.020922E-05
-0.9030011,1.965091E-05
-0.9020011,2.906194E-05
-0.9010011,3.583666E-05
-0.9000011,4.561555E-05
-0.8990011,5.389235E-05
-0.8980011,6.170933E-05
-0.8970011,6.91891E-05
-0.8960011,7.630103E-05
-0.8950011,8.329033E-05
-0.8940011,9.049421E-05
-0.8930011,9.668648E-05
-0.8920011,0.0001044422
-0.8910011,0.0001095002
-0.8900011,0.0001158457
-0.8890011,0.0001231722
-0.8880011,0.0001274333
-0.8870011,0.0001339627
-0.8860011,0.0001407375
-0.8850011,0.0001449985
-0.8840011,0.0001521104
-0.8830011,0.0001579655
-0.8820011,0.0001620119
-0.8810011,0.0001693997
-0.8800011,0.0001749789
-0.8790011,0.0001797304
-0.8780011,0.0001858307
-0.8770011,0.000192023
-0.8760011,0.0001983379
-0.8750011,0.0002037945
-0.8740011,0.0002103546
-0.8730011,0.0002146769
-0.8720011,0.0002220954
-0.8710011,0.0002296671
-0.8700011,0.0002350624
-0.8690011,0.0002423582
-0.8680011,0.000249746
-0.8670011,0.0002554172
-0.8660011,0.0002629889
-0.8650011,0.000270622
-0.8640011,0.0002763851
-0.8630011,0.0002855202
-0.8620011,0.00029767
-0.8610011,0.000303801
-0.8600011,0.0003142237
-0.8590011,0.0003225004
-0.8580011,0.0003304707
-0.8570011,0.0003415065
-0.8560011,0.0003503964
-0.8550011,0.000360819
-0.8540011,0.0003721613
-0.8530011,0.0003816643
-0.8520011,0.0003948459
-0.8510011,0.0004058816
-0.8500011,0.0004172239
-0.8490011,0.0004316316
-0.8480011,0.000443587
-0.8470011,0.0004583014
-0.8460011,0.0004736288
-0.8450011,0.0004874234
-0.8440011,0.0005045901
-0.8430011,0.0005211438
-0.8420011,0.000538617
-0.8410011,0.0005560903
-0.8400011,0.0005747897
-0.8390011,0.0005937957
-0.8380011,0.0006140279
-0.8370011,0.0006345666
-0.8360011,0.0006566381
-0.8350011,0.0006780964
-0.8340011,0.0007013941
-0.8330011,0.0007246918
-0.8320011,0.0007492157
-0.8310011,0.0007749657
-0.8300011,0.0007994896
-0.8290011,0.0008258527
-0.8280011,0.0008537486
-0.8270011,0.0008807249
-0.8260011,0.0009089273
-0.8250011,0.0009392756
-0.8240011,0.0009671715
-0.8230011,0.0009981329
-0.8220011,0.001028788
-0.8210011,0.001059442
-0.8200011,0.00109255
-0.8190011,0.001126883
-0.8180011,0.001158764
-0.8170011,0.001193404
-0.8160011,0.001226818
-0.8150011,0.001261151
-0.8140011,0.001296098
-0.8130011,0.001331351
-0.8120011,0.001366297
-0.8110011,0.001402777
-0.8100011,0.001438643
-0.8090011,0.001475428
-0.8080011,0.001512521
-0.8070011,0.001549307
-0.8060011,0.001586706
-0.8050011,0.001624104
-0.8040011,0.001661503
-0.8030011,0.001699515
-0.8020011,0.001736608
-0.8010011,0.00177462
