EXPID. 1261
[电化学]: CV : -0.8 >> -0.8 >> -1.5 >> -0.8(V) @ 0.01(V/s) X 10(Seg)
起始电位 (V),-0.8
上限电位 (V),-0.8
下限电位 (V),-1.5
终止电位 (V),-0.8
扫速 (V/s),0.01
电解液 信息:
KOH,1
-0.8,-0.06888022
-0.801,-0.05606651
-0.802,-0.04916918
-0.803,-0.0445403
-0.804,-0.04104565
-0.805,-0.03816409
-0.806,-0.03558908
-0.807,-0.03338194
-0.808,-0.03138937
-0.809,-0.0296727
-0.81,-0.02817062
-0.811,-0.02682181
-0.812,-0.02556496
-0.813,-0.02443073
-0.814,-0.02338847
-0.815,-0.02240751
-0.816,-0.02148787
-0.817,-0.02062953
-0.818,-0.0198325
-0.819,-0.01906613
-0.82,-0.01836107
-0.821,-0.01765601
-0.822,-0.01701226
-0.823,-0.01642982
-0.824,-0.01584738
-0.825,-0.01542233
-0.826,-0.01491346
-0.827,-0.01442605
-0.828,-0.01396316
-0.829,-0.01352786
-0.83,-0.01310482
-0.831,-0.01270631
-0.832,-0.01232926
-0.833,-0.0119614
-0.834,-0.011615
-0.835,-0.01128393
-0.836,-0.01096205
-0.837,-0.01065857
-0.838,-0.01036735
-0.839,-0.01008226
-0.84,-0.009809428
-0.841,-0.009545796
-0.842,-0.009282164
-0.843,-0.009030795
-0.844,-0.008779425
-0.845,-0.008534187
-0.846,-0.008298145
-0.847,-0.008068234
-0.848,-0.007844454
-0.849,-0.007636
-0.85,-0.007430613
-0.851,-0.007228291
-0.852,-0.007035166
-0.853,-0.00684204
-0.854,-0.00665198
-0.855,-0.006468052
-0.856,-0.006293319
-0.857,-0.006130849
-0.858,-0.00598064
-0.859,-0.005836562
-0.86,-0.005704746
-0.861,-0.005582127
-0.862,-0.005462573
-0.863,-0.005352216
-0.864,-0.00525412
-0.865,-0.005152959
-0.866,-0.00506406
-0.867,-0.004981292
-0.868,-0.00490159
-0.869,-0.004824953
-0.87,-0.004757512
-0.871,-0.004693137
-0.872,-0.004631828
-0.873,-0.004576649
-0.874,-0.004524535
-0.875,-0.004478553
-0.876,-0.004435637
-0.877,-0.004395785
-0.878,-0.004355934
-0.879,-0.004325279
-0.88,-0.004291559
-0.881,-0.00426397
-0.882,-0.004239446
-0.883,-0.004214922
-0.884,-0.004196529
-0.885,-0.004178136
-0.886,-0.004159743
-0.887,-0.004150547
-0.888,-0.004135219
-0.889,-0.004126023
-0.89,-0.004116826
-0.891,-0.00410763
-0.892,-0.004098434
-0.893,-0.004095368
-0.894,-0.004089237
-0.895,-0.004086172
-0.896,-0.004086172
-0.897,-0.004086172
-0.898,-0.004086172
-0.899,-0.004089237
-0.9,-0.004092303
-0.901,-0.004095368
-0.902,-0.004101499
-0.903,-0.00410763
-0.904,-0.004116826
-0.905,-0.004126023
-0.906,-0.004135219
-0.907,-0.004144416
-0.908,-0.004159743
-0.909,-0.004168939
-0.91,-0.004184267
-0.911,-0.004199594
-0.912,-0.004214922
-0.913,-0.004230249
-0.914,-0.004248642
-0.915,-0.00426397
-0.916,-0.004282362
-0.917,-0.004300755
-0.918,-0.004316083
-0.919,-0.004337541
-0.92,-0.004358999
-0.921,-0.004377393
-0.922,-0.004398851
-0.923,-0.004420309
-0.924,-0.004438702
-0.925,-0.004457095
-0.926,-0.004481619
-0.927,-0.004500012
-0.928,-0.00452147
-0.929,-0.004542928
-0.93,-0.004564387
-0.931,-0.004585845
-0.932,-0.004607304
-0.933,-0.004628762
-0.934,-0.00465022
-0.935,-0.004671679
-0.936,-0.004693137
-0.937,-0.004714595
-0.938,-0.004736054
-0.939,-0.004754446
-0.94,-0.00477897
-0.941,-0.004797364
-0.942,-0.004818822
-0.943,-0.004843346
-0.944,-0.004858673
-0.945,-0.004883197
-0.946,-0.004904655
-0.947,-0.004919983
-0.948,-0.004941441
-0.949,-0.0049629
-0.95,-0.004981292
-0.951,-0.005002751
-0.952,-0.005021143
-0.953,-0.005039536
-0.954,-0.00505793
-0.955,-0.005079388
-0.956,-0.005094715
-0.957,-0.005113108
-0.958,-0.005134566
-0.959,-0.005149893
-0.96,-0.005165222
-0.961,-0.00518668
-0.962,-0.005198942
-0.963,-0.005217335
-0.964,-0.005235727
-0.965,-0.005247989
-0.966,-0.005263316
-0.967,-0.00528171
-0.968,-0.005290906
-0.969,-0.005309299
-0.97,-0.005321561
-0.971,-0.005336888
-0.972,-0.005352216
-0.973,-0.005364478
-0.974,-0.005376739
-0.975,-0.005392067
-0.976,-0.005401264
-0.977,-0.005413526
-0.978,-0.005425788
-0.979,-0.005434984
-0.98,-0.005447246
-0.981,-0.005459507
-0.982,-0.005465638
-0.983,-0.005474835
-0.984,-0.005490162
-0.985,-0.005496293
-0.986,-0.00550549
-0.987,-0.005517752
-0.988,-0.005526948
-0.989,-0.005533079
-0.99,-0.005545341
-0.991,-0.005551472
-0.992,-0.005560669
-0.993,-0.00557293
-0.994,-0.005575996
-0.995,-0.005585192
-0.996,-0.005597454
-0.997,-0.005603585
-0.998,-0.005612782
-0.999,-0.005621978
-1,-0.005628109
-1.001,-0.005640371
-1.002,-0.005646502
-1.003,-0.005652633
-1.004,-0.005664895
-1.005,-0.005674092
-1.006,-0.005680223
-1.007,-0.005692484
-1.008,-0.005698615
-1.009,-0.005707812
-1.01,-0.005720073
-1.011,-0.005726204
-1.012,-0.005738466
-1.013,-0.005747663
-1.014,-0.00575686
-1.015,-0.005766056
-1.016,-0.005778318
-1.017,-0.005787514
-1.018,-0.00579671
-1.019,-0.005808973
-1.02,-0.005818169
-1.021,-0.0058243
-1.022,-0.005839627
-1.023,-0.005845758
-1.024,-0.005858021
-1.025,-0.005870283
-1.026,-0.005876414
-1.027,-0.005888675
-1.028,-0.005900937
-1.029,-0.005910133
-1.03,-0.00591933
-1.031,-0.005931592
-1.032,-0.005937723
-1.033,-0.005949985
-1.034,-0.005959181
-1.035,-0.005968377
-1.036,-0.00598064
-1.037,-0.005989837
-1.038,-0.005992902
-1.039,-0.006005164
-1.04,-0.00601436
-1.041,-0.006020491
-1.042,-0.006029687
-1.043,-0.006038884
-1.044,-0.006045015
-1.045,-0.006054211
-1.046,-0.006060342
-1.047,-0.006063408
-1.048,-0.006069539
-1.049,-0.006078735
-1.05,-0.006078735
-1.051,-0.006084866
-1.052,-0.006090997
-1.053,-0.006087931
-1.054,-0.006094063
-1.055,-0.006097128
-1.056,-0.006094063
-1.057,-0.006100194
-1.058,-0.006097128
-1.059,-0.006097128
-1.06,-0.006100194
-1.061,-0.006097128
-1.062,-0.006094063
-1.063,-0.006094063
-1.064,-0.006084866
-1.065,-0.006084866
-1.066,-0.0060818
-1.067,-0.006072604
-1.068,-0.006069539
-1.069,-0.006063408
-1.07,-0.006054211
-1.071,-0.00604808
-1.072,-0.006041949
-1.073,-0.006029687
-1.074,-0.006023556
-1.075,-0.006017426
-1.076,-0.006002098
-1.077,-0.005992902
-1.078,-0.005983705
-1.079,-0.005971443
-1.08,-0.005959181
-1.081,-0.00595305
-1.082,-0.005934658
-1.083,-0.005922395
-1.084,-0.005913199
-1.085,-0.005894806
-1.086,-0.005882544
-1.087,-0.005876414
-1.088,-0.005858021
-1.089,-0.005842693
-1.09,-0.005833496
-1.091,-0.005815104
-1.092,-0.005802842
-1.093,-0.00579058
-1.094,-0.005775252
-1.095,-0.005759925
-1.096,-0.005747663
-1.097,-0.005732335
-1.098,-0.005717008
-1.099,-0.005704746
-1.1,-0.005686353
-1.101,-0.005674092
-1.102,-0.005658764
-1.103,-0.005643437
-1.104,-0.005628109
-1.105,-0.005615847
-1.106,-0.005597454
-1.107,-0.005585192
-1.108,-0.005569865
-1.109,-0.005554538
-1.11,-0.005542276
-1.111,-0.005526948
-1.112,-0.005511621
-1.113,-0.005499359
-1.114,-0.005484032
-1.115,-0.005468704
-1.116,-0.005456442
-1.117,-0.005441115
-1.118,-0.005425788
-1.119,-0.005416591
-1.12,-0.005401264
-1.121,-0.005389001
-1.122,-0.005376739
-1.123,-0.005361412
-1.124,-0.00534915
-1.125,-0.005339954
-1.126,-0.005324626
-1.127,-0.005312365
-1.128,-0.005303168
-1.129,-0.005287841
-1.13,-0.005275579
-1.131,-0.005269447
-1.132,-0.00525412
-1.133,-0.005238793
-1.134,-0.005235727
-1.135,-0.0052204
-1.136,-0.005208138
-1.137,-0.005202007
-1.138,-0.005189745
-1.139,-0.005177483
-1.14,-0.005171353
-1.141,-0.005156024
-1.142,-0.005143763
-1.143,-0.005140697
-1.144,-0.00512537
-1.145,-0.005116174
-1.146,-0.005110043
-1.147,-0.005094715
-1.148,-0.005085519
-1.149,-0.005076322
-1.15,-0.00506406
-1.151,-0.005054864
-1.152,-0.005045668
-1.153,-0.005033405
-1.154,-0.005024209
-1.155,-0.005015012
-1.156,-0.005002751
-1.157,-0.004993554
-1.158,-0.004984358
-1.159,-0.004969031
-1.16,-0.004959834
-1.161,-0.004950637
-1.162,-0.004938376
-1.163,-0.004926114
-1.164,-0.004916917
-1.165,-0.004904655
-1.166,-0.004892393
-1.167,-0.004883197
-1.168,-0.004867869
-1.169,-0.004855608
-1.17,-0.004846411
-1.171,-0.004828018
-1.172,-0.004821887
-1.173,-0.00480656
-1.174,-0.004794298
-1.175,-0.004782036
-1.176,-0.004766709
-1.177,-0.004754446
-1.178,-0.004742185
-1.179,-0.004729923
-1.18,-0.004714595
-1.181,-0.004702333
-1.182,-0.004690072
-1.183,-0.004674744
-1.184,-0.004662482
-1.185,-0.004653286
-1.186,-0.004634893
-1.187,-0.004625696
-1.188,-0.004613434
-1.189,-0.004598107
-1.19,-0.004585845
-1.191,-0.004573583
-1.192,-0.004558256
-1.193,-0.00454906
-1.194,-0.004536797
-1.195,-0.004524535
-1.196,-0.004515339
-1.197,-0.004503077
-1.198,-0.004490815
-1.199,-0.004481619
-1.2,-0.004469357
-1.201,-0.004457095
-1.202,-0.004447898
-1.203,-0.004438702
-1.204,-0.004429505
-1.205,-0.004420309
-1.206,-0.004408047
-1.207,-0.004398851
-1.208,-0.00439272
-1.209,-0.004380458
-1.21,-0.004371261
-1.211,-0.00436513
-1.212,-0.004352869
-1.213,-0.004346738
-1.214,-0.004340607
-1.215,-0.004328344
-1.216,-0.004319148
-1.217,-0.004316083
-1.218,-0.00430382
-1.219,-0.00429769
-1.22,-0.004291559
-1.221,-0.004279297
-1.222,-0.004273166
-1.223,-0.004270101
-1.224,-0.004257839
-1.225,-0.004251707
-1.226,-0.004248642
-1.227,-0.004239446
-1.228,-0.004233315
-1.229,-0.004230249
-1.23,-0.004224118
-1.231,-0.004217987
-1.232,-0.004214922
-1.233,-0.004208791
-1.234,-0.00420266
-1.235,-0.004196529
-1.236,-0.004193463
-1.237,-0.004187332
-1.238,-0.004184267
-1.239,-0.004178136
-1.24,-0.00417507
-1.241,-0.004172005
-1.242,-0.004168939
-1.243,-0.004165874
-1.244,-0.004162808
-1.245,-0.004156678
-1.246,-0.004156678
-1.247,-0.004153612
-1.248,-0.004147481
-1.249,-0.004147481
-1.25,-0.004147481
-1.251,-0.00414135
-1.252,-0.00414135
-1.253,-0.004138284
-1.254,-0.004138284
-1.255,-0.004138284
-1.256,-0.004135219
-1.257,-0.004132153
-1.258,-0.004135219
-1.259,-0.004132153
-1.26,-0.004132153
-1.261,-0.004132153
-1.262,-0.004132153
-1.263,-0.004132153
-1.264,-0.004132153
-1.265,-0.004132153
-1.266,-0.004132153
-1.267,-0.004135219
-1.268,-0.004135219
-1.269,-0.004135219
-1.27,-0.004138284
-1.271,-0.004138284
-1.272,-0.004138284
-1.273,-0.00414135
-1.274,-0.00414135
-1.275,-0.004144416
-1.276,-0.004147481
-1.277,-0.004147481
-1.278,-0.004150547
-1.279,-0.004156678
-1.28,-0.004156678
-1.281,-0.004159743
-1.282,-0.004165874
-1.283,-0.004168939
-1.284,-0.00417507
-1.285,-0.004178136
-1.286,-0.004181202
-1.287,-0.004187332
-1.288,-0.004193463
-1.289,-0.004196529
-1.29,-0.00420266
-1.291,-0.004208791
-1.292,-0.004214922
-1.293,-0.004221053
-1.294,-0.004230249
-1.295,-0.004233315
-1.296,-0.004242511
-1.297,-0.004251707
-1.298,-0.004257839
-1.299,-0.004267035
-1.3,-0.004276231
-1.301,-0.004285428
-1.302,-0.00429769
-1.303,-0.004306886
-1.304,-0.004316083
-1.305,-0.004328344
-1.306,-0.004337541
-1.307,-0.004349803
-1.308,-0.00436513
-1.309,-0.004374327
-1.31,-0.004386589
-1.311,-0.004401916
-1.312,-0.004414178
-1.313,-0.00442644
-1.314,-0.004444833
-1.315,-0.004457095
-1.316,-0.004472422
-1.317,-0.004490815
-1.318,-0.004506143
-1.319,-0.00452147
-1.32,-0.004539863
-1.321,-0.004558256
-1.322,-0.004573583
-1.323,-0.004595041
-1.324,-0.004613434
-1.325,-0.004634893
-1.326,-0.004656351
-1.327,-0.004674744
-1.328,-0.004696202
-1.329,-0.004717661
-1.33,-0.004739119
-1.331,-0.004763643
-1.332,-0.004788167
-1.333,-0.004812691
-1.334,-0.00484028
-1.335,-0.004864804
-1.336,-0.004889328
-1.337,-0.004919983
-1.338,-0.004947572
-1.339,-0.004975162
-1.34,-0.005008881
-1.341,-0.005036471
-1.342,-0.005070191
-1.343,-0.005103912
-1.344,-0.005140697
-1.345,-0.005174418
-1.346,-0.005214269
-1.347,-0.00525412
-1.348,-0.005293972
-1.349,-0.005339954
-1.35,-0.005385936
-1.351,-0.005431918
-1.352,-0.005484032
-1.353,-0.005533079
-1.354,-0.005591323
-1.355,-0.005652633
-1.356,-0.005713942
-1.357,-0.005778318
-1.358,-0.005848824
-1.359,-0.005922395
-1.36,-0.005999033
-1.361,-0.006084866
-1.362,-0.006170699
-1.363,-0.00626573
-1.364,-0.00636689
-1.365,-0.006471117
-1.366,-0.006587605
-1.367,-0.006710225
-1.368,-0.00683591
-1.369,-0.006973856
-1.37,-0.007117934
-1.371,-0.007271208
-1.372,-0.007436744
-1.373,-0.007608411
-1.374,-0.007789274
-1.375,-0.0079824
-1.376,-0.008187788
-1.377,-0.008402371
-1.378,-0.008626151
-1.379,-0.008865259
-1.38,-0.009110497
-1.381,-0.009371064
-1.382,-0.009643891
-1.383,-0.009925916
-1.384,-0.0102202
-1.385,-0.01052675
-1.386,-0.01083943
-1.387,-0.01116744
-1.388,-0.01150157
-1.389,-0.01185104
-1.39,-0.0122097
-1.391,-0.01257756
-1.392,-0.01295461
-1.393,-0.01334393
-1.394,-0.01373325
-1.395,-0.01413482
-1.396,-0.01454253
-1.397,-0.01495024
-1.398,-0.01536408
-1.399,-0.01578099
-1.4,-0.01619176
-1.401,-0.01661786
-1.402,-0.01704397
-1.403,-0.0174762
-1.404,-0.0179207
-1.405,-0.01836213
-1.406,-0.01881582
-1.407,-0.01926951
-1.408,-0.01971707
-1.409,-0.02017076
-1.41,-0.02063058
-1.411,-0.02109347
-1.412,-0.02155329
-1.413,-0.02201005
-1.414,-0.0224668
-1.415,-0.0229205
-1.416,-0.02337112
-1.417,-0.02383401
-1.418,-0.02429383
-1.419,-0.02475979
-1.42,-0.02520734
-1.421,-0.02565491
-1.422,-0.02611779
-1.423,-0.02657455
-1.424,-0.02703131
-1.425,-0.02748806
-1.426,-0.02794789
-1.427,-0.02840158
-1.428,-0.02884607
-1.429,-0.02928137
-1.43,-0.02971667
-1.431,-0.03017036
-1.432,-0.03071497
-1.433,-0.03114414
-1.434,-0.03157331
-1.435,-0.03200247
-1.436,-0.0324623
-1.437,-0.03289146
-1.438,-0.03335128
-1.439,-0.03378045
-1.44,-0.03420962
-1.441,-0.03463879
-1.442,-0.03506796
-1.443,-0.03552778
-1.444,-0.03592629
-1.445,-0.03635546
-1.446,-0.03678463
-1.447,-0.03721379
-1.448,-0.0376123
-1.449,-0.03804147
-1.45,-0.03847064
-1.451,-0.03886915
-1.452,-0.03929832
-1.453,-0.03972749
-1.454,-0.040126
-1.455,-0.04052451
-1.456,-0.04092303
-1.457,-0.04132154
-1.458,-0.04175071
-1.459,-0.04214922
-1.46,-0.04251708
-1.461,-0.04294625
-1.462,-0.04337541
-1.463,-0.04380458
-1.464,-0.04417244
-1.465,-0.04457095
-1.466,-0.04500012
-1.467,-0.04539863
-1.468,-0.04579714
-1.469,-0.04622631
-1.47,-0.04662482
-1.471,-0.04702334
-1.472,-0.04745251
-1.473,-0.04788167
-1.474,-0.04828018
-1.475,-0.0486787
-1.476,-0.04907721
-1.477,-0.04950638
-1.478,-0.04990489
-1.479,-0.0503034
-1.48,-0.05070192
-1.481,-0.05113108
-1.482,-0.05152959
-1.483,-0.05195877
-1.484,-0.05235728
-1.485,-0.05275579
-1.486,-0.05318496
-1.487,-0.05361412
-1.488,-0.05401264
-1.489,-0.05441115
-1.49,-0.05484032
-1.491,-0.05523883
-1.492,-0.055668
-1.493,-0.05606651
-1.494,-0.05646503
-1.495,-0.05689419
-1.496,-0.05735401
-1.497,-0.05778318
-1.498,-0.05818169
-1.499,-0.05858021
-1.5,-0.05876414
-1.499,-0.05839628
-1.498,-0.05802842
-1.497,-0.05769122
-1.496,-0.05735401
-1.495,-0.0569555
-1.494,-0.0566183
-1.493,-0.0562811
-1.492,-0.05591324
-1.491,-0.05557603
-1.49,-0.05523883
-1.489,-0.05490163
-1.488,-0.05459508
-1.487,-0.05422722
-1.486,-0.05389002
-1.485,-0.05355281
-1.484,-0.05321561
-1.483,-0.05290907
-1.482,-0.05257186
-1.481,-0.05226531
-1.48,-0.05195877
-1.479,-0.05162156
-1.478,-0.05128435
-1.477,-0.05094716
-1.476,-0.05060995
-1.475,-0.0503034
-1.474,-0.0499662
-1.473,-0.04965965
-1.472,-0.0493531
-1.471,-0.0490159
-1.47,-0.04870935
-1.469,-0.04834149
-1.468,-0.04800429
-1.467,-0.0477284
-1.466,-0.04739119
-1.465,-0.04708464
-1.464,-0.04674744
-1.463,-0.04641024
-1.462,-0.04607304
-1.461,-0.04579714
-1.46,-0.04545994
-1.459,-0.04515339
-1.458,-0.04481619
-1.457,-0.04447899
-1.456,-0.04417244
-1.455,-0.04383523
-1.454,-0.04349803
-1.453,-0.04319149
-1.452,-0.04288493
-1.451,-0.04254773
-1.45,-0.04224118
-1.449,-0.04190398
-1.448,-0.04159743
-1.447,-0.04126023
-1.446,-0.04095368
-1.445,-0.04061648
-1.444,-0.04027928
-1.443,-0.03997273
-1.442,-0.03963552
-1.441,-0.03932897
-1.44,-0.03905308
-1.439,-0.03871588
-1.438,-0.03837867
-1.437,-0.03807213
-1.436,-0.03776558
-1.435,-0.03742838
-1.434,-0.03712183
-1.433,-0.03681528
-1.432,-0.03647808
-1.431,-0.03617153
-1.43,-0.03583432
-1.429,-0.03552778
-1.428,-0.03522123
-1.427,-0.03488402
-1.426,-0.03460813
-1.425,-0.03427093
-1.424,-0.03396438
-1.423,-0.03365783
-1.422,-0.03332063
-1.421,-0.03301408
-1.42,-0.03270753
-1.419,-0.03237033
-1.418,-0.03206378
-1.417,-0.03175723
-1.416,-0.03145069
-1.415,-0.03114414
-1.414,-0.03083759
-1.413,-0.03053104
-1.412,-0.03022449
-1.411,-0.02991794
-1.41,-0.02961139
-1.409,-0.02930485
-1.408,-0.0289983
-1.407,-0.0286611
-1.406,-0.02835455
-1.405,-0.02807865
-1.404,-0.0277721
-1.403,-0.02746556
-1.402,-0.02715901
-1.401,-0.02688312
-1.4,-0.02657657
-1.399,-0.02627002
-1.398,-0.02596347
-1.397,-0.02568758
-1.396,-0.02538103
-1.395,-0.02510513
-1.394,-0.02479859
-1.393,-0.02452269
-1.392,-0.02421615
-1.391,-0.0239096
-1.39,-0.0236337
-1.389,-0.02332716
-1.388,-0.02305126
-1.387,-0.02277537
-1.386,-0.02246882
-1.385,-0.02219293
-1.384,-0.02191703
-1.383,-0.02164114
-1.382,-0.02136525
-1.381,-0.02112001
-1.38,-0.02081346
-1.379,-0.02053757
-1.378,-0.02026167
-1.377,-0.01998578
-1.376,-0.01974054
-1.375,-0.01946465
-1.374,-0.01918875
-1.373,-0.01891286
-1.372,-0.01866762
-1.371,-0.01839173
-1.37,-0.01814649
-1.369,-0.01790125
-1.368,-0.01762536
-1.367,-0.01738012
-1.366,-0.01713488
-1.365,-0.01688964
-1.364,-0.01661375
-1.363,-0.01636851
-1.362,-0.01612327
-1.361,-0.01599557
-1.36,-0.01575646
-1.359,-0.01551736
-1.358,-0.01529664
-1.357,-0.01507286
-1.356,-0.01485215
-1.355,-0.01463756
-1.354,-0.01441378
-1.353,-0.01419307
-1.352,-0.01398155
-1.351,-0.0137639
-1.35,-0.01355545
-1.349,-0.01335313
-1.348,-0.01314467
-1.347,-0.01294848
-1.346,-0.01275229
-1.345,-0.01255303
-1.344,-0.01235991
-1.343,-0.01216985
-1.342,-0.01197979
-1.341,-0.0117928
-1.34,-0.01160887
-1.339,-0.011428
-1.338,-0.0112502
-1.337,-0.01107241
-1.336,-0.01089767
-1.335,-0.01072907
-1.334,-0.01056354
-1.333,-0.010398
-1.332,-0.0102386
-1.331,-0.01007919
-1.33,-0.009925916
-1.329,-0.009775707
-1.328,-0.009628564
-1.327,-0.009481421
-1.326,-0.009340408
-1.325,-0.009202462
-1.324,-0.009064515
-1.323,-0.008935764
-1.322,-0.008803949
-1.321,-0.008678264
-1.32,-0.008558711
-1.319,-0.008436091
-1.318,-0.008319603
-1.317,-0.00820618
-1.316,-0.008092757
-1.315,-0.0079824
-1.314,-0.007878173
-1.313,-0.007770882
-1.312,-0.00766972
-1.311,-0.00756856
-1.31,-0.007470464
-1.309,-0.0073785
-1.308,-0.007289601
-1.307,-0.007197636
-1.306,-0.007111803
-1.305,-0.007029035
-1.304,-0.006946267
-1.303,-0.006866564
-1.302,-0.006789927
-1.301,-0.006710225
-1.3,-0.006636653
-1.299,-0.006566147
-1.298,-0.006495641
-1.297,-0.0064282
-1.296,-0.006363825
-1.295,-0.006296384
-1.294,-0.006235075
-1.293,-0.006173765
-1.292,-0.006112455
-1.291,-0.006057276
-1.29,-0.005999033
-1.289,-0.005943854
-1.288,-0.005891741
-1.287,-0.005836562
-1.286,-0.005784449
-1.285,-0.005738466
-1.284,-0.005686353
-1.283,-0.005640371
-1.282,-0.005597454
-1.281,-0.005548407
-1.28,-0.00550549
-1.279,-0.005462573
-1.278,-0.005419657
-1.277,-0.005379805
-1.276,-0.005339954
-1.275,-0.005300103
-1.274,-0.005263316
-1.273,-0.005226531
-1.272,-0.00518668
-1.271,-0.005152959
-1.27,-0.005119239
-1.269,-0.005082454
-1.268,-0.005048733
-1.267,-0.005018078
-1.266,-0.004984358
-1.265,-0.004953703
-1.264,-0.004923048
-1.263,-0.004892393
-1.262,-0.004864804
-1.261,-0.004834149
-1.26,-0.00480656
-1.259,-0.00477897
-1.258,-0.004751381
-1.257,-0.004723792
-1.256,-0.004699268
-1.255,-0.004671679
-1.254,-0.004647155
-1.253,-0.004622631
-1.252,-0.004598107
-1.251,-0.004573583
-1.25,-0.00454906
-1.249,-0.004524535
-1.248,-0.004503077
-1.247,-0.004481619
-1.246,-0.004457095
-1.245,-0.004435637
-1.244,-0.004414178
-1.243,-0.00439272
-1.242,-0.004371261
-1.241,-0.004352869
-1.24,-0.004328344
-1.239,-0.004309952
-1.238,-0.004288493
-1.237,-0.004270101
-1.236,-0.004251707
-1.235,-0.004230249
-1.234,-0.004211857
-1.233,-0.004193463
-1.232,-0.004172005
-1.231,-0.004153612
-1.23,-0.004138284
-1.229,-0.004116826
-1.228,-0.004098434
-1.227,-0.004083106
-1.226,-0.004064713
-1.225,-0.00404632
-1.224,-0.004030993
-1.223,-0.004009534
-1.222,-0.003994207
-1.221,-0.00397888
-1.22,-0.003960487
-1.219,-0.003942094
-1.218,-0.003929832
-1.217,-0.003911439
-1.216,-0.003893046
-1.215,-0.003880784
-1.214,-0.003862391
-1.213,-0.003847064
-1.212,-0.003831736
-1.211,-0.003816409
-1.21,-0.003801082
-1.209,-0.00378882
-1.208,-0.003770427
-1.207,-0.003755099
-1.206,-0.003742838
-1.205,-0.00372751
-1.204,-0.003712183
-1.203,-0.003696855
-1.202,-0.003681528
-1.201,-0.003669266
-1.2,-0.003653938
-1.199,-0.003638611
-1.198,-0.003626349
-1.197,-0.003611021
-1.196,-0.003595694
-1.195,-0.003583432
-1.194,-0.003568105
-1.193,-0.003555843
-1.192,-0.003543581
-1.191,-0.003528254
-1.19,-0.003512926
-1.189,-0.003500664
-1.188,-0.003488402
-1.187,-0.003473075
-1.186,-0.003463879
-1.185,-0.003448551
-1.184,-0.003436289
-1.183,-0.003424027
-1.182,-0.0034087
-1.181,-0.003396438
-1.18,-0.003384176
-1.179,-0.003371914
-1.178,-0.003359652
-1.177,-0.00334739
-1.176,-0.003335128
-1.175,-0.003319801
-1.174,-0.003310604
-1.173,-0.003298342
-1.172,-0.003283015
-1.171,-0.003273819
-1.17,-0.003258491
-1.169,-0.003249295
-1.168,-0.003237033
-1.167,-0.003224771
-1.166,-0.003212509
-1.165,-0.003200247
-1.164,-0.003187985
-1.163,-0.003175723
-1.162,-0.003166527
-1.161,-0.003151199
-1.16,-0.003142003
-1.159,-0.003129741
-1.158,-0.003117479
-1.157,-0.003108283
-1.156,-0.003096021
-1.155,-0.003083759
-1.154,-0.003074562
-1.153,-0.0030623
-1.152,-0.003050038
-1.151,-0.003040842
-1.15,-0.00302858
-1.149,-0.003016318
-1.148,-0.003007122
-1.147,-0.00299486
-1.146,-0.002985663
-1.145,-0.002973401
-1.144,-0.002961139
-1.143,-0.002951943
-1.142,-0.002942747
-1.141,-0.002930485
-1.14,-0.002918222
-1.139,-0.002909026
-1.138,-0.00289983
-1.137,-0.002887568
-1.136,-0.002878371
-1.135,-0.00286611
-1.134,-0.002856913
-1.133,-0.002847716
-1.132,-0.002835455
-1.131,-0.002826258
-1.13,-0.002817062
-1.129,-0.0028048
-1.128,-0.002795603
-1.127,-0.002783341
-1.126,-0.002774145
-1.125,-0.002764949
-1.124,-0.002752687
-1.123,-0.00274349
-1.122,-0.002734293
-1.121,-0.002722032
-1.12,-0.002712835
-1.119,-0.002703639
-1.118,-0.002691377
-1.117,-0.002679115
-1.116,-0.002669919
-1.115,-0.002660722
-1.114,-0.00264846
-1.113,-0.002639264
-1.112,-0.002630068
-1.111,-0.002617805
-1.11,-0.002605543
-1.109,-0.002596347
-1.108,-0.002584085
-1.107,-0.002574889
-1.106,-0.002562626
-1.105,-0.002550365
-1.104,-0.002541168
-1.103,-0.002528906
-1.102,-0.00251971
-1.101,-0.002507448
-1.1,-0.002495186
-1.099,-0.00248599
-1.098,-0.002473728
-1.097,-0.0024584
-1.096,-0.002449204
-1.095,-0.002436942
-1.094,-0.002421614
-1.093,-0.002412418
-1.092,-0.002400156
-1.091,-0.002387894
-1.09,-0.002375632
-1.089,-0.00236337
-1.088,-0.002348043
-1.087,-0.002338846
-1.086,-0.002323519
-1.085,-0.002311257
-1.084,-0.00229593
-1.083,-0.002283668
-1.082,-0.00226834
-1.081,-0.002256078
-1.08,-0.002240751
-1.079,-0.002228489
-1.078,-0.002213162
-1.077,-0.002197834
-1.076,-0.002182507
-1.075,-0.002170245
-1.074,-0.002151852
-1.073,-0.002136525
-1.072,-0.002124263
-1.071,-0.00210587
-1.07,-0.002090542
-1.069,-0.00207828
-1.068,-0.002056822
-1.067,-0.00204456
-1.066,-0.002029233
-1.065,-0.00201084
-1.064,-0.001995512
-1.063,-0.001980185
-1.062,-0.001961792
-1.061,-0.001946465
-1.06,-0.001928072
-1.059,-0.001912744
-1.058,-0.001897417
-1.057,-0.001879024
-1.056,-0.001863697
-1.055,-0.001848369
-1.054,-0.001833042
-1.053,-0.001814649
-1.052,-0.001799321
-1.051,-0.001783994
-1.05,-0.001768667
-1.049,-0.001753339
-1.048,-0.001734946
-1.047,-0.001722684
-1.046,-0.001704292
-1.045,-0.00169203
-1.044,-0.001673637
-1.043,-0.001658309
-1.042,-0.001642982
-1.041,-0.001627655
-1.04,-0.001615393
-1.039,-0.001600065
-1.038,-0.001619483
-1.037,-0.001606914
-1.036,-0.001591281
-1.035,-0.001579019
-1.034,-0.001566143
-1.033,-0.001550816
-1.032,-0.001539474
-1.031,-0.001525986
-1.03,-0.001511885
-1.029,-0.001501462
-1.028,-0.001486441
-1.027,-0.001473872
-1.026,-0.001463756
-1.025,-0.001449655
-1.024,-0.001437393
-1.023,-0.001427277
-1.022,-0.001414096
-1.021,-0.001403979
-1.02,-0.001392637
-1.019,-0.001380988
-1.018,-0.001370872
-1.017,-0.00135953
-1.016,-0.001348801
-1.015,-0.001338378
-1.014,-0.001327342
-1.013,-0.001317839
-1.012,-0.00130711
-1.011,-0.001297607
-1.01,-0.001287185
-1.009,-0.001277375
-1.008,-0.001267872
-1.007,-0.001258063
-1.006,-0.00124856
-1.005,-0.001240283
-1.004,-0.001228327
-1.003,-0.001220357
-1.002,-0.001211774
-1.001,-0.001201045
-1,-0.001193381
-0.9990003,-0.001183878
-0.9980002,-0.001174068
-0.9970002,-0.001166405
-0.9960002,-0.001155982
-0.9950002,-0.001147705
-0.9940003,-0.001140655
-0.9930002,-0.001129925
-0.9920002,-0.001121648
-0.9910002,-0.001113678
-0.9900002,-0.001103256
-0.9890002,-0.001096205
-0.9880002,-0.001087315
-0.9870002,-0.001078732
-0.9860002,-0.001070761
-0.9850003,-0.001062178
-0.9840002,-0.001053595
-0.9830002,-0.001045624
-0.9820002,-0.001037041
-0.9810002,-0.001029377
-0.9800002,-0.001019874
-0.9790002,-0.001011904
-0.9780002,-0.001004547
-0.9770002,-0.0009956572
-0.9760002,-0.0009873803
-0.9750002,-0.00097941
-0.9740002,-0.0009708267
-0.9730002,-0.0009625499
-0.9720002,-0.0009533535
-0.9710003,-0.0009466094
-0.9700002,-0.0009380261
-0.9690002,-0.0009288296
-0.9680002,-0.0009226986
-0.9670002,-0.0009125826
-0.9660002,-0.0009036926
-0.9650002,-0.0008975617
-0.9640002,-0.000887139
-0.9630002,-0.0008794753
-0.9620003,-0.0008727313
-0.9610002,-0.0008629217
-0.9600002,-0.0008546449
-0.9590002,-0.0008472878
-0.9580002,-0.0008377847
-0.9570003,-0.0008310407
-0.9560002,-0.0008218443
-0.9550002,-0.000813874
-0.9540002,-0.0008062103
-0.9530002,-0.0007973204
-0.9520002,-0.0007893501
-0.9510002,-0.0007816864
-0.9500002,-0.0007731031
-0.9490002,-0.0007657459
-0.9480003,-0.0007565495
-0.9470002,-0.0007488858
-0.9460002,-0.0007412221
-0.9450002,-0.0007332518
-0.9440002,-0.0007255881
-0.9430002,-0.0007173113
-0.9420002,-0.000709341
-0.9410002,-0.0007016773
-0.9400002,-0.000693094
-0.9390002,-0.0006866565
-0.9380002,-0.0006792994
-0.9370002,-0.0006707159
-0.9360002,-0.000664585
-0.9350002,-0.0006563082
-0.9340003,-0.000648951
-0.9330002,-0.0006434331
-0.9320002,-0.0006351563
-0.9310002,-0.0006290254
-0.9300002,-0.0006228944
-0.9290002,-0.0006152307
-0.9280002,-0.0006094063
-0.9270002,-0.0006035819
-0.9260002,-0.0005968378
-0.9250003,-0.000591933
-0.9240002,-0.0005858021
-0.9230002,-0.0005799776
-0.9220002,-0.0005738467
-0.9210002,-0.0005686354
-0.9200003,-0.0005634241
-0.9190002,-0.0005588258
-0.9180002,-0.0005539211
-0.9170002,-0.0005496293
-0.9160002,-0.0005441115
-0.9150002,-0.0005398199
-0.9140002,-0.0005355282
-0.9130002,-0.0005309299
-0.9120002,-0.0005272513
-0.9110003,-0.0005229597
-0.9100002,-0.0005189746
-0.9090002,-0.0005146828
-0.9080002,-0.0005097781
-0.9070002,-0.0005064061
-0.9060002,-0.0005024209
-0.9050002,-0.0004975162
-0.9040002,-0.0004944507
-0.9030002,-0.0004898525
-0.9020002,-0.0004852542
-0.9010002,-0.0004824953
-0.9000002,-0.0004769774
-0.8990002,-0.0004726858
-0.8980002,-0.0004693137
-0.8970003,-0.0004637959
-0.8960002,-0.0004601173
-0.8950002,-0.0004564387
-0.8940002,-0.0004509208
-0.8930002,-0.0004466292
-0.8920002,-0.0004420309
-0.8910002,-0.0004374327
-0.8900002,-0.0004325279
-0.8890002,-0.0004282363
-0.8880002,-0.0004233315
-0.8870002,-0.0004181202
-0.8860002,-0.0004141351
-0.8850002,-0.0004092303
-0.8840002,-0.0004037124
-0.8830003,-0.0003994207
-0.8820002,-0.0003939029
-0.8810002,-0.000388385
-0.8800002,-0.0003847064
-0.8790002,-0.000378882
-0.8780002,-0.0003736707
-0.8770002,-0.0003696856
-0.8760002,-0.0003629415
-0.8750002,-0.0003580367
-0.8740003,-0.0003540516
-0.8730002,-0.0003473075
-0.8720002,-0.0003427093
-0.8710002,-0.0003378045
-0.8700002,-0.0003310605
-0.8690003,-0.0003264622
-0.8680002,-0.0003212509
-0.8670002,-0.0003151199
-0.8660002,-0.0003102152
-0.8650002,-0.0003046973
-0.8640002,-0.0002982598
-0.8630002,-0.0002927419
-0.8620002,-0.0002875306
-0.8610002,-0.0002817062
-0.8600003,-0.0002752687
-0.8590002,-0.0002706705
-0.8580002,-0.0002642329
-0.8570002,-0.0002577954
-0.8560002,-0.0002528907
-0.8550002,-0.0002464531
-0.8540002,-0.0002397091
-0.8530002,-0.0002344978
-0.8520002,-0.0002274471
-0.8510002,-0.0002213162
-0.8500002,-0.0002157983
-0.8490002,-0.0002081346
-0.8480002,-0.0002023102
-0.8470002,-0.0001961792
-0.8460003,-0.0001888221
-0.8450002,-0.0001829976
-0.8440002,-0.000175947
-0.8430002,-0.0001688964
-0.8420002,-0.0001627655
-0.8410002,-0.0001557148
-0.8400002,-0.0001483577
-0.8390002,-0.0001416136
-0.8380002,-0.0001369339
-0.8370003,-0.0001300673
-0.8360002,-0.0001225875
-0.8350002,-0.0001157821
-0.8340002,-0.0001078425
-0.8330002,-0.0001004547
-0.8320003,-9.306688E-05
-0.8310002,-8.518859E-05
-0.8300002,-7.752488E-05
-0.8290002,-7.053559E-05
-0.8280002,-6.140045E-05
-0.8270002,-5.431919E-05
-0.8260002,-4.634893E-05
-0.8250002,-3.748968E-05
-0.8240002,-3.016318E-05
-0.8230003,-2.185572E-05
-0.8220002,-1.272058E-05
-0.8210002,-5.148843E-06
-0.8200002,4.016949E-06
-0.8190002,1.38878E-05
-0.8180002,2.164347E-05
-0.8170002,3.053337E-05
-0.8160002,3.911672E-05
-0.8150002,4.745484E-05
-0.8140002,5.655932E-05
-0.8130002,6.541856E-05
-0.8120002,7.458436E-05
-0.8110002,8.344361E-05
-0.8100002,9.245612E-05
-0.8090003,0.0001016832
-0.8080002,0.0001106344
-0.8070002,0.0001199841
-0.8060002,0.0001292419
-0.8050002,0.0001382544
-0.8040002,0.000148064
-0.8030002,0.0001568006
-0.8020002,0.0001661503
-0.8010002,0.0001758372
-0.8000003,0.0001380705
-0.8009998,8.240134E-05
-0.8019998,4.006703E-05
-0.8029998,2.729447E-06
-0.8039998,-3.108283E-05
-0.8049998,-6.222813E-05
-0.8059998,-9.196331E-05
-0.8069998,-0.0001192461
-0.8079998,-0.0001447203
-0.8089998,-0.0001700105
-0.8099998,-0.0001933695
-0.8109998,-0.0002157475
-0.8119998,-0.0002380642
-0.8129998,-0.0002584803
-0.8139998,-0.0002781914
-0.8149998,-0.0002979024
-0.8159998,-0.0003129741
-0.8169998,-0.0003310605
-0.8179998,-0.0003485337
-0.8189998,-0.0003663135
-0.8199998,-0.0003828671
-0.8209998,-0.0003981945
-0.8219998,-0.0004135219
-0.8229998,-0.0004294625
-0.8239998,-0.0004432572
-0.8249998,-0.0004579714
-0.8259998,-0.0004723792
-0.8269998,-0.0004858673
-0.8279998,-0.000499662
-0.8289998,-0.0005131501
-0.8299998,-0.000525412
-0.8309998,-0.000538287
-0.8319998,-0.000550549
-0.8329998,-0.000562811
-0.8339998,-0.0005744598
-0.8349998,-0.0005864152
-0.8359998,-0.000598064
-0.8369998,-0.0006090997
-0.8379998,-0.0006207486
-0.8389998,-0.0006311712
-0.8399998,-0.0006412873
-0.8409998,-0.0006529361
-0.8419998,-0.0006630523
-0.8429998,-0.0006728618
-0.8439998,-0.000684204
-0.8449998,-0.000693094
-0.8459998,-0.000702597
-0.8469998,-0.0007133262
-0.8479998,-0.0007219095
-0.8489998,-0.0007314125
-0.8499998,-0.0007418352
-0.8509998,-0.000750112
-0.8519998,-0.0007599215
-0.8529998,-0.0007691179
-0.8539998,-0.0007773947
-0.8549998,-0.0007865912
-0.8559998,-0.0007954811
-0.8569998,-0.0008037579
-0.8579998,-0.0008120347
-0.8589998,-0.0008212312
-0.8599998,-0.0008292014
-0.8609998,-0.0008374782
-0.8619998,-0.0008463681
-0.8629998,-0.0008543384
-0.8639998,-0.0008616955
-0.8649998,-0.000870892
-0.8659998,-0.0008785557
-0.8669998,-0.0008862194
-0.8679998,-0.0008951093
-0.8689998,-0.0009021599
-0.8699998,-0.0009101302
-0.8709998,-0.0009184069
-0.8719998,-0.000925151
-0.8729998,-0.0009334278
-0.8739998,-0.0009410915
-0.8749998,-0.0009481421
-0.8759998,-0.0009567254
-0.8769998,-0.0009640827
-0.8779998,-0.0009711333
-0.8789998,-0.00097941
-0.8799998,-0.0009864607
-0.8809998,-0.0009938178
-0.8819998,-0.001001788
-0.8829998,-0.001009145
-0.8839998,-0.001016196
-0.8849998,-0.00102386
-0.8859998,-0.00103091
-0.8869998,-0.001038574
-0.8879998,-0.001045624
-0.8889998,-0.001053288
-0.8899998,-0.001060339
-0.8909998,-0.001067389
-0.8919998,-0.001074747
-0.8929998,-0.001081797
-0.8939998,-0.001089154
-0.8949998,-0.001096205
-0.8959998,-0.001102949
-0.8969998,-0.001110919
-0.8979998,-0.001117663
-0.8989998,-0.001124714
-0.8999998,-0.001132684
-0.9009998,-0.001138815
-0.9019998,-0.001146172
-0.9029998,-0.001153836
-0.9039998,-0.001159967
-0.9049998,-0.001167937
-0.9059998,-0.001175294
-0.9069998,-0.001181732
-0.9079998,-0.001189702
-0.9089998,-0.001196753
-0.9099998,-0.00120319
-0.9109998,-0.001211161
-0.9119998,-0.001217905
-0.9129998,-0.001225262
-0.9139998,-0.001232926
-0.9149998,-0.001239363
-0.9159998,-0.00124672
-0.9169998,-0.001254384
-0.9179998,-0.001261128
-0.9189998,-0.001268485
-0.9199998,-0.001276149
-0.9209998,-0.001283506
-0.9219998,-0.001290863
-0.9229998,-0.001298527
-0.9239998,-0.001305271
-0.9249998,-0.001312935
-0.9259998,-0.001320905
-0.9269998,-0.001327342
-0.9279998,-0.0013347
-0.9289998,-0.001343283
-0.9299998,-0.001350027
-0.9309998,-0.001357078
-0.9319998,-0.001365967
-0.9329998,-0.001371792
-0.9339998,-0.001379456
-0.9349998,-0.001388039
-0.9359998,-0.001394477
-0.9369998,-0.00140214
-0.9379998,-0.001410417
-0.9389998,-0.001416855
-0.9399998,-0.001425131
-0.9409998,-0.001433102
-0.9419998,-0.001439846
-0.9429998,-0.001447816
-0.9439998,-0.00145548
-0.9449998,-0.001463143
-0.9459998,-0.001471114
-0.9469998,-0.001479084
-0.9479998,-0.001486748
-0.9489998,-0.001494718
-0.9499998,-0.001502075
-0.9509998,-0.001510352
-0.9519998,-0.001518015
-0.9529998,-0.001526292
-0.9539998,-0.001533956
-0.9549998,-0.001542233
-0.9559998,-0.001550203
-0.9569998,-0.001557867
-0.9579998,-0.001566757
-0.9589998,-0.00157442
-0.9599998,-0.001581778
-0.9609998,-0.001591281
-0.9619998,-0.001598638
-0.9629998,-0.001606301
-0.9639998,-0.001616417
-0.9649998,-0.001623775
-0.9659998,-0.001631438
-0.9669998,-0.001641248
-0.9679998,-0.001647992
-0.9689998,-0.001656575
-0.9699998,-0.001666078
-0.9709998,-0.001673435
-0.9719998,-0.001682019
-0.9729998,-0.001691215
-0.9739998,-0.001698879
-0.9749998,-0.001707156
-0.9759998,-0.001715433
-0.9769998,-0.001723709
-0.9779998,-0.001731986
-0.9789998,-0.001740876
-0.9799998,-0.001749766
-0.9809998,-0.001758043
-0.9819998,-0.001766626
-0.9829998,-0.001774903
-0.9839998,-0.001782873
-0.9849998,-0.001792683
-0.9859998,-0.001800653
-0.9869998,-0.001809236
-0.9879998,-0.00181782
-0.9889998,-0.001825483
-0.9899998,-0.001834986
-0.9909998,-0.00184357
-0.9919998,-0.00185154
-0.9929998,-0.001860736
-0.9939998,-0.001868707
-0.9949998,-0.001876677
-0.9959998,-0.001886487
-0.9969998,-0.001894763
-0.9979998,-0.001901814
-0.9989998,-0.001912237
-0.9999998,-0.001918981
-1.001,-0.001928177
-1.002,-0.001937374
-1.003,-0.001944731
-1.004,-0.00195362
-1.005,-0.001962817
-1.006,-0.001970174
-1.007,-0.001978451
-1.008,-0.001986421
-1.009,-0.001994698
-1.01,-0.002002668
-1.011,-0.002011558
-1.012,-0.002018915
-1.013,-0.002026579
-1.014,-0.002035162
-1.015,-0.002042519
-1.016,-0.00204957
-1.017,-0.002058767
-1.018,-0.002066124
-1.019,-0.002072561
-1.02,-0.002082064
-1.021,-0.002088195
-1.022,-0.002094939
-1.023,-0.002104136
-1.024,-0.002111186
-1.025,-0.002118237
-1.026,-0.00212682
-1.027,-0.002132032
-1.028,-0.002139695
-1.029,-0.002147665
-1.03,-0.00215349
-1.031,-0.002160847
-1.032,-0.002167898
-1.033,-0.002174029
-1.034,-0.002180466
-1.035,-0.002188436
-1.036,-0.002194567
-1.037,-0.002200392
-1.038,-0.002208669
-1.039,-0.002214187
-1.04,-0.002219398
-1.041,-0.002228901
-1.042,-0.002233806
-1.043,-0.002240243
-1.044,-0.002249439
-1.045,-0.002253731
-1.046,-0.002259556
-1.047,-0.002268139
-1.048,-0.002272431
-1.049,-0.002279788
-1.05,-0.002287758
-1.051,-0.002293583
-1.052,-0.00230094
-1.053,-0.002307683
-1.054,-0.002313508
-1.055,-0.002321785
-1.056,-0.002328529
-1.057,-0.00233558
-1.058,-0.002343856
-1.059,-0.002351213
-1.06,-0.002359184
-1.061,-0.002367154
-1.062,-0.002375737
-1.063,-0.002383401
-1.064,-0.002391984
-1.065,-0.002401794
-1.066,-0.002410071
-1.067,-0.00241988
-1.068,-0.002430916
-1.069,-0.002439193
-1.07,-0.002449922
-1.071,-0.002460958
-1.072,-0.002470461
-1.073,-0.002483336
-1.074,-0.002494371
-1.075,-0.002506327
-1.076,-0.002520428
-1.077,-0.002532077
-1.078,-0.002544645
-1.079,-0.002559973
-1.08,-0.002571622
-1.081,-0.002586643
-1.082,-0.002603503
-1.083,-0.002616378
-1.084,-0.002632625
-1.085,-0.002649485
-1.086,-0.002664506
-1.087,-0.002681673
-1.088,-0.002699146
-1.089,-0.002715699
-1.09,-0.002733479
-1.091,-0.002751259
-1.092,-0.002768732
-1.093,-0.002787432
-1.094,-0.002806131
-1.095,-0.002823605
-1.096,-0.002841078
-1.097,-0.00286039
-1.098,-0.002876024
-1.099,-0.002894417
-1.1,-0.002912503
-1.101,-0.002927831
-1.102,-0.002944691
-1.103,-0.002961551
-1.104,-0.002974733
-1.105,-0.002991286
-1.106,-0.003004468
-1.107,-0.002982598
-1.108,-0.00299486
-1.109,-0.003004056
-1.11,-0.003013253
-1.111,-0.003025514
-1.112,-0.003034711
-1.113,-0.003043907
-1.114,-0.003053104
-1.115,-0.003056169
-1.116,-0.003065366
-1.117,-0.003071497
-1.118,-0.003074562
-1.119,-0.003080693
-1.12,-0.003086824
-1.121,-0.003086824
-1.122,-0.003092955
-1.123,-0.003096021
-1.124,-0.003099086
-1.125,-0.003099086
-1.126,-0.003105217
-1.127,-0.003108283
-1.128,-0.003108283
-1.129,-0.003114413
-1.13,-0.003114413
-1.131,-0.003114413
-1.132,-0.003120545
-1.133,-0.003120545
-1.134,-0.00312361
-1.135,-0.003129741
-1.136,-0.003129741
-1.137,-0.003132806
-1.138,-0.003138937
-1.139,-0.003138937
-1.14,-0.003145068
-1.141,-0.003148134
-1.142,-0.003151199
-1.143,-0.00315733
-1.144,-0.003160396
-1.145,-0.003163461
-1.146,-0.003169592
-1.147,-0.003175723
-1.148,-0.003178789
-1.149,-0.003184919
-1.15,-0.003191051
-1.151,-0.003197182
-1.152,-0.003203312
-1.153,-0.003209443
-1.154,-0.003215575
-1.155,-0.003221706
-1.156,-0.003227836
-1.157,-0.003230902
-1.158,-0.003240098
-1.159,-0.003246229
-1.16,-0.00325236
-1.161,-0.003261557
-1.162,-0.003267688
-1.163,-0.003273819
-1.164,-0.003283015
-1.165,-0.003289146
-1.166,-0.003295277
-1.167,-0.003307539
-1.168,-0.003310604
-1.169,-0.003319801
-1.17,-0.003328997
-1.171,-0.003332063
-1.172,-0.003341259
-1.173,-0.003350456
-1.174,-0.003356587
-1.175,-0.003365783
-1.176,-0.003374979
-1.177,-0.00338111
-1.178,-0.003390307
-1.179,-0.003399503
-1.18,-0.003405634
-1.181,-0.003414831
-1.182,-0.003424027
-1.183,-0.003430158
-1.184,-0.003436289
-1.185,-0.003445486
-1.186,-0.003454682
-1.187,-0.003460813
-1.188,-0.003473075
-1.189,-0.003479206
-1.19,-0.003488402
-1.191,-0.003497599
-1.192,-0.003500664
-1.193,-0.003512926
-1.194,-0.003519057
-1.195,-0.003525188
-1.196,-0.00353745
-1.197,-0.003546647
-1.198,-0.003552777
-1.199,-0.003561974
-1.2,-0.00357117
-1.201,-0.003580367
-1.202,-0.003589563
-1.203,-0.00359876
-1.204,-0.003604891
-1.205,-0.003617153
-1.206,-0.003626349
-1.207,-0.003635545
-1.208,-0.003644742
-1.209,-0.003653938
-1.21,-0.003663135
-1.211,-0.003675397
-1.212,-0.003684593
-1.213,-0.00369379
-1.214,-0.003706052
-1.215,-0.003712183
-1.216,-0.003724444
-1.217,-0.003736707
-1.218,-0.003742838
-1.219,-0.003755099
-1.22,-0.003770427
-1.221,-0.003776558
-1.222,-0.00378882
-1.223,-0.003804147
-1.224,-0.003813344
-1.225,-0.003825605
-1.226,-0.003840933
-1.227,-0.003850129
-1.228,-0.003862391
-1.229,-0.003880784
-1.23,-0.00388998
-1.231,-0.003908373
-1.232,-0.003920636
-1.233,-0.003935963
-1.234,-0.00395129
-1.235,-0.003966617
-1.236,-0.003981945
-1.237,-0.004000338
-1.238,-0.0040126
-1.239,-0.004034058
-1.24,-0.004052451
-1.241,-0.004067779
-1.242,-0.004089237
-1.243,-0.004110695
-1.244,-0.004129088
-1.245,-0.004150547
-1.246,-0.004172005
-1.247,-0.004193463
-1.248,-0.004214922
-1.249,-0.004242511
-1.25,-0.00426397
-1.251,-0.004288493
-1.252,-0.004319148
-1.253,-0.004343672
-1.254,-0.004371261
-1.255,-0.004404982
-1.256,-0.004432571
-1.257,-0.004463226
-1.258,-0.004500012
-1.259,-0.004530666
-1.26,-0.004567452
-1.261,-0.004604238
-1.262,-0.004641024
-1.263,-0.004680875
-1.264,-0.004723792
-1.265,-0.004766709
-1.266,-0.004812691
-1.267,-0.004858673
-1.268,-0.004907721
-1.269,-0.004959834
-1.27,-0.005011947
-1.271,-0.005067126
-1.272,-0.00512537
-1.273,-0.00518668
-1.274,-0.005247989
-1.275,-0.00531543
-1.276,-0.005379805
-1.277,-0.005450311
-1.278,-0.005526948
-1.279,-0.005603585
-1.28,-0.005683288
-1.281,-0.005772187
-1.282,-0.005858021
-1.283,-0.005946919
-1.284,-0.006045015
-1.285,-0.006140045
-1.286,-0.006241206
-1.287,-0.006354629
-1.288,-0.006464986
-1.289,-0.006581475
-1.29,-0.006704094
-1.291,-0.006829778
-1.292,-0.006961594
-1.293,-0.00709954
-1.294,-0.007240553
-1.295,-0.007387696
-1.296,-0.00754097
-1.297,-0.007700375
-1.298,-0.007862846
-1.299,-0.008034512
-1.3,-0.008209245
-1.301,-0.008390109
-1.302,-0.008580169
-1.303,-0.008773294
-1.304,-0.008972551
-1.305,-0.009181003
-1.306,-0.009392521
-1.307,-0.009616302
-1.308,-0.009843147
-1.309,-0.01007306
-1.31,-0.01031217
-1.311,-0.01055741
-1.312,-0.01080571
-1.313,-0.01106628
-1.314,-0.01132991
-1.315,-0.01159967
-1.316,-0.01187863
-1.317,-0.01216065
-1.318,-0.01244881
-1.319,-0.01274309
-1.32,-0.01304045
-1.321,-0.0133378
-1.322,-0.01364741
-1.323,-0.01395089
-1.324,-0.01426664
-1.325,-0.01458852
-1.326,-0.01491039
-1.327,-0.01523533
-1.328,-0.01556947
-1.329,-0.01590667
-1.33,-0.01624081
-1.331,-0.01658721
-1.332,-0.01693361
-1.333,-0.01728307
-1.334,-0.01763867
-1.335,-0.0179912
-1.336,-0.01834373
-1.337,-0.01870546
-1.338,-0.01906412
-1.339,-0.01942585
-1.34,-0.0197937
-1.341,-0.02015237
-1.342,-0.02051716
-1.343,-0.02088808
-1.344,-0.02125287
-1.345,-0.02162073
-1.346,-0.02199472
-1.347,-0.02237484
-1.348,-0.02275189
-1.349,-0.02313201
-1.35,-0.023506
-1.351,-0.02387693
-1.352,-0.02424785
-1.353,-0.0246249
-1.354,-0.02500196
-1.355,-0.02539434
-1.356,-0.02576833
-1.357,-0.02615458
-1.358,-0.02654696
-1.359,-0.02693628
-1.36,-0.02731333
-1.361,-0.02768732
-1.362,-0.02806131
-1.363,-0.02845369
-1.364,-0.02883994
-1.365,-0.029217
-1.366,-0.02960018
-1.367,-0.02998643
-1.368,-0.03037575
-1.369,-0.03086824
-1.37,-0.03126676
-1.371,-0.03163461
-1.372,-0.03203313
-1.373,-0.03240098
-1.374,-0.03283015
-1.375,-0.03319801
-1.376,-0.03359652
-1.377,-0.03399504
-1.378,-0.03439355
-1.379,-0.03476141
-1.38,-0.03515992
-1.381,-0.03552778
-1.382,-0.03595695
-1.383,-0.03635546
-1.384,-0.03672331
-1.385,-0.03712183
-1.386,-0.03748969
-1.387,-0.0378882
-1.388,-0.03828671
-1.389,-0.03868522
-1.39,-0.03908373
-1.391,-0.03948225
-1.392,-0.03985011
-1.393,-0.04024862
-1.394,-0.04064713
-1.395,-0.04104565
-1.396,-0.04144416
-1.397,-0.04181201
-1.398,-0.04221053
-1.399,-0.04260904
-1.4,-0.04300755
-1.401,-0.04337541
-1.402,-0.04374327
-1.403,-0.04417244
-1.404,-0.0445403
-1.405,-0.04493881
-1.406,-0.04533732
-1.407,-0.04573583
-1.408,-0.04613435
-1.409,-0.0465022
-1.41,-0.04690072
-1.411,-0.04729923
-1.412,-0.04769774
-1.413,-0.04809625
-1.414,-0.04849477
-1.415,-0.04889328
-1.416,-0.04929179
-1.417,-0.04965965
-1.418,-0.05005816
-1.419,-0.05045668
-1.42,-0.05085519
-1.421,-0.05122305
-1.422,-0.05162156
-1.423,-0.05202007
-1.424,-0.05241859
-1.425,-0.0528171
-1.426,-0.05321561
-1.427,-0.05361412
-1.428,-0.05401264
-1.429,-0.0543805
-1.43,-0.054779
-1.431,-0.05517752
-1.432,-0.05557603
-1.433,-0.05597454
-1.434,-0.05637306
-1.435,-0.05680222
-1.436,-0.05717008
-1.437,-0.0575686
-1.438,-0.05796711
-1.439,-0.05836562
-1.44,-0.05876414
-1.441,-0.05916265
-1.442,-0.05959181
-1.443,-0.05995968
-1.444,-0.06035819
-1.445,-0.06075669
-1.446,-0.06115521
-1.447,-0.06155372
-1.448,-0.06195223
-1.449,-0.06235075
-1.45,-0.06274926
-1.451,-0.06317843
-1.452,-0.06354629
-1.453,-0.0639448
-1.454,-0.06437397
-1.455,-0.06477248
-1.456,-0.065171
-1.457,-0.06556951
-1.458,-0.06593736
-1.459,-0.06633588
-1.46,-0.0667344
-1.461,-0.06716356
-1.462,-0.06756207
-1.463,-0.06792993
-1.464,-0.06832844
-1.465,-0.06872695
-1.466,-0.06915613
-1.467,-0.06955463
-1.468,-0.06995314
-1.469,-0.07035166
-1.47,-0.07071952
-1.471,-0.07111803
-1.472,-0.07151654
-1.473,-0.07194571
-1.474,-0.07234422
-1.475,-0.07277339
-1.476,-0.07314125
-1.477,-0.07357042
-1.478,-0.07393827
-1.479,-0.07436744
-1.48,-0.07479661
-1.481,-0.07519513
-1.482,-0.07556298
-1.483,-0.07596149
-1.484,-0.07639066
-1.485,-0.07678917
-1.486,-0.07718769
-1.487,-0.0775862
-1.488,-0.07798471
-1.489,-0.07841388
-1.49,-0.07881239
-1.491,-0.0792109
-1.492,-0.07964008
-1.493,-0.08003858
-1.494,-0.08046775
-1.495,-0.08086627
-1.496,-0.08126478
-1.497,-0.08169394
-1.498,-0.08212312
-1.499,-0.08252162
-1.5,-0.08264425
-1.499,-0.08218443
-1.498,-0.0817246
-1.497,-0.08129543
-1.496,-0.08083561
-1.495,-0.08034513
-1.494,-0.07991596
-1.493,-0.0794868
-1.492,-0.07899632
-1.491,-0.07856715
-1.49,-0.07810733
-1.489,-0.07764751
-1.488,-0.077249
-1.487,-0.07678917
-1.486,-0.07632935
-1.485,-0.07590018
-1.484,-0.07544036
-1.483,-0.07501119
-1.482,-0.07455137
-1.481,-0.07415286
-1.48,-0.07369304
-1.479,-0.07326387
-1.478,-0.07280405
-1.477,-0.07237487
-1.476,-0.07194571
-1.475001,-0.07148589
-1.474,-0.07102606
-1.473,-0.0705969
-1.472,-0.07016773
-1.471,-0.06970791
-1.47,-0.0693094
-1.469,-0.06884957
-1.468,-0.0684204
-1.467,-0.06802189
-1.466,-0.06756207
-1.465,-0.06710225
-1.464,-0.06670374
-1.463,-0.06624391
-1.462,-0.06581475
-1.461,-0.06538557
-1.46,-0.06495641
-1.459,-0.06452724
-1.458,-0.06409808
-1.457,-0.06366891
-1.456,-0.06323975
-1.455,-0.06277992
-1.454,-0.06238141
-1.453,-0.06195223
-1.452,-0.06152307
-1.451,-0.0610939
-1.45,-0.06066473
-1.449,-0.06023557
-1.448,-0.05983705
-1.447,-0.05937723
-1.446,-0.05894807
-1.445,-0.05851889
-1.444,-0.05812038
-1.443,-0.05772187
-1.442,-0.0572927
-1.441,-0.05686354
-1.44,-0.05643437
-1.439,-0.0560052
-1.438,-0.05557603
-1.437,-0.05517752
-1.436,-0.05474835
-1.435,-0.05434984
-1.434,-0.05389002
-1.433,-0.0534915
-1.432,-0.05309299
-1.431,-0.05266382
-1.43,-0.05223466
-1.429,-0.05180549
-1.428,-0.05140698
-1.427,-0.05100846
-1.426,-0.0505793
-1.425,-0.05015013
-1.424,-0.04975162
-1.423,-0.04932245
-1.422,-0.04892394
-1.421,-0.04849477
-1.42,-0.04809625
-1.419,-0.04766709
-1.418,-0.04726858
-1.417,-0.04683941
-1.416,-0.0464409
-1.415,-0.04604238
-1.414,-0.04564387
-1.413,-0.0452147
-1.412,-0.04484684
-1.411,-0.04441768
-1.41,-0.04404982
-1.409,-0.04365131
-1.408,-0.04328345
-1.407,-0.04285428
-1.406,-0.04245577
-1.405,-0.04205726
-1.404,-0.04165874
-1.403,-0.04126023
-1.402,-0.04086172
-1.401,-0.04046321
-1.4,-0.04006469
-1.399,-0.03966618
-1.398,-0.03929832
-1.397,-0.03889981
-1.396,-0.03850129
-1.395,-0.03810278
-1.394,-0.03773492
-1.393,-0.03733641
-1.392,-0.03696856
-1.391,-0.03657004
-1.39,-0.03617153
-1.389,-0.03580367
-1.388,-0.03540516
-1.387,-0.0350373
-1.386,-0.03463879
-1.385,-0.03427093
-1.384,-0.03390307
-1.383,-0.03353521
-1.382,-0.0331367
-1.381,-0.03273819
-1.38,-0.03237033
-1.379,-0.03203313
-1.378,-0.03166527
-1.377,-0.03129741
-1.376,-0.03092955
-1.375,-0.03056169
-1.374,-0.03019384
-1.373,-0.02982598
-1.372,-0.02948878
-1.371,-0.02912092
-1.37,-0.02875306
-1.369,-0.0283852
-1.368,-0.028048
-1.367,-0.02764949
-1.366,-0.02731228
-1.365,-0.02694443
-1.364,-0.02660722
-1.363,-0.02627002
-1.362,-0.02593282
-1.361,-0.02556496
-1.36,-0.02522776
-1.359,-0.02489055
-1.358,-0.02452269
-1.357,-0.02418549
-1.356,-0.02381763
-1.355,-0.02351108
-1.354,-0.02317388
-1.353,-0.02283668
-1.352,-0.02249948
-1.351,-0.02219293
-1.350001,-0.02185572
-1.349,-0.02154918
-1.348,-0.02121197
-1.347,-0.02087477
-1.346,-0.02056822
-1.345,-0.02026167
-1.344,-0.01992447
-1.343,-0.01961792
-1.342,-0.01931137
-1.341,-0.01900483
-1.34,-0.01869828
-1.339,-0.01839173
-1.338,-0.01808518
-1.337,-0.01780929
-1.336,-0.01750274
-1.335,-0.01719619
-1.334,-0.0169203
-1.333,-0.01661375
-1.332,-0.01633785
-1.331,-0.01606196
-1.33,-0.01587602
-1.329,-0.01560012
-1.328,-0.01532423
-1.327,-0.01505447
-1.326,-0.01478164
-1.325,-0.01451494
-1.324,-0.01425131
-1.323,-0.01399688
-1.322,-0.01374551
-1.321,-0.0134972
-1.32,-0.01325196
-1.319,-0.01300673
-1.318,-0.01276762
-1.317,-0.01253464
-1.316,-0.01230473
-1.315,-0.01207482
-1.314,-0.01185104
-1.313,-0.01163032
-1.312,-0.01141268
-1.311,-0.01119809
-1.31,-0.0109927
-1.309,-0.01078119
-1.308,-0.0105758
-1.307,-0.01037654
-1.306,-0.01017422
-1.305,-0.009978029
-1.304,-0.009791034
-1.303,-0.00959791
-1.302,-0.009410915
-1.301,-0.009233117
-1.3,-0.009055318
-1.299,-0.008886717
-1.298,-0.00871505
-1.297,-0.008546448
-1.296,-0.008387043
-1.295,-0.008227638
-1.294,-0.008071299
-1.293,-0.00792109
-1.292,-0.007773947
-1.291,-0.007632935
-1.29,-0.007498054
-1.289,-0.007360106
-1.288,-0.007228291
-1.287,-0.007102606
-1.286,-0.006976922
-1.285,-0.006857368
-1.284,-0.006740879
-1.283,-0.006624391
-1.282,-0.006514033
-1.281,-0.006406742
-1.28,-0.00629945
-1.279,-0.006195223
-1.278,-0.006100194
-1.277,-0.006002098
-1.276,-0.005907068
-1.275,-0.005821235
-1.274,-0.005732335
-1.273,-0.005643437
-1.272,-0.005563734
-1.271,-0.005484032
-1.27,-0.005407395
-1.269,-0.005336888
-1.268,-0.005260251
-1.267,-0.005189745
-1.266,-0.00512537
-1.265,-0.005054864
-1.264,-0.004993554
-1.263,-0.004932245
-1.262,-0.004874
-1.261,-0.004815756
-1.26,-0.004757512
-1.259,-0.004702333
-1.258,-0.004653286
-1.257,-0.004601172
-1.256,-0.004552125
-1.255,-0.004506143
-1.254,-0.004457095
-1.253,-0.004414178
-1.252,-0.004371261
-1.251,-0.004328344
-1.25,-0.004285428
-1.249,-0.004248642
-1.248,-0.004208791
-1.247,-0.004168939
-1.246,-0.004138284
-1.245,-0.004098434
-1.244,-0.004064713
-1.243,-0.004030993
-1.242,-0.003997272
-1.241,-0.003963552
-1.24,-0.003935963
-1.239,-0.003905308
-1.238,-0.003874653
-1.237,-0.003850129
-1.236,-0.003819474
-1.235,-0.003794951
-1.234,-0.003767361
-1.233,-0.003739772
-1.232,-0.003715248
-1.231,-0.00369379
-1.23,-0.0036662
-1.229,-0.003644742
-1.228,-0.003620218
-1.227,-0.00359876
-1.226,-0.003577302
-1.225001,-0.003555843
-1.224,-0.003534385
-1.223,-0.003515992
-1.222,-0.003494533
-1.221,-0.003473075
-1.22,-0.003454682
-1.219,-0.003436289
-1.218,-0.003414831
-1.217,-0.003399503
-1.216,-0.003378045
-1.215,-0.003362718
-1.214,-0.003344325
-1.213,-0.003328997
-1.212,-0.003310604
-1.211,-0.003295277
-1.21,-0.00327995
-1.209,-0.003261557
-1.208,-0.003246229
-1.207,-0.003230902
-1.206,-0.003212509
-1.205,-0.003200247
-1.204,-0.003184919
-1.203,-0.003169592
-1.202,-0.00315733
-1.201,-0.003138937
-1.2,-0.003126675
-1.199,-0.003114413
-1.198,-0.003099086
-1.197,-0.003086824
-1.196,-0.003071497
-1.195,-0.003059235
-1.194,-0.003046973
-1.193,-0.003034711
-1.192,-0.003019383
-1.191,-0.003007122
-1.19,-0.00299486
-1.189,-0.002982598
-1.188,-0.002970336
-1.187,-0.002958074
-1.186,-0.002945812
-1.185,-0.00293355
-1.184,-0.002924354
-1.183,-0.002909026
-1.182,-0.00289983
-1.181,-0.002887568
-1.18,-0.002875306
-1.179,-0.002863044
-1.178,-0.002853847
-1.177,-0.002841586
-1.176,-0.002832389
-1.175,-0.002820127
-1.174,-0.002807865
-1.173,-0.002798669
-1.172,-0.002786407
-1.171,-0.002774145
-1.17,-0.002768014
-1.169,-0.002755752
-1.168,-0.00274349
-1.167,-0.002737359
-1.166,-0.002725097
-1.165,-0.002712835
-1.164,-0.002703639
-1.163,-0.002691377
-1.162,-0.00268218
-1.161,-0.002672984
-1.16,-0.002660722
-1.159,-0.002651526
-1.158,-0.002642329
-1.157,-0.002630068
-1.156,-0.002620871
-1.155,-0.002611674
-1.154,-0.002599412
-1.153,-0.002590216
-1.152,-0.00258102
-1.151,-0.002568757
-1.15,-0.002559561
-1.149,-0.002550365
-1.148,-0.002538103
-1.147,-0.002531972
-1.146,-0.00251971
-1.145,-0.002510513
-1.144,-0.002501317
-1.143,-0.002489055
-1.142,-0.002479859
-1.141,-0.002473728
-1.14,-0.002461466
-1.139,-0.002449204
-1.138,-0.002443073
-1.137,-0.002430811
-1.136,-0.002421614
-1.135,-0.002415484
-1.134,-0.002403222
-1.133,-0.002394025
-1.132,-0.002384829
-1.131,-0.002375632
-1.13,-0.002366436
-1.129,-0.002357239
-1.128,-0.002344977
-1.127,-0.002335781
-1.126,-0.002326585
-1.125,-0.002317388
-1.124,-0.002308191
-1.123,-0.002298995
-1.122,-0.002286733
-1.121,-0.002277537
-1.12,-0.00226834
-1.119,-0.002259144
-1.118,-0.002246882
-1.117,-0.002240751
-1.116,-0.002225423
-1.115,-0.002219293
-1.114,-0.002207031
-1.113,-0.002194769
-1.112,-0.002185572
-1.111,-0.002176376
-1.11,-0.002164114
-1.109,-0.002154917
-1.108,-0.002142655
-1.107,-0.002133459
-1.106,-0.002124263
-1.105,-0.002108935
-1.104,-0.002099739
-1.103,-0.002090542
-1.102,-0.00207828
-1.101,-0.002066019
-1.100001,-0.002056822
-1.099,-0.002041495
-1.098,-0.002032298
-1.097,-0.002020036
-1.096,-0.002007774
-1.095,-0.001995512
-1.094,-0.00198325
-1.093,-0.001974054
-1.092,-0.001961792
-1.091,-0.00194953
-1.09,-0.001937268
-1.089,-0.001925006
-1.088,-0.001912744
-1.087,-0.001900482
-1.086,-0.00188822
-1.085,-0.001875959
-1.084,-0.001863697
-1.083,-0.001851435
-1.082,-0.001839173
-1.081,-0.001826911
-1.08,-0.001814649
-1.079,-0.001799321
-1.078,-0.00178706
-1.077,-0.001777863
-1.076,-0.00175947
-1.075,-0.001747208
-1.074,-0.001738012
-1.073,-0.001722684
-1.072,-0.001710422
-1.071,-0.001698161
-1.07,-0.001682833
-1.069,-0.001670571
-1.068,-0.001658309
-1.067,-0.001642982
-1.066,-0.00163072
-1.065,-0.001618458
-1.064,-0.001606196
-1.063,-0.001593934
-1.062,-0.001612126
-1.061,-0.001601703
-1.06,-0.001588215
-1.059,-0.001575953
-1.058,-0.001563385
-1.057,-0.001550509
-1.056,-0.001537635
-1.055,-0.001525373
-1.054,-0.001512498
-1.053,-0.001500849
-1.052,-0.001486748
-1.051,-0.001475405
-1.05,-0.00146345
-1.049,-0.001449349
-1.048,-0.001438619
-1.047,-0.001425131
-1.046,-0.001412869
-1.045,-0.001402447
-1.044,-0.001387426
-1.043,-0.001377003
-1.042,-0.001365661
-1.041,-0.001352479
-1.04,-0.001342976
-1.039,-0.001330408
-1.038,-0.001317839
-1.037,-0.001308336
-1.036,-0.001294848
-1.035,-0.001283813
-1.034,-0.001274616
-1.033,-0.001261741
-1.032,-0.001251012
-1.031,-0.001241202
-1.03,-0.001229247
-1.029,-0.001219437
-1.028,-0.001208708
-1.027,-0.001197673
-1.026,-0.001188476
-1.025,-0.001177747
-1.024,-0.001166098
-1.023,-0.001156288
-1.022,-0.001146785
-1.021,-0.001137282
-1.02,-0.001126247
-1.019,-0.001117663
-1.018,-0.001107547
-1.017,-0.001097125
-1.016,-0.001089154
-1.015,-0.001079038
-1.014,-0.001069229
-1.013,-0.001061872
-1.012,-0.001050223
-1.011,-0.001041946
-1.01,-0.001033976
-1.009,-0.00102294
-1.008,-0.001015583
-1.007,-0.001006693
-1.006,-0.0009956572
-1.005,-0.000988913
-1.004,-0.000978797
-1.003,-0.0009711333
-1.002,-0.000963163
-1.001,-0.0009530469
-1,-0.0009456897
-0.9990004,-0.0009377195
-0.9980004,-0.0009276034
-0.9970005,-0.0009202462
-0.9960005,-0.0009110498
-0.9950004,-0.0009030796
-0.9940004,-0.0008957224
-0.9930004,-0.0008862194
-0.9920005,-0.0008779426
-0.9910004,-0.0008705854
-0.9900004,-0.000861389
-0.9890004,-0.0008537253
-0.9880005,-0.000845755
-0.9870005,-0.0008371716
-0.9860004,-0.0008292014
-0.9850004,-0.0008215377
-0.9840004,-0.000813874
-0.9830005,-0.0008046775
-0.9820005,-0.000797627
-0.9810004,-0.0007896567
-0.9800004,-0.0007801537
-0.9790004,-0.0007737162
-0.9780005,-0.000766359
-0.9770004,-0.000756856
-0.9760004,-0.0007504185
-0.9750004,-0.0007418352
-0.9740005,-0.0007329452
-0.9730005,-0.0007258946
-0.9720004,-0.0007170048
-0.9710004,-0.0007102606
-0.9700004,-0.000702597
-0.9690005,-0.0006937071
-0.9680004,-0.000686963
-0.9670004,-0.0006777665
-0.9660004,-0.0006691832
-0.9650005,-0.0006636653
-0.9640005,-0.0006538558
-0.9630004,-0.0006461921
-0.9620004,-0.0006403677
-0.9610004,-0.0006302515
-0.9600005,-0.0006225879
-0.9590005,-0.0006158438
-0.9580004,-0.0006060342
-0.9570004,-0.0005992902
-0.9560004,-0.0005913199
-0.9550005,-0.0005830431
-0.9540004,-0.0005759926
-0.9530004,-0.0005674092
-0.9520004,-0.0005606651
-0.9510005,-0.0005517752
-0.9500005,-0.0005444181
-0.9490004,-0.0005373674
-0.9480004,-0.0005284776
-0.9470004,-0.0005223466
-0.9460005,-0.0005146828
-0.9450005,-0.0005067126
-0.9440004,-0.0004999685
-0.9430004,-0.0004923049
-0.9420004,-0.0004852542
-0.9410005,-0.0004782036
-0.9400004,-0.0004696203
-0.9390004,-0.0004634893
-0.9380004,-0.0004564387
-0.9370005,-0.000448775
-0.9360005,-0.0004441768
-0.9350004,-0.0004362065
-0.9340004,-0.0004288494
-0.9330004,-0.0004245577
-0.9320005,-0.0004162809
-0.9310004,-0.0004101499
-0.9300004,-0.0004055517
-0.9290004,-0.000397888
-0.9280005,-0.0003923701
-0.9270005,-0.0003877719
-0.9260004,-0.0003810278
-0.9250004,-0.0003764296
-0.9240004,-0.0003709117
-0.9230005,-0.0003657004
-0.9220005,-0.0003601825
-0.9210004,-0.0003552778
-0.9200004,-0.0003509861
-0.9190004,-0.0003463879
-0.9180005,-0.0003420962
-0.9170004,-0.0003381111
-0.9160004,-0.0003328998
-0.9150004,-0.0003298343
-0.9140005,-0.0003255426
-0.9130005,-0.000321864
-0.9120004,-0.0003187985
-0.9110004,-0.0003148134
-0.9100004,-0.0003114414
-0.9090005,-0.0003083759
-0.9080005,-0.0003034711
-0.9070004,-0.0003013253
-0.9060004,-0.0002976467
-0.9050004,-0.000293355
-0.9040005,-0.0002915157
-0.9030004,-0.0002875306
-0.9020004,-0.0002835455
-0.9010004,-0.0002820127
-0.9000005,-0.0002774145
-0.8990005,-0.0002740425
-0.8980004,-0.0002718967
-0.8970004,-0.0002666853
-0.8960004,-0.0002642329
-0.8950005,-0.0002611674
-0.8940005,-0.0002565692
-0.8930004,-0.0002538103
-0.8920004,-0.0002495186
-0.8910004,-0.000245227
-0.8900005,-0.0002421615
-0.8890004,-0.0002378698
-0.8880004,-0.0002341912
-0.8870004,-0.0002302061
-0.8860005,-0.0002259144
-0.8850005,-0.0002228489
-0.8840004,-0.0002182507
-0.8830004,-0.0002136525
-0.8820004,-0.0002096674
-0.8810005,-0.0002050691
-0.8800004,-0.000201084
-0.8790004,-0.0001964858
-0.8780004,-0.0001918875
-0.8770005,-0.0001875959
-0.8760005,-0.0001817715
-0.8750004,-0.0001780929
-0.8740004,-0.0001731881
-0.8730004,-0.0001673637
-0.8720005,-0.0001639917
-0.8710005,-0.0001581672
-0.8700004,-0.0001523428
-0.8690004,-0.0001489708
-0.8680004,-0.0001422267
-0.8670005,-0.0001394476
-0.8660004,-0.0001361676
-0.8650004,-0.0001296074
-0.8640004,-0.0001243961
-0.8630005,-0.0001199512
-0.8620005,-0.0001132684
-0.8610004,-0.0001082717
-0.8600004,-0.000102386
-0.8590004,-9.67148E-05
-0.8580005,-9.079842E-05
-0.8570005,-8.512728E-05
-0.8560004,-7.911894E-05
-0.8550004,-7.307994E-05
-0.8540004,-6.71329E-05
-0.8530005,-6.10939E-05
-0.8520004,-5.422722E-05
-0.8510004,-4.852542E-05
-0.8500004,-4.227184E-05
-0.8490005,-3.509861E-05
-0.8480005,-2.973401E-05
-0.8470004,-2.231555E-05
-0.8460004,-1.560214E-05
-0.8450004,-9.777721E-06
-0.8440005,-1.868777E-06
-0.8430004,4.476772E-06
-0.8420004,1.119018E-05
-0.8410004,1.89152E-05
-0.8400005,2.523009E-05
-0.8390005,3.258725E-05
-0.8380004,4.031226E-05
-0.8370004,4.678043E-05
-0.8360004,5.493462E-05
-0.8350005,6.232243E-05
-0.8340005,6.900517E-05
-0.8330004,7.706739E-05
-0.8320004,8.479242E-05
-0.8310004,9.187368E-05
-0.8300005,0.0001001198
-0.8290004,0.0001077529
-0.8280004,0.0001158457
-0.8270004,0.0001234481
-0.8260005,0.0001311425
-0.8250005,0.0001394806
-0.8240004,0.0001472669
-0.8230004,0.0001551759
-0.8220004,0.000163606
-0.8210005,0.0001711471
-0.8200005,0.0001797304
-0.8190004,0.0001894786
-0.8180004,0.0001969278
-0.8170004,0.0002052965
-0.8160005,0.0002135733
-0.8150004,0.0002217582
-0.8140004,0.000229943
-0.8130004,0.0002380666
-0.8120005,0.0002470178
-0.8110005,0.0002544975
-0.8100004,0.0002628663
-0.8090004,0.0002716336
-0.8080004,0.0002789601
-0.8070005,0.0002876048
-0.8060004,0.0002998159
-0.8050004,0.0003062534
-0.8040004,0.0003154498
-0.8030005,0.0003231135
-0.8020005,0.0003307773
-0.8010004,0.0003396672
-0.8000004,0.0002924587
-0.8009996,0.0002253246
-0.8019996,0.0001750508
-0.8029996,0.0001302947
-0.8039996,8.829758E-05
-0.8049996,4.779204E-05
-0.8059996,1.330536E-05
-0.8069996,-2.059887E-05
-0.8079996,-5.048733E-05
-0.8089996,-8.01612E-05
-0.8099996,-0.0001088541
-0.8109996,-0.000134267
-0.8119996,-0.0001601703
-0.8129996,-0.0001845102
-0.8139996,-0.0002071335
-0.8149996,-0.0002297874
-0.8159996,-0.0002510312
-0.8169996,-0.0002716006
-0.8179996,-0.0002918021
-0.8189996,-0.0003096021
-0.8199996,-0.0003270753
-0.8209996,-0.0003448552
-0.8219996,-0.0003623284
-0.8229996,-0.0003785754
-0.8239996,-0.0003948225
-0.8249996,-0.0004116826
-0.8259996,-0.0004267035
-0.8269996,-0.0004423375
-0.8279996,-0.0004573583
-0.8289996,-0.0004714596
-0.8299996,-0.0004852542
-0.8309996,-0.0004999685
-0.8319996,-0.000512537
-0.8329996,-0.0005263317
-0.8339996,-0.0005392068
-0.8349996,-0.0005514687
-0.8359996,-0.0005649568
-0.8369996,-0.0005766057
-0.8379996,-0.0005882545
-0.8389996,-0.0006005164
-0.8399996,-0.0006109391
-0.8409996,-0.0006228944
-0.8419996,-0.0006345432
-0.8429996,-0.0006449659
-0.8439996,-0.0006560017
-0.8449996,-0.0006670374
-0.8459996,-0.0006768469
-0.8469996,-0.0006872696
-0.8479996,-0.0006973856
-0.8489996,-0.0007075017
-0.8499996,-0.0007170048
-0.8509996,-0.0007274274
-0.8519996,-0.0007369304
-0.8529996,-0.0007458202
-0.8539996,-0.0007559364
-0.8549996,-0.0007648263
-0.8559996,-0.0007737162
-0.8569996,-0.0007835258
-0.8579996,-0.0007918025
-0.8589996,-0.0008003859
-0.8599996,-0.0008101954
-0.8609996,-0.0008181657
-0.8619996,-0.0008264424
-0.8629996,-0.0008356389
-0.8639996,-0.0008433026
-0.8649996,-0.0008521925
-0.8659996,-0.0008601628
-0.8669996,-0.000868133
-0.8679996,-0.000877023
-0.8689996,-0.0008846867
-0.8699996,-0.0008926569
-0.8709996,-0.0009015468
-0.8719996,-0.0009085974
-0.8729996,-0.0009168742
-0.8739996,-0.0009248445
-0.8749996,-0.0009315885
-0.8759996,-0.0009404784
-0.8769996,-0.0009484487
-0.8779996,-0.0009554993
-0.8789996,-0.0009637761
-0.8799996,-0.0009714398
-0.8809996,-0.000978797
-0.8819996,-0.0009864607
-0.8829996,-0.0009947375
-0.8839996,-0.001001788
-0.8849996,-0.001008839
-0.8859996,-0.001017729
-0.8869996,-0.001024473
-0.8879996,-0.001031217
-0.8889996,-0.0010398
-0.8899996,-0.001046238
-0.8909996,-0.001053288
-0.8919996,-0.001061872
-0.8929996,-0.001068309
-0.8939996,-0.001075053
-0.8949996,-0.00108333
-0.8959996,-0.001089154
-0.8969996,-0.001097431
-0.8979996,-0.001104788
-0.8989996,-0.001111226
-0.8999996,-0.001119503
-0.9009996,-0.00112686
-0.9019996,-0.001133297
-0.9029996,-0.001141268
-0.9039996,-0.001148012
-0.9049996,-0.001155369
-0.9059996,-0.001163033
-0.9069996,-0.001170083
-0.9079996,-0.001176827
-0.9089996,-0.001185104
-0.9099996,-0.001191541
-0.9109996,-0.001199205
-0.9119996,-0.001206562
-0.9129996,-0.001214226
-0.9139996,-0.00122097
-0.9149996,-0.001228327
-0.9159996,-0.001235991
-0.9169996,-0.001242429
-0.9179996,-0.001250092
-0.9189996,-0.001257756
-0.9199996,-0.0012645
-0.9209996,-0.001272777
-0.9219996,-0.001280134
-0.9229996,-0.001287185
-0.9239996,-0.001295768
-0.9249996,-0.001302512
-0.9259996,-0.001309869
-0.9269996,-0.001318146
-0.9279996,-0.001324583
-0.9289996,-0.001333167
-0.9299996,-0.00134083
-0.9309996,-0.001347268
-0.9319996,-0.001356158
-0.9329996,-0.001363515
-0.9339996,-0.001370259
-0.9349996,-0.001378843
-0.9359996,-0.0013862
-0.9369996,-0.001393557
-0.9379996,-0.00140214
-0.9389996,-0.001409497
-0.9399996,-0.001417774
-0.9409996,-0.001425744
-0.9419996,-0.001433408
-0.9429996,-0.001441378
-0.9439996,-0.001449349
-0.9449996,-0.001457319
-0.9459996,-0.001465596
-0.9469996,-0.001473566
-0.9479996,-0.001481843
-0.9489996,-0.001490119
-0.9499996,-0.001498396
-0.9509996,-0.001506367
-0.9519996,-0.001514337
-0.9529996,-0.00152384
-0.9539996,-0.001531197
-0.9549996,-0.001539474
-0.9559996,-0.001550203
-0.9569996,-0.001557254
-0.9579996,-0.001565837
-0.9589996,-0.00157626
-0.9599996,-0.001582697
-0.9609996,-0.0015922
-0.9619996,-0.001602623
-0.9629996,-0.001609367
-0.9639996,-0.001619789
-0.9649996,-0.001629292
-0.9659996,-0.00163665
-0.9669996,-0.001646459
-0.9679996,-0.001655349
-0.9689996,-0.001663932
-0.9699996,-0.001673742
-0.9709996,-0.001682938
-0.9719996,-0.001691828
-0.9729996,-0.001700718
-0.9739996,-0.001710221
-0.9749996,-0.001719111
-0.9759996,-0.001727695
-0.9769996,-0.001738424
-0.9779996,-0.0017467
-0.9789996,-0.001755897
-0.9799996,-0.001766013
-0.9809996,-0.001775209
-0.9819996,-0.001785019
-0.9829996,-0.001794828
-0.9839996,-0.001803105
-0.9849996,-0.001814448
-0.9859996,-0.001823031
-0.9869996,-0.001832227
-0.9879996,-0.00184357
-0.9889996,-0.001852153
-0.9899996,-0.001861656
-0.9909996,-0.001872692
-0.9919996,-0.001880662
-0.9929996,-0.001891085
-0.9939996,-0.001901814
-0.9949996,-0.001909784
-0.9959996,-0.001920207
-0.9969996,-0.001930323
-0.9979996,-0.0019386
-0.9989996,-0.001949022
-0.9999996,-0.001958525
-1.001,-0.001967722
-1.002,-0.001977531
-1.003,-0.001987034
-1.004,-0.001996844
-1.005,-0.002005734
-1.006,-0.002015543
-1.007,-0.002024127
-1.008,-0.002033323
-1.009,-0.002044052
-1.01,-0.002051103
-1.011,-0.002061525
-1.012,-0.002071335
-1.013,-0.002078692
-1.014,-0.002088502
-1.015,-0.002098005
-1.016,-0.002104749
-1.017,-0.002115171
-1.018,-0.002123755
-1.019,-0.002131725
-1.02,-0.002141534
-1.021,-0.002148892
-1.022,-0.002157168
-1.023,-0.002166671
-1.024,-0.002174948
-1.025,-0.002182918
-1.026,-0.002193035
-1.027,-0.002199166
-1.028,-0.002208056
-1.029,-0.002217558
-1.03,-0.002223077
-1.031,-0.00223166
-1.032,-0.002242082
-1.033,-0.002248213
-1.034,-0.002255264
-1.035,-0.002265993
-1.036,-0.002272431
-1.037,-0.002278868
-1.038,-0.002289597
-1.039,-0.002296341
-1.04,-0.00230094
-1.041,-0.002312895
-1.042,-0.002319332
-1.043,-0.002325157
-1.044,-0.002335273
-1.045,-0.002341404
-1.046,-0.002348761
-1.047,-0.002358264
-1.048,-0.002364395
-1.049,-0.002372672
-1.05,-0.002380029
-1.051,-0.002386773
-1.052,-0.002396889
-1.053,-0.002404553
-1.054,-0.002411603
-1.055,-0.002420187
-1.056,-0.002427544
-1.057,-0.002435821
-1.058,-0.002444711
-1.059,-0.002453294
-1.06,-0.002460958
-1.061,-0.00247138
-1.062,-0.002479351
-1.063,-0.002487628
-1.064,-0.002496517
-1.065,-0.002507247
-1.066,-0.002513991
-1.067,-0.00252472
-1.068,-0.002536369
-1.069,-0.002543419
-1.07,-0.002554149
-1.071,-0.002565797
-1.072,-0.002572848
-1.073,-0.002585723
-1.074,-0.002596759
-1.075,-0.002605342
-1.076,-0.00261883
-1.077,-0.002628946
-1.078,-0.002639062
-1.079,-0.002652857
-1.08,-0.002662667
-1.081,-0.002673702
-1.082,-0.002687497
-1.083,-0.002697613
-1.084,-0.002709568
-1.085,-0.00272275
-1.086,-0.002733173
-1.087,-0.002745741
-1.088,-0.00275831
-1.089,-0.002769345
-1.09,-0.002780381
-1.091,-0.00279295
-1.092,-0.002803985
-1.093,-0.002815021
-1.094,-0.002828203
-1.095,-0.002837706
-1.096,-0.002847209
-1.097,-0.002860084
-1.098,-0.002869587
-1.099,-0.002878783
-1.1,-0.002890738
-1.101,-0.002897483
-1.102,-0.002907292
-1.103,-0.002917715
-1.104,-0.002922926
-1.105,-0.002933349
-1.106,-0.00293948
-1.107,-0.002944691
-1.108,-0.002954807
-1.109,-0.002958486
-1.11,-0.002963084
-1.111,-0.002970748
-1.112,-0.0029732
-1.113,-0.002976572
-1.114,-0.002982396
-1.115,-0.002984542
-1.116,-0.002986075
-1.117,-0.002989754
-1.118,-0.00299098
-1.119,-0.002991899
-1.12,-0.002994352
-1.121,-0.002995578
-1.122,-0.002994965
-1.123,-0.002997111
-1.124,-0.002997417
-1.125,-0.002995885
-1.126,-0.00299987
-1.127,-0.002964205
-1.128,-0.002961139
-1.129,-0.002964205
-1.13,-0.002961139
-1.131,-0.002961139
-1.132,-0.002964205
-1.133,-0.002961139
-1.134,-0.002964205
-1.135,-0.00296727
-1.136,-0.002964205
-1.137,-0.00296727
-1.138,-0.002970336
-1.139,-0.002970336
-1.14,-0.002973401
-1.141,-0.002976467
-1.142,-0.002976467
-1.143,-0.002982598
-1.144,-0.002982598
-1.145,-0.002988729
-1.146,-0.002991794
-1.147,-0.00299486
-1.148,-0.002997925
-1.149,-0.003004056
-1.15,-0.003007122
-1.151,-0.003010187
-1.152,-0.003016318
-1.153,-0.003019383
-1.154,-0.003025514
-1.155,-0.003031645
-1.156,-0.003034711
-1.157,-0.003040842
-1.158,-0.003046973
-1.159,-0.003050038
-1.16,-0.003056169
-1.161,-0.0030623
-1.162,-0.003068431
-1.163,-0.003074562
-1.164,-0.003080693
-1.165,-0.003086824
-1.166,-0.003092955
-1.167,-0.003102152
-1.168,-0.003105217
-1.169,-0.003114413
-1.17,-0.003120545
-1.171,-0.003126675
-1.172,-0.003135872
-1.173,-0.003142003
-1.174,-0.003148134
-1.175,-0.00315733
-1.176,-0.003163461
-1.177,-0.003169592
-1.178,-0.003178789
-1.179,-0.003184919
-1.18,-0.003191051
-1.181,-0.003203312
-1.182,-0.003206378
-1.183,-0.003212509
-1.184,-0.003224771
-1.185,-0.003230902
-1.186,-0.003237033
-1.187,-0.003246229
-1.188,-0.00325236
-1.189,-0.003261557
-1.19,-0.003270753
-1.191,-0.00327995
-1.192,-0.003286081
-1.193,-0.003295277
-1.194,-0.003304473
-1.195,-0.003310604
-1.196,-0.003322866
-1.197,-0.003328997
-1.198,-0.003338194
-1.199,-0.00334739
-1.2,-0.003353521
-1.201,-0.003365783
-1.202,-0.003374979
-1.203,-0.003384176
-1.204,-0.003396438
-1.205,-0.003405634
-1.206,-0.003414831
-1.207,-0.003427093
-1.208,-0.003436289
-1.209,-0.003445486
-1.21,-0.003460813
-1.211,-0.003470009
-1.212,-0.003479206
-1.213,-0.003494533
-1.214,-0.00350373
-1.215,-0.003515992
-1.216,-0.003531319
-1.217,-0.003540515
-1.218,-0.003555843
-1.219,-0.003568105
-1.22,-0.003580367
-1.221,-0.003595694
-1.222,-0.003607956
-1.223,-0.003623284
-1.224,-0.003638611
-1.225,-0.003653938
-1.226,-0.003669266
-1.227,-0.003684593
-1.228,-0.003702986
-1.229,-0.003718314
-1.23,-0.003736707
-1.231,-0.003758165
-1.232,-0.003773492
-1.233,-0.003794951
-1.234,-0.003813344
-1.235,-0.003834802
-1.236,-0.00385626
-1.237,-0.003880784
-1.238,-0.003899177
-1.239,-0.003926767
-1.24,-0.00395129
-1.241,-0.003975814
-1.242,-0.004003403
-1.243,-0.004030993
-1.244,-0.004058582
-1.245,-0.004092303
-1.246,-0.004119892
-1.247,-0.004153612
-1.248,-0.004190398
-1.249,-0.004221053
-1.25,-0.004257839
-1.251,-0.00429769
-1.252,-0.004334475
-1.253,-0.004374327
-1.254,-0.004420309
-1.255,-0.004463226
-1.256,-0.004509208
-1.257,-0.004561321
-1.258,-0.004610369
-1.259,-0.004659417
-1.26,-0.004717661
-1.261,-0.004775905
-1.262,-0.004834149
-1.263,-0.004898524
-1.264,-0.0049629
-1.265,-0.00503034
-1.266,-0.005100846
-1.267,-0.005177483
-1.268,-0.00525412
-1.269,-0.005333823
-1.27,-0.005416591
-1.271,-0.005508556
-1.272,-0.005597454
-1.273,-0.00569555
-1.274,-0.00579671
-1.275,-0.005897872
-1.276,-0.006008229
-1.277,-0.006121652
-1.278,-0.00623814
-1.279,-0.006360759
-1.28,-0.006492575
-1.281,-0.006624391
-1.282,-0.006762337
-1.283,-0.006906416
-1.284,-0.007056624
-1.285,-0.007212963
-1.286,-0.007372369
-1.287,-0.00754097
-1.288,-0.007712637
-1.289,-0.007893501
-1.29,-0.00807743
-1.291,-0.008270555
-1.292,-0.008466746
-1.293,-0.008672133
-1.294,-0.008883652
-1.295,-0.009101301
-1.296,-0.009322016
-1.297,-0.009551927
-1.298,-0.009784903
-1.299,-0.01002401
-1.3,-0.01027232
-1.301,-0.01052369
-1.302,-0.01077812
-1.303,-0.01104482
-1.304,-0.01131151
-1.305,-0.01158434
-1.306,-0.0118633
-1.307,-0.01215146
-1.308,-0.01243961
-1.309,-0.01273696
-1.31,-0.01303738
-1.311,-0.01334086
-1.312,-0.01365661
-1.313,-0.01397235
-1.314,-0.01429116
-1.315,-0.01462223
-1.316,-0.01495331
-1.317,-0.01528438
-1.318,-0.01562771
-1.319,-0.01596492
-1.32,-0.01629905
-1.321,-0.01665158
-1.322,-0.01699492
-1.323,-0.01734132
-1.324,-0.01769692
-1.325,-0.01804945
-1.326,-0.01840811
-1.327,-0.01876983
-1.328,-0.01912543
-1.329,-0.01948716
-1.33,-0.01985195
-1.331,-0.0202198
-1.332,-0.02059073
-1.333,-0.02096165
-1.334,-0.02133258
-1.335,-0.02170656
-1.336,-0.02207136
-1.337,-0.02244535
-1.338,-0.0228132
-1.339,-0.02318413
-1.34,-0.02356118
-1.341,-0.0239413
-1.342,-0.02432142
-1.343,-0.02469541
-1.344,-0.0250694
-1.345,-0.02544645
-1.346,-0.02582657
-1.347,-0.02620669
-1.348,-0.02658988
-1.349,-0.02696693
-1.35,-0.02735012
-1.351,-0.02773943
-1.352,-0.02811342
-1.353,-0.02848741
-1.354,-0.02887366
-1.355,-0.02926604
-1.356,-0.02965229
-1.357,-0.03003855
-1.358,-0.03042786
-1.359,-0.03092955
-1.36,-0.03129741
-1.361,-0.03169592
-1.362,-0.03206378
-1.363,-0.0324623
-1.364,-0.03289146
-1.365,-0.03328998
-1.366,-0.03368849
-1.367,-0.034087
-1.368,-0.03448552
-1.369,-0.03485337
-1.37,-0.03525188
-1.371,-0.0356504
-1.372,-0.03604891
-1.373,-0.03644742
-1.374,-0.03684593
-1.375,-0.03721379
-1.376,-0.0376123
-1.377,-0.03804147
-1.378,-0.03840933
-1.379,-0.0388385
-1.38,-0.03920636
-1.381,-0.03960487
-1.382,-0.04003404
-1.383,-0.04043255
-1.384,-0.04083106
-1.385,-0.04122957
-1.386,-0.04162809
-1.387,-0.0420266
-1.388,-0.04242511
-1.389,-0.04282362
-1.39,-0.04322214
-1.391,-0.04362065
-1.392,-0.04401916
-1.393,-0.04438702
-1.394,-0.04478553
-1.395,-0.04518405
-1.396,-0.04558256
-1.397,-0.04601173
-1.398,-0.04637958
-1.399,-0.0467781
-1.4,-0.04717661
-1.401,-0.04757512
-1.402,-0.04797364
-1.403,-0.04837215
-1.404,-0.04877066
-1.405,-0.04919983
-1.406,-0.04956769
-1.407,-0.0499662
-1.408,-0.05036471
-1.409,-0.05076323
-1.41,-0.05113108
-1.411,-0.05156025
-1.412,-0.05198942
-1.413,-0.05238793
-1.414,-0.05278645
-1.415,-0.05318496
-1.416,-0.05358347
-1.417,-0.05398199
-1.418,-0.0543805
-1.419,-0.054779
-1.42,-0.05520818
-1.421,-0.05563734
-1.422,-0.05603585
-1.423,-0.05646503
-1.424,-0.05686354
-1.425,-0.05726204
-1.426,-0.05769122
-1.427,-0.05808973
-1.428,-0.05848824
-1.429,-0.05891741
-1.43,-0.05931592
-1.431,-0.05971443
-1.432,-0.06011295
-1.433,-0.06054211
-1.434,-0.06094063
-1.435,-0.0613698
-1.436,-0.0617683
-1.437,-0.06216682
-1.438,-0.06259599
-1.439,-0.0629945
-1.44,-0.06342367
-1.441,-0.06379153
-1.442,-0.06419004
-1.443,-0.06461921
-1.444,-0.06504837
-1.445,-0.06544688
-1.446,-0.06587606
-1.447,-0.06630522
-1.448,-0.06670374
-1.449,-0.06710225
-1.45,-0.06750076
-1.451,-0.06792993
-1.452,-0.0683591
-1.453,-0.06875761
-1.454,-0.06918678
-1.455,-0.06958529
-1.456,-0.0699838
-1.457,-0.07041297
-1.458,-0.07084214
-1.459,-0.07120999
-1.46,-0.07163917
-1.461,-0.07206833
-1.462,-0.07246684
-1.463,-0.07289601
-1.464,-0.07329452
-1.465,-0.07366238
-1.466,-0.07412221
-1.467,-0.07455137
-1.468,-0.07491923
-1.469,-0.07531774
-1.47,-0.07574691
-1.471,-0.07617608
-1.472,-0.07657459
-1.473,-0.07700375
-1.474,-0.07740227
-1.475,-0.07780078
-1.476,-0.0782606
-1.477,-0.07865912
-1.478,-0.07908829
-1.479,-0.07954811
-1.48,-0.07994662
-1.481,-0.08037578
-1.482,-0.08080496
-1.483,-0.08120347
-1.484,-0.08163264
-1.485,-0.0820618
-1.486,-0.08246031
-1.487,-0.08288948
-1.488,-0.08331865
-1.489,-0.08374782
-1.49,-0.08417699
-1.491,-0.08460616
-1.492,-0.08500466
-1.493,-0.08543383
-1.494,-0.085863
-1.495,-0.08626151
-1.496,-0.08669069
-1.497,-0.08711985
-1.498,-0.08754902
-1.499,-0.08797818
-1.5,-0.08807015
-1.499001,-0.08761033
-1.498001,-0.08718116
-1.497001,-0.08666003
-1.496001,-0.0862002
-1.495001,-0.08574038
-1.494001,-0.08528056
-1.493001,-0.08482074
-1.492001,-0.08436092
-1.491001,-0.08390109
-1.490001,-0.08341061
-1.489001,-0.08298145
-1.488001,-0.08249097
-1.487001,-0.0820618
-1.486001,-0.08160198
-1.485001,-0.08114216
-1.484001,-0.08065169
-1.483001,-0.08022251
-1.482001,-0.07976269
-1.481001,-0.07930287
-1.480001,-0.07884305
-1.479001,-0.07838323
-1.478001,-0.0779234
-1.477001,-0.07749423
-1.476001,-0.07703441
-1.475001,-0.07657459
-1.474001,-0.07614543
-1.473001,-0.0756856
-1.472001,-0.07522578
-1.471001,-0.07479661
-1.470001,-0.07433679
-1.469001,-0.07387697
-1.468001,-0.07341714
-1.467001,-0.07298797
-1.466001,-0.07252815
-1.465001,-0.07209899
-1.464001,-0.07163917
-1.463001,-0.07120999
-1.462001,-0.07075017
-1.461001,-0.07029035
-1.460001,-0.06986118
-1.459001,-0.06937071
-1.458001,-0.06897219
-1.457001,-0.06854302
-1.456001,-0.06805255
-1.455001,-0.06762338
-1.454001,-0.06719422
-1.453001,-0.0667344
-1.452001,-0.06630522
-1.451001,-0.06587606
-1.450001,-0.06541623
-1.449001,-0.06498706
-1.448001,-0.0645579
-1.447001,-0.06409808
-1.446001,-0.06366891
-1.445001,-0.06320909
-1.444001,-0.06277992
-1.443001,-0.06235075
-1.442001,-0.06189093
-1.441001,-0.06146176
-1.440001,-0.06103259
-1.439001,-0.06060342
-1.438001,-0.06017426
-1.437001,-0.05971443
-1.436001,-0.05928526
-1.435001,-0.0588561
-1.434001,-0.05839628
-1.433001,-0.05796711
-1.432001,-0.05753794
-1.431001,-0.05710877
-1.430001,-0.05667961
-1.429001,-0.05625044
-1.428001,-0.05582127
-1.427001,-0.05539211
-1.426001,-0.05496293
-1.425001,-0.05453377
-1.424001,-0.0541046
-1.423001,-0.05367543
-1.422001,-0.05324627
-1.421001,-0.0528171
-1.420001,-0.05238793
-1.419001,-0.05198942
-1.418001,-0.05152959
-1.417001,-0.05113108
-1.416001,-0.05073257
-1.415001,-0.05027274
-1.414001,-0.04984358
-1.413001,-0.04944507
-1.412001,-0.0490159
-1.411001,-0.04858673
-1.410001,-0.04815757
-1.409001,-0.04775905
-1.408001,-0.04732988
-1.407001,-0.04693137
-1.406001,-0.0465022
-1.405001,-0.04607304
-1.404001,-0.04564387
-1.403001,-0.04524536
-1.402001,-0.04484684
-1.401001,-0.04441768
-1.400001,-0.04404982
-1.399001,-0.04362065
-1.398001,-0.04319149
-1.397001,-0.04279297
-1.396001,-0.0423638
-1.395001,-0.04196529
-1.394001,-0.04159743
-1.393001,-0.04116827
-1.392001,-0.04076975
-1.391001,-0.04037124
-1.390001,-0.03997273
-1.389001,-0.03957421
-1.388001,-0.0391757
-1.387001,-0.03874653
-1.386001,-0.03834802
-1.385001,-0.03794951
-1.384001,-0.037551
-1.383001,-0.03715248
-1.382001,-0.03675397
-1.381001,-0.03635546
-1.380001,-0.0359876
-1.379001,-0.03561974
-1.378001,-0.03522123
-1.377001,-0.03482271
-1.376001,-0.0344242
-1.375001,-0.03402569
-1.374001,-0.03365783
-1.373001,-0.03325932
-1.372001,-0.03289146
-1.371001,-0.03249295
-1.370001,-0.03212509
-1.369001,-0.03172658
-1.368001,-0.03135872
-1.367001,-0.03096021
-1.366001,-0.03059235
-1.365001,-0.03019384
-1.364001,-0.02982598
-1.363001,-0.02945812
-1.362001,-0.02909026
-1.361001,-0.02872241
-1.360001,-0.02835455
-1.359001,-0.02801734
-1.358001,-0.02764949
-1.357001,-0.02728163
-1.356001,-0.02691377
-1.355001,-0.02654591
-1.354001,-0.02620871
-1.353001,-0.02584085
-1.352001,-0.02547299
-1.351001,-0.02513579
-1.350001,-0.02479859
-1.349001,-0.02443073
-1.348001,-0.02406287
-1.347001,-0.02372567
-1.346001,-0.02338847
-1.345001,-0.02305126
-1.344001,-0.02271406
-1.343001,-0.02237686
-1.342001,-0.02203965
-1.341001,-0.02170245
-1.340001,-0.02136525
-1.339001,-0.02102804
-1.338001,-0.0207215
-1.337001,-0.02038429
-1.336001,-0.02004709
-1.335001,-0.01974054
-1.334001,-0.01940334
-1.333001,-0.01906613
-1.332001,-0.01872893
-1.331001,-0.01842238
-1.330001,-0.01811584
-1.329001,-0.01780929
-1.328001,-0.01750274
-1.327001,-0.01719619
-1.326001,-0.01688964
-1.325001,-0.01658309
-1.324001,-0.0163072
-1.323001,-0.01600065
-1.322001,-0.01583617
-1.321001,-0.01555108
-1.320001,-0.01526905
-1.319001,-0.01499009
-1.318001,-0.01471727
-1.317001,-0.01444444
-1.316001,-0.01417774
-1.315001,-0.01391411
-1.314001,-0.01365661
-1.313001,-0.01339604
-1.312001,-0.01314161
-1.311001,-0.01288104
-1.310001,-0.01263274
-1.309001,-0.01238443
-1.308001,-0.01213919
-1.307001,-0.01190315
-1.306001,-0.01166711
-1.305001,-0.01143107
-1.304001,-0.01120729
-1.303001,-0.01098044
-1.302001,-0.01075973
-1.301001,-0.01054514
-1.300001,-0.01032443
-1.299001,-0.01011291
-1.298001,-0.009910588
-1.297001,-0.009708267
-1.296001,-0.009512075
-1.295001,-0.00931895
-1.294001,-0.00912889
-1.293001,-0.008941895
-1.292001,-0.008761032
-1.291001,-0.008583235
-1.290001,-0.008408502
-1.289001,-0.008242966
-1.288001,-0.008074365
-1.287001,-0.007911894
-1.286001,-0.007752489
-1.285001,-0.007596149
-1.284001,-0.00744594
-1.283001,-0.007301863
-1.282001,-0.007154719
-1.281001,-0.007013707
-1.280001,-0.006878826
-1.279001,-0.006743945
-1.278001,-0.006615194
-1.277001,-0.006495641
-1.276001,-0.006369956
-1.275001,-0.006253468
-1.274001,-0.006140045
-1.273001,-0.006029687
-1.272001,-0.005922395
-1.271001,-0.005821235
-1.270001,-0.005717008
-1.269001,-0.005618913
-1.268001,-0.005523883
-1.267001,-0.005431918
-1.266001,-0.005346085
-1.265001,-0.005260251
-1.264001,-0.005174418
-1.263001,-0.005097781
-1.262001,-0.005021143
-1.261001,-0.004944507
-1.260001,-0.004874
-1.259001,-0.004803495
-1.258001,-0.004732988
-1.257001,-0.004668613
-1.256001,-0.004607304
-1.255001,-0.004545994
-1.254001,-0.00448775
-1.253001,-0.004432571
-1.252001,-0.004374327
-1.251001,-0.004322214
-1.250001,-0.004270101
-1.249001,-0.004217987
-1.248001,-0.004172005
-1.247001,-0.004126023
-1.246001,-0.004076975
-1.245001,-0.004037124
-1.244001,-0.003991141
-1.243001,-0.003948225
-1.242001,-0.003911439
-1.241001,-0.003871588
-1.240001,-0.003834802
-1.239001,-0.003801082
-1.238001,-0.003764296
-1.237001,-0.003730575
-1.236001,-0.003696855
-1.235001,-0.0036662
-1.234001,-0.00363248
-1.233001,-0.003604891
-1.232001,-0.00357117
-1.231001,-0.003543581
-1.230001,-0.003515992
-1.229001,-0.003485337
-1.228001,-0.003460813
-1.227001,-0.003436289
-1.226001,-0.003411765
-1.225001,-0.003384176
-1.224001,-0.003362718
-1.223001,-0.003338194
-1.222001,-0.00331367
-1.221001,-0.003295277
-1.220001,-0.003270753
-1.219001,-0.003249295
-1.218001,-0.003230902
-1.217001,-0.003206378
-1.216001,-0.003187985
-1.215001,-0.003169592
-1.214001,-0.003148134
-1.213001,-0.003132806
-1.212001,-0.003114413
-1.211001,-0.003096021
-1.210001,-0.003077628
-1.209001,-0.003059235
-1.208001,-0.003043907
-1.207001,-0.003025514
-1.206001,-0.003010187
-1.205001,-0.00299486
-1.204001,-0.002976467
-1.203001,-0.002961139
-1.202001,-0.002945812
-1.201001,-0.00293355
-1.200001,-0.002918222
-1.199001,-0.002902895
-1.198001,-0.002887568
-1.197001,-0.00287224
-1.196001,-0.002856913
-1.195001,-0.002844651
-1.194001,-0.002832389
-1.193001,-0.002813996
-1.192001,-0.0028048
-1.191001,-0.002792538
-1.190001,-0.00277721
-1.189001,-0.002764949
-1.188001,-0.002749621
-1.187001,-0.002737359
-1.186001,-0.002728163
-1.185001,-0.002712835
-1.184001,-0.002703639
-1.183001,-0.002691377
-1.182001,-0.002679115
-1.181001,-0.002666853
-1.180001,-0.002654591
-1.179001,-0.002642329
-1.178001,-0.002633133
-1.177001,-0.002620871
-1.176001,-0.002608609
-1.175001,-0.002596347
-1.174001,-0.002587151
-1.173001,-0.002577954
-1.172001,-0.002565692
-1.171001,-0.00255343
-1.170001,-0.002544234
-1.169001,-0.002531972
-1.168001,-0.002522775
-1.167001,-0.002510513
-1.166001,-0.002501317
-1.165001,-0.00249212
-1.164001,-0.002479859
-1.163001,-0.002467597
-1.162001,-0.0024584
-1.161001,-0.002446138
-1.160001,-0.002436942
-1.159001,-0.002427745
-1.158001,-0.002415484
-1.157001,-0.002406287
-1.156001,-0.002397091
-1.155001,-0.002384829
-1.154001,-0.002378698
-1.153001,-0.002366436
-1.152001,-0.002357239
-1.151001,-0.002348043
-1.150001,-0.002335781
-1.149001,-0.002326585
-1.148001,-0.002317388
-1.147001,-0.002305126
-1.146001,-0.00229593
-1.145001,-0.002286733
-1.144001,-0.002277537
-1.143001,-0.00226834
-1.142001,-0.002259144
-1.141001,-0.002249948
-1.140001,-0.002237685
-1.139001,-0.002228489
-1.138001,-0.002219293
-1.137001,-0.002207031
-1.136001,-0.0022009
-1.135001,-0.002188638
-1.134001,-0.002179441
-1.133001,-0.00217331
-1.132001,-0.002161048
-1.131001,-0.002151852
-1.130001,-0.002145721
-1.129001,-0.002133459
-1.128001,-0.002124263
-1.127001,-0.002115066
-1.126001,-0.002102804
-1.125001,-0.002096673
-1.124001,-0.002087477
-1.123001,-0.00207828
-1.122001,-0.002066019
-1.121001,-0.002056822
-1.120001,-0.002047626
-1.119001,-0.002038429
-1.118001,-0.002029233
-1.117001,-0.002016971
-1.116001,-0.002007774
-1.115001,-0.001998578
-1.114001,-0.001986316
-1.113001,-0.00197712
-1.112001,-0.001967923
-1.111001,-0.001955661
-1.110001,-0.001946465
-1.109001,-0.001937268
-1.108001,-0.001925006
-1.107001,-0.00191581
-1.106001,-0.001906613
-1.105001,-0.001891286
-1.104001,-0.001885155
-1.103001,-0.001872893
-1.102001,-0.001860631
-1.101001,-0.0018545
-1.100001,-0.001842238
-1.099001,-0.001829976
-1.098001,-0.00182078
-1.097001,-0.001808518
-1.096001,-0.001796256
-1.095001,-0.00178706
-1.094001,-0.001774798
-1.093001,-0.001762536
-1.092001,-0.001753339
-1.091001,-0.001741077
-1.090001,-0.001728815
-1.089001,-0.001719619
-1.088001,-0.001707357
-1.087001,-0.001695095
-1.086001,-0.001685899
-1.085001,-0.001673637
-1.084001,-0.001658309
-1.083001,-0.001649113
-1.082001,-0.001636851
-1.081001,-0.001624589
-1.080001,-0.001615393
-1.079001,-0.001603131
-1.078001,-0.001622242
-1.077001,-0.001614885
-1.076001,-0.001601396
-1.075001,-0.001589135
-1.074001,-0.001579938
-1.073001,-0.001566143
-1.072001,-0.001555721
-1.071001,-0.001544072
-1.070001,-0.00153089
-1.069001,-0.001521387
-1.068001,-0.001507593
-1.067001,-0.001496557
-1.066001,-0.001486748
-1.065001,-0.001472953
-1.064001,-0.001462837
-1.063001,-0.001451495
-1.062001,-0.001438619
-1.061001,-0.001428197
-1.060001,-0.001416855
-1.059001,-0.001405512
-1.058001,-0.001393557
-1.057001,-0.001382828
-1.056001,-0.001371485
-1.055001,-0.001358917
-1.054001,-0.001349414
-1.053001,-0.001338072
-1.052001,-0.001324277
-1.051001,-0.001315694
-1.050001,-0.001304658
-1.049001,-0.001292089
-1.048001,-0.0012832
-1.047001,-0.001271244
-1.046001,-0.001259902
-1.045001,-0.001251318
-1.044001,-0.00123783
-1.043001,-0.001227714
-1.042001,-0.001219437
-1.041001,-0.001205336
-1.040001,-0.001196446
-1.039001,-0.00118725
-1.038001,-0.001174068
-1.037001,-0.001164565
-1.036001,-0.001154143
-1.035001,-0.001143413
-1.034001,-0.001133297
-1.033001,-0.001123488
-1.032001,-0.001113065
-1.031001,-0.001102643
-1.030001,-0.00109314
-1.029001,-0.001083637
-1.028001,-0.001072294
-1.027001,-0.001064017
-1.026001,-0.001054208
-1.025001,-0.001043785
-1.024001,-0.001034282
-1.023001,-0.001024779
-1.022001,-0.001014663
-1.021001,-0.001007306
-1.020001,-0.0009956572
-1.019001,-0.0009883
-1.018001,-0.0009800232
-1.017001,-0.0009686808
-1.016001,-0.0009622434
-1.015001,-0.0009524338
-1.014001,-0.0009426242
-1.013001,-0.0009361868
-1.012001,-0.0009260707
-1.011001,-0.0009168742
-1.010001,-0.0009107432
-1.009001,-0.0009000141
-1.008001,-0.0008920438
-1.007001,-0.0008849932
-1.006001,-0.0008751836
-1.005001,-0.000868133
-1.004001,-0.0008589366
-1.003001,-0.0008512728
-1.002001,-0.0008442223
-1.001001,-0.0008350258
-1.000001,-0.0008273621
-0.9990007,-0.0008206181
-0.9980007,-0.0008117282
-0.9970006,-0.0008037579
-0.9960006,-0.0007960942
-0.9950007,-0.0007884305
-0.9940007,-0.0007801537
-0.9930006,-0.0007731031
-0.9920006,-0.0007654394
-0.9910007,-0.0007571626
-0.9900007,-0.0007488858
-0.9890007,-0.0007430614
-0.9880006,-0.0007329452
-0.9870006,-0.0007268143
-0.9860007,-0.000718844
-0.9850007,-0.0007108737
-0.9840007,-0.0007044363
-0.9830006,-0.0006961594
-0.9820006,-0.0006888023
-0.9810007,-0.0006832844
-0.9800007,-0.0006728618
-0.9790006,-0.0006664242
-0.9780006,-0.000661213
-0.9770007,-0.0006498707
-0.9760007,-0.0006446594
-0.9750007,-0.0006388349
-0.9740006,-0.0006281057
-0.9730006,-0.0006213617
-0.9720007,-0.0006146176
-0.9710007,-0.0006066473
-0.9700007,-0.0005995968
-0.9690006,-0.0005925461
-0.9680007,-0.0005854955
-0.9670007,-0.0005769122
-0.9660007,-0.0005704747
-0.9650006,-0.0005637306
-0.9640006,-0.0005542276
-0.9630007,-0.0005484032
-0.9620007,-0.0005413526
-0.9610007,-0.0005336889
-0.9600006,-0.0005266382
-0.9590006,-0.0005189746
-0.9580007,-0.0005116174
-0.9570007,-0.0005048733
-0.9560006,-0.0004959835
-0.9550006,-0.0004907721
-0.9540007,-0.0004824953
-0.9530007,-0.0004748316
-0.9520007,-0.0004693137
-0.9510006,-0.000461037
-0.9500006,-0.0004533732
-0.9490007,-0.0004481619
-0.9480007,-0.0004383524
-0.9470007,-0.0004322214
-0.9460006,-0.0004267035
-0.9450006,-0.0004181202
-0.9440007,-0.0004119892
-0.9430007,-0.0004055517
-0.9420006,-0.000397888
-0.9410006,-0.0003914505
-0.9400007,-0.0003837868
-0.9390007,-0.0003776558
-0.9380007,-0.0003718314
-0.9370006,-0.0003638611
-0.9360006,-0.0003586498
-0.9350007,-0.0003519058
-0.9340007,-0.0003448552
-0.9330007,-0.0003399504
-0.9320006,-0.0003322866
-0.9310006,-0.0003267688
-0.9300007,-0.0003215575
-0.9290007,-0.0003154265
-0.9280006,-0.0003096021
-0.9270006,-0.0003037777
-0.9260007,-0.0002988729
-0.9250007,-0.0002936616
-0.9240007,-0.000286611
-0.9230006,-0.0002832389
-0.9220006,-0.0002768014
-0.9210007,-0.0002706705
-0.9200007,-0.000268218
-0.9190007,-0.0002633133
-0.9180006,-0.0002574889
-0.9170007,-0.000255343
-0.9160007,-0.0002495186
-0.9150007,-0.0002449204
-0.9140006,-0.000242468
-0.9130006,-0.0002366436
-0.9120007,-0.0002338847
-0.9110007,-0.0002305126
-0.9100007,-0.0002253013
-0.9090006,-0.0002225424
-0.9080006,-0.0002188638
-0.9070007,-0.0002145721
-0.9060007,-0.0002121197
-0.9050006,-0.0002078281
-0.9040006,-0.0002047626
-0.9030007,-0.000201084
-0.9020007,-0.000197712
-0.9010007,-0.0001943399
-0.9000006,-0.0001900483
-0.8990006,-0.0001872893
-0.8980007,-0.0001839173
-0.8970007,-0.0001799322
-0.8960007,-0.0001774798
-0.8950006,-0.0001734946
-0.8940006,-0.0001701226
-0.8930007,-0.0001670571
-0.8920007,-0.0001624589
-0.8910006,-0.0001597
-0.8900006,-0.0001557148
-0.8890007,-0.0001508101
-0.8880007,-0.0001483577
-0.8870007,-0.000144066
-0.8860006,-0.000141195
-0.8850006,-0.0001396929
-0.8840007,-0.0001347268
-0.8830007,-0.0001303738
-0.8820007,-0.0001274003
-0.8810006,-0.0001224342
-0.8800007,-0.0001184797
-0.8790007,-0.0001147398
-0.8780007,-0.0001096818
-0.8770006,-0.0001054821
-0.8760006,-0.0001006386
-0.8750007,-9.643891E-05
-0.8740007,-9.202462E-05
-0.8730007,-8.693591E-05
-0.8720006,-8.267489E-05
-0.8710006,-7.777012E-05
-0.8700007,-7.258946E-05
-0.8690007,-6.838975E-05
-0.8680006,-6.308646E-05
-0.8670006,-5.833496E-05
-0.8660007,-5.336888E-05
-0.8650007,-4.831083E-05
-0.8640007,-4.29769E-05
-0.8630006,-3.801082E-05
-0.8620006,-3.224771E-05
-0.8610007,-2.752687E-05
-0.8600007,-2.10587E-05
-0.8590007,-1.661375E-05
-0.8580006,-1.069737E-05
-0.8570006,-4.505092E-06
-0.8560007,1.850963E-07
-0.8550007,6.316061E-06
-0.8540006,1.253899E-05
-0.8530006,1.683067E-05
-0.8520007,2.40039E-05
-0.8510007,3.013486E-05
-0.8500007,3.470243E-05
-0.8490006,4.209024E-05
-0.8480006,4.776139E-05
-0.8470007,5.312598E-05
-0.8460007,6.054445E-05
-0.8450007,6.597035E-05
-0.8440006,7.26531E-05
-0.8430007,7.915193E-05
-0.8420007,8.577337E-05
-0.8410007,9.224153E-05
-0.8400006,9.864839E-05
-0.8390006,0.0001055151
-0.8380007,0.0001122285
-0.8370007,0.0001185434
-0.8360007,0.0001259925
-0.8350006,0.0001323993
-0.8340006,0.0001390515
-0.8330007,0.0001461021
-0.8320007,0.000153122
-0.8310006,0.000160142
-0.8300006,0.0001673152
-0.8290007,0.0001738753
-0.8280007,0.000182428
-0.8270007,0.000188651
-0.8260006,0.0001957935
-0.8250006,0.0002034573
-0.8240007,0.0002098948
-0.8230007,0.0002171293
-0.8220007,0.0002249463
-0.8210006,0.0002313531
-0.8200006,0.0002397832
-0.8190007,0.0002486731
-0.8180007,0.0002552639
-0.8170006,0.0002634487
-0.8160006,0.0002704074
-0.8150007,0.0002771821
-0.8140007,0.0002887801
-0.8130007,0.0002949111
-0.8120006,0.0003028814
-0.8110006,0.0003096254
-0.8100007,0.000316676
-0.8090007,0.0003246463
-0.8080007,0.0003310838
-0.8070006,0.0003387475
-0.8060006,0.0003467178
-0.8050007,0.0003531553
-0.8040007,0.000360819
-0.8030006,0.0003678696
-0.8020006,0.0003746136
-0.8010007,0.0003816643
-0.8000007,0.0003304707
-0.8009993,0.0002605777
-0.8019994,0.0002063187
-0.8029994,0.0001603364
-0.8039994,0.0001168066
-0.8049994,7.695529E-05
-0.8059993,3.730809E-05
-0.8069994,3.281234E-06
-0.8079994,-2.878371E-05
-0.8089994,-5.894806E-05
-0.8099993,-8.797818E-05
-0.8109994,-0.0001151384
-0.8119994,-0.000141195
-0.8129994,-0.0001656269
-0.8139994,-0.0001894763
-0.8149993,-0.0002121609
-0.8159994,-0.0002333127
-0.8169994,-0.0002552002
-0.8179994,-0.0002749726
-0.8189994,-0.0002930485
-0.8199994,-0.0003117479
-0.8209994,-0.0003289146
-0.8219994,-0.0003466944
-0.8229994,-0.0003641677
-0.8239993,-0.0003794951
-0.8249994,-0.0003963552
-0.8259994,-0.0004129088
-0.8269994,-0.0004270101
-0.8279994,-0.0004429506
-0.8289993,-0.0004570518
-0.8299994,-0.0004708465
-0.8309994,-0.0004855608
-0.8319994,-0.0004984358
-0.8329993,-0.0005116174
-0.8339994,-0.0005251055
-0.8349994,-0.0005373674
-0.8359994,-0.0005502424
-0.8369994,-0.0005625045
-0.8379993,-0.0005744598
-0.8389994,-0.0005858021
-0.8399994,-0.0005971444
-0.8409994,-0.0006087932
-0.8419994,-0.0006198289
-0.8429993,-0.0006311712
-0.8439994,-0.0006422069
-0.8449994,-0.000652323
-0.8459994,-0.0006633588
-0.8469993,-0.0006734749
-0.8479994,-0.0006832844
-0.8489994,-0.0006940136
-0.8499994,-0.0007035166
-0.8509994,-0.0007130196
-0.8519993,-0.0007234422
-0.8529994,-0.0007323321
-0.8539994,-0.0007415286
-0.8549994,-0.0007513381
-0.8559994,-0.0007593084
-0.8569994,-0.0007694245
-0.8579994,-0.0007783144
-0.8589994,-0.0007865912
-0.8599994,-0.0007964008
-0.8609993,-0.0008046775
-0.8619994,-0.0008132609
-0.8629994,-0.0008224574
-0.8639994,-0.0008301211
-0.8649994,-0.0008383978
-0.8659993,-0.0008472878
-0.8669994,-0.0008546449
-0.8679994,-0.0008638413
-0.8689994,-0.0008727313
-0.8699993,-0.0008800884
-0.8709994,-0.0008886718
-0.8719994,-0.0008969486
-0.8729994,-0.0009043057
-0.8739994,-0.000912276
-0.8749993,-0.0009202462
-0.8759994,-0.00092791
-0.8769994,-0.0009355737
-0.8779994,-0.0009432373
-0.8789994,-0.0009515142
-0.8799993,-0.0009588713
-0.8809994,-0.0009668416
-0.8819994,-0.0009745053
-0.8829994,-0.0009821691
-0.8839993,-0.0009901392
-0.8849994,-0.0009971899
-0.8859994,-0.001004854
-0.8869994,-0.001012211
-0.8879994,-0.001018648
-0.8889993,-0.001027845
-0.8899994,-0.001034282
-0.8909994,-0.001041333
-0.8919994,-0.001049916
-0.8929994,-0.001056354
-0.8939994,-0.001063711
-0.8949994,-0.001072294
-0.8959994,-0.001077812
-0.8969994,-0.001085782
-0.8979993,-0.001093753
-0.8989994,-0.00110019
-0.8999994,-0.001107854
-0.9009994,-0.001115211
-0.9019994,-0.001121648
-0.9029993,-0.001129312
-0.9039994,-0.001136363
-0.9049994,-0.001144027
-0.9059994,-0.001151384
-0.9069993,-0.001158128
-0.9079994,-0.001165791
-0.9089994,-0.001173149
-0.9099994,-0.001180199
-0.9109994,-0.001187556
-0.9119993,-0.00119522
-0.9129994,-0.001202271
-0.9139994,-0.001209934
-0.9149994,-0.001217292
-0.9159994,-0.001224649
-0.9169993,-0.001231393
-0.9179994,-0.00123967
-0.9189994,-0.00124672
-0.9199994,-0.001253464
-0.9209993,-0.001262967
-0.9219994,-0.001269711
-0.9229994,-0.001276455
-0.9239994,-0.001285958
-0.9249994,-0.001292089
-0.9259993,-0.00129914
-0.9269994,-0.001307723
-0.9279994,-0.001314467
-0.9289994,-0.001322744
-0.9299994,-0.001330714
-0.9309993,-0.001337459
-0.9319994,-0.001346042
-0.9329994,-0.001353706
-0.9339994,-0.001360756
-0.9349993,-0.001369953
-0.9359994,-0.001376697
-0.9369994,-0.001384974
-0.9379994,-0.00139325
-0.9389994,-0.001400914
-0.9399993,-0.001409191
-0.9409994,-0.001417468
-0.9419994,-0.001425131
-0.9429994,-0.001433102
-0.9439994,-0.001441378
-0.9449994,-0.001449655
-0.9459994,-0.001457932
-0.9469994,-0.001465902
-0.9479994,-0.001474792
-0.9489993,-0.001482456
-0.9499994,-0.001491039
-0.9509994,-0.001499929
-0.9519994,-0.001507286
-0.9529994,-0.001517096
-0.9539993,-0.001525679
-0.9549994,-0.001533649
-0.9559994,-0.001543152
-0.9569994,-0.001551736
-0.9579993,-0.001560319
-0.9589994,-0.001569516
-0.9599994,-0.001577792
-0.9609994,-0.001587908
-0.9619994,-0.001596798
-0.9629993,-0.001604462
-0.9639994,-0.001615804
-0.9649994,-0.001623468
-0.9659994,-0.001632358
-0.9669994,-0.0016437
-0.9679993,-0.001651364
-0.9689994,-0.00166056
-0.9699994,-0.001671596
-0.9709994,-0.001679566
-0.9719993,-0.001689069
-0.9729994,-0.001700412
-0.9739994,-0.001708075
-0.9749994,-0.001717885
-0.9759994,-0.001727695
-0.9769993,-0.001736584
-0.9779994,-0.001745168
-0.9789994,-0.001757123
-0.9799994,-0.00176632
-0.9809994,-0.00177429
-0.9819994,-0.001786245
-0.9829994,-0.001795442
-0.9839994,-0.001803412
-0.9849994,-0.001816287
-0.9859993,-0.001824564
-0.9869994,-0.001833454
-0.9879994,-0.001845715
-0.9889994,-0.001853379
-0.9899994,-0.001863495
-0.9909993,-0.001874531
-0.9919994,-0.001882808
-0.9929994,-0.001894763
-0.9939994,-0.001904266
-0.9949993,-0.001913156
-0.9959994,-0.001925112
-0.9969994,-0.001934308
-0.9979994,-0.001942891
-0.9989994,-0.001954847
-0.9999993,-0.001962817
-1.000999,-0.001972626
-1.001999,-0.001983662
-1.002999,-0.001992552
-1.003999,-0.002002362
-1.004999,-0.002013091
-1.005999,-0.002021674
-1.006999,-0.002031484
-1.007999,-0.002041293
-1.008999,-0.002051409
-1.009999,-0.002059993
-1.010999,-0.002070722
-1.011999,-0.002080225
-1.012999,-0.002088502
-1.013999,-0.002098618
-1.014999,-0.002107814
-1.015999,-0.002115478
-1.016999,-0.002127127
-1.017999,-0.00213479
-1.018999,-0.002143374
-1.019999,-0.00215349
-1.020999,-0.00216146
-1.021999,-0.002169737
-1.022999,-0.002178933
-1.023999,-0.002188743
-1.024999,-0.002197939
-1.025999,-0.002205297
-1.026999,-0.002213267
-1.027999,-0.002223383
-1.028999,-0.002230434
-1.029999,-0.002238097
-1.030999,-0.002249133
-1.031999,-0.002254344
-1.032999,-0.002263541
-1.033999,-0.00227335
-1.034999,-0.002279788
-1.035999,-0.002287145
-1.036999,-0.002297874
-1.037999,-0.002303699
-1.038999,-0.002312282
-1.039999,-0.002320252
-1.040999,-0.002328529
-1.041999,-0.002336193
-1.042999,-0.002344469
-1.043999,-0.002353053
-1.044999,-0.002359797
-1.045999,-0.002368074
-1.046999,-0.002375431
-1.047999,-0.002382481
-1.048999,-0.002391984
-1.049999,-0.002398422
-1.050999,-0.002406392
-1.051999,-0.002416508
-1.052999,-0.002422639
-1.053999,-0.002431529
-1.054999,-0.002441339
-1.055999,-0.002447163
-1.056999,-0.002456973
-1.057999,-0.002466169
-1.058999,-0.0024723
-1.059999,-0.002483336
-1.060999,-0.002491306
-1.061999,-0.00249897
-1.062999,-0.002510006
-1.063999,-0.00251675
-1.064999,-0.002525946
-1.065999,-0.002536982
-1.066999,-0.002545565
-1.067999,-0.002555068
-1.068999,-0.002565797
-1.069999,-0.002574074
-1.070999,-0.002584497
-1.071999,-0.002594
-1.072999,-0.002604729
-1.073999,-0.002613619
-1.074999,-0.002625881
-1.075999,-0.002636303
-1.076999,-0.002645193
-1.077999,-0.002656229
-1.078999,-0.002666652
-1.079999,-0.002674929
-1.080999,-0.002688417
-1.081999,-0.002698839
-1.082999,-0.002707116
-1.083999,-0.002720604
-1.084999,-0.002729494
-1.085999,-0.002738997
-1.086999,-0.002751872
-1.087999,-0.002760455
-1.088999,-0.002770878
-1.089999,-0.002781607
-1.090999,-0.002790497
-1.091999,-0.002800613
-1.092999,-0.00280981
-1.093999,-0.0028187
-1.094999,-0.002828816
-1.095999,-0.002835866
-1.096999,-0.002845369
-1.097999,-0.002853646
-1.098999,-0.002861616
-1.099999,-0.002868667
-1.100999,-0.002875105
-1.101999,-0.002881849
-1.102999,-0.002888286
-1.103999,-0.002893191
-1.104999,-0.002899935
-1.105999,-0.002903307
-1.106999,-0.002908518
-1.107999,-0.002914036
-1.108999,-0.002915875
-1.109999,-0.00292078
-1.110999,-0.002923233
-1.111999,-0.002923233
-1.112999,-0.00292875
-1.113999,-0.002930283
-1.114999,-0.002929364
-1.115999,-0.002933655
-1.116999,-0.002931816
-1.117999,-0.002931509
-1.118999,-0.002934575
-1.119999,-0.002932123
-1.120999,-0.002933042
-1.121999,-0.002935188
-1.122999,-0.002931509
-1.123999,-0.002932123
-1.124999,-0.002933349
-1.125999,-0.002931816
-1.126999,-0.002930283
-1.127999,-0.002931816
-1.128999,-0.002930283
-1.129999,-0.002929057
-1.130999,-0.00293059
-1.131999,-0.002930283
-1.132999,-0.00292875
-1.133999,-0.002930283
-1.134999,-0.002929977
-1.135999,-0.00292967
-1.136999,-0.002933042
-1.137999,-0.002932429
-1.138999,-0.002933962
-1.139999,-0.00293764
-1.140999,-0.002936108
-1.141999,-0.00293856
-1.142999,-0.002943465
-1.143999,-0.002942545
-1.144999,-0.002946224
-1.145999,-0.002951435
-1.146999,-0.002952355
-1.147999,-0.002956646
-1.148999,-0.002960632
-1.149999,-0.002962777
-1.150999,-0.002967376
-1.151999,-0.002971361
-1.152999,-0.002976572
-1.153999,-0.002981783
-1.154999,-0.002985155
-1.155999,-0.002991899
-1.156999,-0.002996804
-1.157999,-0.00296727
-1.158999,-0.002970336
-1.159999,-0.002976467
-1.160999,-0.002982598
-1.161999,-0.002985663
-1.162999,-0.00299486
-1.163999,-0.003000991
-1.164999,-0.003004056
-1.165999,-0.003013253
-1.166999,-0.003019383
-1.167999,-0.003022449
-1.168999,-0.003034711
-1.169999,-0.003037777
-1.170999,-0.003043907
-1.171999,-0.003053104
-1.172999,-0.003059235
-1.173999,-0.003065366
-1.174999,-0.003074562
-1.175999,-0.003080693
-1.176999,-0.003086824
-1.177999,-0.003096021
-1.178999,-0.003102152
-1.179999,-0.003111348
-1.180999,-0.003117479
-1.181999,-0.003126675
-1.182999,-0.003132806
-1.183999,-0.003142003
-1.184999,-0.003148134
-1.185999,-0.00315733
-1.186999,-0.003163461
-1.187999,-0.003175723
-1.188999,-0.003181854
-1.189999,-0.003191051
-1.190999,-0.003200247
-1.191999,-0.003206378
-1.192999,-0.00321864
-1.193999,-0.003227836
-1.194999,-0.003237033
-1.195999,-0.003246229
-1.196999,-0.003255426
-1.197999,-0.003267688
-1.198999,-0.003276884
-1.199999,-0.003283015
-1.200999,-0.003298342
-1.201999,-0.003307539
-1.202999,-0.003316735
-1.203999,-0.003328997
-1.204999,-0.003341259
-1.205999,-0.003350456
-1.206999,-0.003365783
-1.207999,-0.003371914
-1.208999,-0.003387242
-1.209999,-0.003399503
-1.210999,-0.003411765
-1.211999,-0.003424027
-1.212999,-0.003436289
-1.213999,-0.003448551
-1.214999,-0.003460813
-1.215999,-0.00347614
-1.216999,-0.003488402
-1.217999,-0.00350373
-1.218999,-0.003522123
-1.219999,-0.003534385
-1.220999,-0.003549712
-1.221999,-0.003568105
-1.222999,-0.003583432
-1.223999,-0.003595694
-1.224999,-0.003617153
-1.225999,-0.00363248
-1.226999,-0.003650873
-1.227999,-0.003672331
-1.228999,-0.003690724
-1.229999,-0.003709117
-1.230999,-0.003733641
-1.231999,-0.003752034
-1.232999,-0.003773492
-1.233999,-0.003798016
-1.234999,-0.003819474
-1.235999,-0.003843998
-1.236999,-0.003871588
-1.237999,-0.003896111
-1.238999,-0.003923701
-1.239999,-0.00395129
-1.240999,-0.003981945
-1.241999,-0.004015665
-1.242999,-0.00404632
-1.243999,-0.00408004
-1.244999,-0.004113761
-1.245999,-0.004150547
-1.246999,-0.004187332
-1.247999,-0.004227184
-1.248999,-0.004267035
-1.249999,-0.004306886
-1.250999,-0.004352869
-1.251999,-0.004398851
-1.252999,-0.004444833
-1.253999,-0.004496946
-1.254999,-0.004545994
-1.255999,-0.004598107
-1.256999,-0.004659417
-1.257999,-0.004717661
-1.258999,-0.004775905
-1.259999,-0.004843346
-1.260999,-0.004910786
-1.261999,-0.004981292
-1.262999,-0.005054864
-1.263999,-0.005128435
-1.264999,-0.005208138
-1.265999,-0.005293972
-1.266999,-0.005379805
-1.267999,-0.005471769
-1.268999,-0.0055668
-1.269999,-0.005664895
-1.270999,-0.005769121
-1.271999,-0.005876414
-1.272999,-0.005986771
-1.273999,-0.006106324
-1.274999,-0.006228944
-1.275999,-0.006351563
-1.276999,-0.006486444
-1.277999,-0.006621325
-1.278999,-0.006762337
-1.279999,-0.006912547
-1.280999,-0.007068886
-1.281999,-0.007225225
-1.282999,-0.007393827
-1.283999,-0.007562429
-1.284999,-0.007734096
-1.285999,-0.00792109
-1.286999,-0.00811115
-1.287999,-0.008301211
-1.288999,-0.008506597
-1.289999,-0.00871505
-1.290999,-0.008926569
-1.291999,-0.009150349
-1.292999,-0.009374129
-1.293999,-0.009607106
-1.294999,-0.009849278
-1.295999,-0.01009145
-1.296999,-0.01034282
-1.297999,-0.01060032
-1.298999,-0.01086089
-1.299999,-0.01113372
-1.300999,-0.01140961
-1.301999,-0.01168857
-1.302999,-0.01197366
-1.303999,-0.01226488
-1.304999,-0.01256223
-1.305999,-0.01285958
-1.306999,-0.01316307
-1.307999,-0.01346962
-1.308999,-0.01377616
-1.309999,-0.01409804
-1.310999,-0.01441378
-1.311999,-0.01474179
-1.312999,-0.01507286
-1.313999,-0.01540087
-1.314999,-0.01573807
-1.315999,-0.01608447
-1.316999,-0.01642474
-1.317999,-0.01677114
-1.318999,-0.01711754
-1.319999,-0.01745781
-1.320999,-0.01780727
-1.321999,-0.01816593
-1.322999,-0.01851846
-1.323999,-0.01887713
-1.324999,-0.01924498
-1.325999,-0.01960364
-1.326999,-0.01996231
-1.327999,-0.02033323
-1.328999,-0.02069496
-1.329999,-0.02105975
-1.330999,-0.0214368
-1.331999,-0.02181079
-1.332999,-0.02217865
-1.333999,-0.02254957
-1.334999,-0.02292356
-1.335999,-0.02330062
-1.336999,-0.0236838
-1.337999,-0.02405166
-1.338999,-0.02443791
-1.339999,-0.0248211
-1.340999,-0.02519508
-1.341999,-0.02557827
-1.342999,-0.02595226
-1.343999,-0.02632318
-1.344999,-0.02670637
-1.345999,-0.02708649
-1.346999,-0.02746661
-1.347999,-0.02785286
-1.348999,-0.02822684
-1.349999,-0.0286131
-1.350999,-0.02900241
-1.351999,-0.0293764
-1.352999,-0.02975959
-1.353999,-0.0301581
-1.354999,-0.03065366
-1.355999,-0.03102152
-1.356999,-0.03142003
-1.357999,-0.03181854
-1.358999,-0.0321864
-1.359999,-0.03258491
-1.360999,-0.03298343
-1.361999,-0.03338194
-1.362999,-0.03378045
-1.363999,-0.03417896
-1.364999,-0.03457748
-1.365999,-0.03497599
-1.366999,-0.03534385
-1.367999,-0.03577302
-1.368999,-0.03614087
-1.369999,-0.03653939
-1.370999,-0.0369379
-1.371999,-0.03733641
-1.372999,-0.03773492
-1.373999,-0.03813344
-1.374999,-0.03853195
-1.375999,-0.03893046
-1.376999,-0.03932897
-1.377999,-0.03972749
-1.378999,-0.04015666
-1.379999,-0.04055517
-1.380999,-0.04095368
-1.381999,-0.04135219
-1.382999,-0.04175071
-1.383999,-0.04214922
-1.384999,-0.04257839
-1.385999,-0.0429769
-1.386999,-0.04337541
-1.387999,-0.04380458
-1.388999,-0.04420309
-1.389999,-0.0446016
-1.390999,-0.04500012
-1.391999,-0.04539863
-1.392999,-0.04579714
-1.393999,-0.04619566
-1.394999,-0.04659417
-1.395999,-0.04702334
-1.396999,-0.04742185
-1.397999,-0.04782036
-1.398999,-0.04821887
-1.399999,-0.04864804
-1.400999,-0.04904656
-1.401999,-0.04944507
-1.402999,-0.04984358
-1.403999,-0.05027274
-1.404999,-0.05067126
-1.405999,-0.05110043
-1.406999,-0.05146828
-1.407999,-0.0518668
-1.408999,-0.05229596
-1.409999,-0.05269448
-1.410999,-0.05309299
-1.411999,-0.05352216
-1.412999,-0.05395133
-1.413999,-0.05434984
-1.414999,-0.05474835
-1.415999,-0.05514687
-1.416999,-0.05554538
-1.417999,-0.05597454
-1.418999,-0.05640372
-1.419999,-0.05680222
-1.420999,-0.05723139
-1.421999,-0.05762991
-1.422999,-0.05805907
-1.423999,-0.05845758
-1.424999,-0.05888676
-1.425999,-0.05928526
-1.426999,-0.05971443
-1.427999,-0.06011295
-1.428999,-0.06054211
-1.429999,-0.06097129
-1.430999,-0.0613698
-1.431999,-0.06179896
-1.432999,-0.06222813
-1.433999,-0.06262664
-1.434999,-0.06302515
-1.435999,-0.06345432
-1.436999,-0.06388349
-1.437999,-0.064282
-1.438999,-0.06471118
-1.439999,-0.06514034
-1.440999,-0.06556951
-1.441999,-0.06596802
-1.442999,-0.06639718
-1.443999,-0.0667957
-1.444999,-0.06722487
-1.445999,-0.06765404
-1.446999,-0.0680832
-1.447999,-0.06848171
-1.448999,-0.06891088
-1.449999,-0.0693094
-1.450999,-0.06976922
-1.451999,-0.07016773
-1.452999,-0.07062756
-1.453999,-0.07102606
-1.454999,-0.07145523
-1.455999,-0.07185375
-1.456999,-0.07228291
-1.457999,-0.07271209
-1.458999,-0.07314125
-1.459999,-0.07353976
-1.460999,-0.07396893
-1.461999,-0.07439809
-1.462999,-0.07482726
-1.463999,-0.07522578
-1.464999,-0.07565495
-1.465999,-0.07608411
-1.466999,-0.07651328
-1.467999,-0.07691179
-1.468999,-0.07734096
-1.469999,-0.07773947
-1.470999,-0.07816864
-1.471999,-0.07862847
-1.472999,-0.07902697
-1.473999,-0.07945614
-1.474999,-0.07988531
-1.475999,-0.08031448
-1.476999,-0.08074365
-1.477999,-0.08117282
-1.478999,-0.08160198
-1.479999,-0.08203115
-1.480999,-0.08242966
-1.481999,-0.08285882
-1.482999,-0.083288
-1.483999,-0.08371716
-1.484999,-0.08411568
-1.485999,-0.0845755
-1.486999,-0.08497401
-1.487999,-0.08540318
-1.488999,-0.085863
-1.489999,-0.08626151
-1.490999,-0.08669069
-1.491999,-0.08711985
-1.492999,-0.08754902
-1.493999,-0.08800884
-1.494999,-0.088438
-1.495999,-0.08886718
-1.496999,-0.08926569
-1.497999,-0.08972551
-1.498999,-0.09012403
-1.499999,-0.09024664
-1.499001,-0.08975616
-1.498001,-0.08926569
-1.497001,-0.08877521
-1.496001,-0.08840735
-1.495001,-0.08788622
-1.494001,-0.08745705
-1.493001,-0.08696657
-1.492001,-0.08650675
-1.491001,-0.08604693
-1.490001,-0.08558711
-1.489001,-0.08509663
-1.488001,-0.08466747
-1.487001,-0.08420765
-1.486001,-0.08371716
-1.485001,-0.08325734
-1.484001,-0.08279752
-1.483001,-0.0823377
-1.482001,-0.08187788
-1.481001,-0.08141805
-1.480001,-0.08095823
-1.479001,-0.0804984
-1.478001,-0.08003858
-1.477001,-0.07960942
-1.476001,-0.07911894
-1.475001,-0.07865912
-1.474001,-0.07819929
-1.473001,-0.07773947
-1.472001,-0.07731031
-1.471001,-0.07685048
-1.470001,-0.07639066
-1.469001,-0.07593083
-1.468001,-0.07547101
-1.467001,-0.0750725
-1.466001,-0.07461268
-1.465001,-0.07415286
-1.464001,-0.07369304
-1.463001,-0.07326387
-1.462001,-0.07280405
-1.461001,-0.07234422
-1.460001,-0.07191505
-1.459001,-0.07148589
-1.458001,-0.07105672
-1.457001,-0.0705969
-1.456001,-0.07013708
-1.455001,-0.06970791
-1.454001,-0.06921744
-1.453001,-0.06878826
-1.452001,-0.06832844
-1.451001,-0.06789928
-1.450001,-0.06743945
-1.449001,-0.06701028
-1.448001,-0.06658112
-1.447001,-0.0661213
-1.446001,-0.06569213
-1.445001,-0.06520165
-1.444001,-0.06477248
-1.443001,-0.06434331
-1.442001,-0.06388349
-1.441001,-0.06342367
-1.440001,-0.0629945
-1.439001,-0.06256533
-1.438001,-0.06213617
-1.437001,-0.06167634
-1.436001,-0.06124718
-1.435001,-0.06081801
-1.434001,-0.06038884
-1.433001,-0.05992902
-1.432001,-0.05949985
-1.431001,-0.05907068
-1.430001,-0.05864152
-1.429001,-0.05818169
-1.428001,-0.05775253
-1.427001,-0.05732336
-1.426001,-0.05689419
-1.425001,-0.05646503
-1.424001,-0.05603585
-1.423001,-0.05557603
-1.422001,-0.05514687
-1.421001,-0.05468704
-1.420001,-0.05425788
-1.419001,-0.05382871
-1.418001,-0.05339954
-1.417001,-0.05297038
-1.416001,-0.05257186
-1.415001,-0.05211204
-1.414001,-0.05168287
-1.413001,-0.05128435
-1.412001,-0.05085519
-1.411001,-0.05039537
-1.410001,-0.04999685
-1.409001,-0.04956769
-1.408001,-0.04913852
-1.407001,-0.04870935
-1.406001,-0.04828018
-1.405001,-0.04785102
-1.404001,-0.04742185
-1.403001,-0.04702334
-1.402001,-0.04659417
-1.401001,-0.046165
-1.400001,-0.04573583
-1.399001,-0.04533732
-1.398001,-0.04493881
-1.397001,-0.04450964
-1.396001,-0.04414178
-1.395001,-0.04371261
-1.394001,-0.04328345
-1.393001,-0.04288493
-1.392001,-0.04248642
-1.391001,-0.04205726
-1.390001,-0.04162809
-1.389001,-0.04122957
-1.388001,-0.04083106
-1.387001,-0.04043255
-1.386001,-0.04000338
-1.385001,-0.03957421
-1.384001,-0.0391757
-1.383001,-0.03877719
-1.382001,-0.03834802
-1.381001,-0.03794951
-1.380001,-0.037551
-1.379001,-0.03715248
-1.378001,-0.03675397
-1.377001,-0.03635546
-1.376001,-0.03595695
-1.375001,-0.03555843
-1.374001,-0.03515992
-1.373001,-0.03476141
-1.372001,-0.03436289
-1.371001,-0.03399504
-1.370001,-0.03359652
-1.369001,-0.03319801
-1.368001,-0.03283015
-1.367001,-0.03243164
-1.366001,-0.03203313
-1.365001,-0.03163461
-1.364001,-0.03126676
-1.363001,-0.0308989
-1.362001,-0.03050039
-1.361001,-0.03013253
-1.360001,-0.02976467
-1.359001,-0.02936616
-1.358001,-0.0289983
-1.357001,-0.02859978
-1.356001,-0.02823193
-1.355001,-0.02789472
-1.354001,-0.02752687
-1.353001,-0.02715901
-1.352001,-0.02679115
-1.351001,-0.02642329
-1.350001,-0.02605543
-1.349001,-0.02568758
-1.348001,-0.02535038
-1.347001,-0.02498252
-1.346001,-0.02461466
-1.345001,-0.0242468
-1.344001,-0.0239096
-1.343001,-0.02357239
-1.342001,-0.02320454
-1.341001,-0.02286733
-1.340001,-0.02253013
-1.339001,-0.02219293
-1.338001,-0.02185572
-1.337001,-0.02151852
-1.336001,-0.02118132
-1.335001,-0.02081346
-1.334001,-0.02050691
-1.333001,-0.02016971
-1.332001,-0.0198325
-1.331001,-0.0194953
-1.330001,-0.0191581
-1.329001,-0.01885155
-1.328001,-0.018545
-1.327001,-0.01823845
-1.326001,-0.01793191
-1.325001,-0.0175947
-1.324001,-0.01728815
-1.323001,-0.01698161
-1.322001,-0.01667506
-1.321001,-0.01636851
-1.320001,-0.01606196
-1.319001,-0.01587602
-1.318001,-0.0155848
-1.317001,-0.01529358
-1.316001,-0.01501155
-1.315001,-0.01473566
-1.314001,-0.01445976
-1.313001,-0.01419
-1.312001,-0.01391717
-1.311001,-0.01365661
-1.310001,-0.01339604
-1.309001,-0.01313241
-1.308001,-0.01287491
-1.307001,-0.01262967
-1.306001,-0.01237524
-1.305001,-0.01212693
-1.304001,-0.01188169
-1.303001,-0.01163646
-1.302001,-0.01139735
-1.301001,-0.01116744
-1.300001,-0.01093139
-1.299001,-0.01070761
-1.298001,-0.01049303
-1.297001,-0.01027538
-1.296001,-0.01006693
-1.295001,-0.009858475
-1.294001,-0.009656153
-1.293001,-0.009453831
-1.292001,-0.009260706
-1.291001,-0.00906758
-1.290001,-0.008880586
-1.289001,-0.008693592
-1.288001,-0.008512728
-1.287001,-0.00833493
-1.286001,-0.008160197
-1.285001,-0.007988531
-1.284001,-0.007822994
-1.283001,-0.007660524
-1.282001,-0.007504185
-1.281001,-0.007353975
-1.280001,-0.007200702
-1.279001,-0.007053559
-1.278001,-0.006912547
-1.277001,-0.006774599
-1.276001,-0.006639718
-1.275001,-0.006510968
-1.274001,-0.006382218
-1.273001,-0.006259599
-1.272001,-0.00614311
-1.271001,-0.006029687
-1.270001,-0.005916264
-1.269001,-0.005812038
-1.268001,-0.005707812
-1.267001,-0.005603585
-1.266001,-0.005508556
-1.265001,-0.00541046
-1.264001,-0.005318495
-1.263001,-0.005232662
-1.262001,-0.005143763
-1.261001,-0.005060995
-1.260001,-0.004981292
-1.259001,-0.004904655
-1.258001,-0.004824953
-1.257001,-0.004754446
-1.256001,-0.004683941
-1.255001,-0.0046165
-1.254001,-0.004552125
-1.253001,-0.00448775
-1.252001,-0.00442644
-1.251001,-0.004368196
-1.250001,-0.004309952
-1.249001,-0.004254773
-1.248001,-0.004205726
-1.247001,-0.004150547
-1.246001,-0.004101499
-1.245001,-0.004055517
-1.244001,-0.004003403
-1.243001,-0.003960487
-1.242001,-0.00391757
-1.241001,-0.003871588
-1.240001,-0.003831736
-1.239001,-0.003791885
-1.238001,-0.003752034
-1.237001,-0.003718314
-1.236001,-0.003681528
-1.235001,-0.003641677
-1.234001,-0.003611021
-1.233001,-0.003577302
-1.232001,-0.003543581
-1.231001,-0.003512926
-1.230001,-0.003482271
-1.229001,-0.003448551
-1.228001,-0.003420962
-1.227001,-0.003393373
-1.226001,-0.003365783
-1.225001,-0.003341259
-1.224001,-0.003316735
-1.223001,-0.003289146
-1.222001,-0.003267688
-1.221001,-0.003240098
-1.220001,-0.003215575
-1.219001,-0.003194116
-1.218001,-0.003172658
-1.217001,-0.003148134
-1.216001,-0.003129741
-1.215001,-0.003108283
-1.214001,-0.003086824
-1.213001,-0.003068431
-1.212001,-0.003046973
-1.211001,-0.00302858
-1.210001,-0.003013253
-1.209001,-0.002988729
-1.208001,-0.002973401
-1.207001,-0.002958074
-1.206001,-0.002936616
-1.205001,-0.002921288
-1.204001,-0.002905961
-1.203001,-0.002887568
-1.202001,-0.002869175
-1.201001,-0.002856913
-1.200001,-0.00283852
-1.199001,-0.002823193
-1.198001,-0.002807865
-1.197001,-0.002792538
-1.196001,-0.00277721
-1.195001,-0.002764949
-1.194001,-0.002749621
-1.193001,-0.002734293
-1.192001,-0.002722032
-1.191001,-0.002706704
-1.190001,-0.002694442
-1.189001,-0.00268218
-1.188001,-0.002666853
-1.187001,-0.002654591
-1.186001,-0.002642329
-1.185001,-0.002627002
-1.184001,-0.00261474
-1.183001,-0.002602478
-1.182001,-0.002590216
-1.181001,-0.002577954
-1.180001,-0.002562626
-1.179001,-0.00255343
-1.178001,-0.002544234
-1.177001,-0.002528906
-1.176001,-0.002516645
-1.175001,-0.002507448
-1.174001,-0.002495186
-1.173001,-0.002482924
-1.172001,-0.002473728
-1.171001,-0.0024584
-1.170001,-0.002449204
-1.169001,-0.002440007
-1.168001,-0.002427745
-1.167001,-0.002412418
-1.166001,-0.002406287
-1.165001,-0.002394025
-1.164001,-0.002378698
-1.163001,-0.002372567
-1.162001,-0.002360305
-1.161001,-0.002348043
-1.160001,-0.002341912
-1.159001,-0.00232965
-1.158001,-0.002317388
-1.157001,-0.002311257
-1.156001,-0.00229593
-1.155001,-0.002286733
-1.154001,-0.002277537
-1.153001,-0.002265275
-1.152001,-0.002259144
-1.151001,-0.002246882
-1.150001,-0.00223462
-1.149001,-0.002225423
-1.148001,-0.002213162
-1.147001,-0.002203965
-1.146001,-0.002194769
-1.145001,-0.002185572
-1.144001,-0.00217331
-1.143001,-0.002164114
-1.142001,-0.002154917
-1.141001,-0.002145721
-1.140001,-0.002133459
-1.139001,-0.002124263
-1.138001,-0.002115066
-1.137001,-0.00210587
-1.136001,-0.002096673
-1.135001,-0.002084411
-1.134001,-0.002075215
-1.133001,-0.002066019
-1.132001,-0.002053756
-1.131001,-0.002047626
-1.130001,-0.002038429
-1.129001,-0.002026167
-1.128001,-0.002020036
-1.127001,-0.002007774
-1.126001,-0.001998578
-1.125001,-0.001992447
-1.124001,-0.001980185
-1.123001,-0.001970988
-1.122001,-0.001961792
-1.121001,-0.00194953
-1.120001,-0.001940334
-1.119001,-0.001931137
-1.118001,-0.001921941
-1.117001,-0.001912744
-1.116001,-0.001903548
-1.115001,-0.001891286
-1.114001,-0.00188209
-1.113001,-0.001872893
-1.112001,-0.001860631
-1.111001,-0.001851435
-1.110001,-0.001842238
-1.109001,-0.001833042
-1.108001,-0.00182078
-1.107001,-0.001811583
-1.106001,-0.001799321
-1.105001,-0.00178706
-1.104001,-0.001780929
-1.103001,-0.001768667
-1.102001,-0.001756405
-1.101001,-0.001750274
-1.100001,-0.001738012
-1.099001,-0.00172575
-1.098001,-0.001716554
-1.097001,-0.001704292
-1.096001,-0.001695095
-1.095001,-0.001682833
-1.094001,-0.001673637
-1.093001,-0.001661375
-1.092001,-0.001649113
-1.091001,-0.001639916
-1.090001,-0.00163072
-1.089001,-0.001615393
-1.088001,-0.001606196
-1.087001,-0.001597
-1.086001,-0.001616724
-1.085001,-0.001607221
-1.084001,-0.001596492
-1.083001,-0.001586069
-1.082001,-0.001574114
-1.081001,-0.001563691
-1.080001,-0.001553269
-1.079001,-0.0015407
-1.078001,-0.00153089
-1.077001,-0.001520468
-1.076001,-0.00150698
-1.075001,-0.00149809
-1.074001,-0.001486134
-1.073001,-0.001474179
-1.072001,-0.001465596
-1.071001,-0.001452721
-1.070001,-0.001440765
-1.069001,-0.001431569
-1.068001,-0.001417774
-1.067001,-0.001407965
-1.066001,-0.001399075
-1.065001,-0.00138528
-1.064001,-0.001376084
-1.063001,-0.001365967
-1.062001,-0.001352786
-1.061001,-0.001343896
-1.060001,-0.001332247
-1.059001,-0.001320292
-1.058001,-0.001310789
-1.057001,-0.001299753
-1.056001,-0.001288411
-1.055001,-0.001277682
-1.054001,-0.001267872
-1.053001,-0.001256836
-1.052001,-0.001245187
-1.051001,-0.001235684
-1.050001,-0.001225875
-1.049001,-0.001214226
-1.048001,-0.001205336
-1.047001,-0.001192768
-1.046001,-0.001182958
-1.045001,-0.001173149
-1.044001,-0.001161193
-1.043001,-0.001152303
-1.042001,-0.001142494
-1.041001,-0.001129925
-1.040001,-0.001122262
-1.039001,-0.001111839
-1.038001,-0.00110019
-1.037001,-0.0010913
-1.036001,-0.001079958
-1.035001,-0.001070148
-1.034001,-0.001061872
-1.033001,-0.001050223
-1.032001,-0.001041333
-1.031001,-0.001032443
-1.030001,-0.001021101
-1.029001,-0.001013131
-1.028001,-0.001003014
-1.027001,-0.0009938178
-1.026001,-0.0009852345
-1.025001,-0.0009748118
-1.024001,-0.0009634696
-1.023001,-0.0009558058
-1.022001,-0.0009472225
-1.021001,-0.0009383326
-1.020001,-0.0009282165
-1.019001,-0.0009214724
-1.018001,-0.0009110498
-1.017001,-0.0009024665
-1.016001,-0.0008960289
-1.015001,-0.0008849932
-1.014001,-0.0008773295
-1.013001,-0.0008702789
-1.012001,-0.0008583235
-1.011001,-0.0008518859
-1.010001,-0.0008448354
-1.009001,-0.0008341062
-1.008001,-0.0008276686
-1.007001,-0.0008206181
-1.006001,-0.000810502
-1.005001,-0.0008040644
-1.004001,-0.0007954811
-1.003001,-0.0007878174
-1.002001,-0.0007804602
-1.001001,-0.0007718769
-1.000001,-0.0007645197
-0.9990008,-0.000756856
-0.9980009,-0.0007488858
-0.9970009,-0.0007421417
-0.9960009,-0.0007329452
-0.9950009,-0.0007262012
-0.9940009,-0.0007191506
-0.9930009,-0.0007108737
-0.9920009,-0.0007044363
-0.9910009,-0.0006961594
-0.9900008,-0.0006894154
-0.9890009,-0.0006832844
-0.9880009,-0.0006734749
-0.9870009,-0.0006682636
-0.9860009,-0.0006609064
-0.9850008,-0.0006520165
-0.9840009,-0.0006464986
-0.9830009,-0.000639448
-0.9820009,-0.000629945
-0.9810008,-0.0006250403
-0.9800009,-0.0006164569
-0.9790009,-0.0006094063
-0.9780009,-0.0006035819
-0.9770009,-0.0005949985
-0.9760008,-0.0005882545
-0.9750009,-0.00058243
-0.9740009,-0.0005738467
-0.9730009,-0.0005671026
-0.9720009,-0.0005591324
-0.9710009,-0.0005523883
-0.9700009,-0.0005459508
-0.9690009,-0.000538287
-0.9680009,-0.0005324627
-0.9670008,-0.0005244924
-0.9660009,-0.0005171353
-0.9650009,-0.0005113108
-0.9640009,-0.0005024209
-0.9630009,-0.0004969031
-0.9620008,-0.0004904656
-0.9610009,-0.0004818822
-0.9600009,-0.0004754447
-0.9590009,-0.0004687006
-0.9580009,-0.0004604238
-0.9570009,-0.0004555191
-0.9560009,-0.0004460161
-0.9550009,-0.0004401917
-0.9540009,-0.0004340607
-0.9530008,-0.0004260904
-0.9520009,-0.000420266
-0.9510009,-0.0004138285
-0.9500009,-0.0004058582
-0.9490009,-0.0004003404
-0.9480008,-0.0003926767
-0.9470009,-0.0003856261
-0.9460009,-0.0003794951
-0.9450009,-0.0003724445
-0.9440009,-0.0003660069
-0.9430009,-0.0003589563
-0.9420009,-0.000353745
-0.9410009,-0.0003463879
-0.9400009,-0.0003387242
-0.9390008,-0.0003341259
-0.9380009,-0.0003276884
-0.9370009,-0.0003194116
-0.9360009,-0.0003166527
-0.9350009,-0.0003086824
-0.9340008,-0.0003016318
-0.9330009,-0.0002976467
-0.9320009,-0.0002896764
-0.9310009,-0.000283852
-0.9300008,-0.0002801734
-0.9290009,-0.0002725097
-0.9280009,-0.0002676049
-0.9270009,-0.0002630067
-0.9260009,-0.0002559561
-0.9250008,-0.000251971
-0.9240009,-0.0002464531
-0.9230009,-0.0002406287
-0.9220009,-0.0002351108
-0.9210009,-0.0002302061
-0.9200009,-0.0002259144
-0.9190009,-0.0002210096
-0.9180009,-0.0002167179
-0.9170009,-0.0002121197
-0.9160008,-0.0002062953
-0.9150009,-0.0002035364
-0.9140009,-0.0001992447
-0.9130009,-0.0001940334
-0.9120009,-0.0001912744
-0.9110008,-0.0001863697
-0.9100009,-0.0001826911
-0.9090009,-0.0001796256
-0.9080009,-0.0001738012
-0.9070009,-0.0001713488
-0.9060009,-0.0001682833
-0.9050009,-0.0001627655
-0.9040009,-0.0001603131
-0.9030009,-0.0001572476
-0.9020008,-0.0001520363
-0.9010009,-0.0001495839
-0.9000009,-0.0001462119
-0.8990009,-0.0001416136
-0.8980009,-0.0001402753
-0.8970008,-0.0001371179
-0.8960009,-0.0001340524
-0.8950009,-0.0001304658
-0.8940009,-0.0001269405
-0.8930008,-0.0001232619
-0.8920009,-0.0001190928
-0.8910009,-0.0001155982
-0.8900009,-0.0001118583
-0.8890009,-0.0001071374
-0.8880008,-0.0001039494
-0.8870009,-9.978029E-05
-0.8860009,-9.561123E-05
-0.8850009,-9.303623E-05
-0.8840009,-8.711984E-05
-0.8830009,-8.423829E-05
-0.8820009,-8.01612E-05
-0.8810009,-7.424482E-05
-0.8800009,-7.157785E-05
-0.8790008,-6.71329E-05
-0.8780009,-6.130848E-05
-0.8770009,-5.858021E-05
-0.8760009,-5.312365E-05
-0.8750009,-4.828018E-05
-0.8740008,-4.518405E-05
-0.8730009,-3.960487E-05
-0.8720009,-3.540516E-05
-0.8710009,-3.108283E-05
-0.8700009,-2.507448E-05
-0.8690009,-2.059887E-05
-0.8680009,-1.544886E-05
-0.8670009,-1.072802E-05
-0.8660009,-6.037833E-06
-0.8650008,-8.571678E-07
-0.8640009,4.292843E-06
-0.8630009,1.030119E-05
-0.8620009,1.453156E-05
-0.8610009,1.943633E-05
-0.8600008,2.599646E-05
-0.8590009,2.982831E-05
-0.8580009,3.5806E-05
-0.8570009,4.236614E-05
-0.8560008,4.589144E-05
-0.8550009,5.217568E-05
-0.8540009,5.806141E-05
-0.8530009,6.262898E-05
-0.8520009,6.977155E-05
-0.8510008,7.528942E-05
-0.8500009,8.034746E-05
-0.8490009,8.733677E-05
-0.8480009,9.221088E-05
-0.8470009,9.834184E-05
-0.8460009,0.0001047794
-0.8450009,0.0001096841
-0.8440009,0.0001170413
-0.8430009,0.0001229577
-0.8420008,0.0001283529
-0.8410009,0.0001354342
-0.8400009,0.0001411053
-0.8390009,0.0001472363
-0.8380009,0.0001544708
-0.8370008,0.0001602339
-0.8360009,0.0001671619
-0.8350009,0.0001733542
-0.8340009,0.0001795465
-0.8330009,0.0001861066
-0.8320009,0.0001931879
-0.8310009,0.000199656
-0.8300009,0.0002066453
-0.8290009,0.0002126537
-0.8280008,0.00022044
-0.8270009,0.0002260498
-0.8260009,0.0002330085
-0.8250009,0.0002403657
-0.8240009,0.0002462514
-0.8230008,0.0002532407
-0.8220009,0.0002606592
-0.8210009,0.0002660544
-0.8200009,0.0002744232
-0.8190009,0.0002824241
-0.8180009,0.0002918456
-0.8170009,0.0002988963
-0.8160009,0.0003053338
-0.8150009,0.0003111582
-0.8140008,0.0003191284
-0.8130009,0.0003252594
-0.8120009,0.0003326166
-0.8110009,0.0003393606
-0.8100009,0.0003457981
-0.8090008,0.0003525422
-0.8080009,0.0003592863
-0.8070009,0.0003660303
-0.8060009,0.0003724678
-0.8050008,0.0003792119
-0.8040009,0.0003862625
-0.8030009,0.0003920869
-0.8020009,0.000398831
-0.8010009,0.0004055751
-0.8000008,0.0003500898
-0.8009992,0.0002792772
-0.8019992,0.0002240985
-0.8029991,0.0001759704
-0.8039991,0.000132134
-0.8049992,9.228271E-05
-0.8059992,5.088818E-05
-0.8069991,1.667739E-05
-0.8079991,-1.514232E-05
-0.8089992,-4.683941E-05
-0.8099992,-7.57469E-05
-0.8109992,-0.0001029991
-0.8119991,-0.0001300366
-0.8129991,-0.0001544685
-0.8139992,-0.0001785325
-0.8149992,-0.0002015237
-0.8159992,-0.000222982
-0.8169991,-0.0002448696
-0.8179991,-0.0002650098
-0.8189992,-0.000285947
-0.8199992,-0.0003022449
-0.8209991,-0.0003194116
-0.8219991,-0.0003365783
-0.8229992,-0.0003546647
-0.8239992,-0.0003699921
-0.8249992,-0.0003865457
-0.8259991,-0.0004030993
-0.8269991,-0.0004175071
-0.8279992,-0.0004328345
-0.8289992,-0.0004475488
-0.8299991,-0.0004613435
-0.8309991,-0.0004751382
-0.8319992,-0.0004889328
-0.8329992,-0.0005024209
-0.8339992,-0.0005146828
-0.8349991,-0.000528171
-0.8359991,-0.0005407395
-0.8369992,-0.0005520818
-0.8379992,-0.0005646503
-0.8389992,-0.0005762991
-0.8399991,-0.0005867218
-0.8409991,-0.0005995968
-0.8419992,-0.000610326
-0.8429992,-0.000620442
-0.8439991,-0.0006323974
-0.8449991,-0.0006422069
-0.8459992,-0.000652323
-0.8469992,-0.0006633588
-0.8479992,-0.0006728618
-0.8489991,-0.0006829779
-0.8499991,-0.000693094
-0.8509992,-0.0007022904
-0.8519992,-0.0007127131
-0.8529992,-0.0007219095
-0.8539991,-0.000731106
-0.8549991,-0.0007409155
-0.8559992,-0.0007494989
-0.8569992,-0.0007586953
-0.8579991,-0.0007681983
-0.8589991,-0.0007764751
-0.8599992,-0.0007856716
-0.8609992,-0.0007942549
-0.8619992,-0.0008028382
-0.8629991,-0.0008117282
-0.8639991,-0.000820005
-0.8649992,-0.0008285883
-0.8659992,-0.0008365586
-0.8669991,-0.0008451419
-0.8679991,-0.0008534187
-0.8689992,-0.000861389
-0.8699992,-0.0008699723
-0.8709992,-0.0008782492
-0.8719991,-0.0008849932
-0.8729991,-0.0008944962
-0.8739992,-0.0009015468
-0.8749992,-0.0009092105
-0.8759992,-0.0009177938
-0.8769991,-0.000925151
-0.8779991,-0.0009325081
-0.8789992,-0.0009420112
-0.8799992,-0.0009478356
-0.8809991,-0.0009561123
-0.8819991,-0.0009650023
-0.8829992,-0.0009714398
-0.8839992,-0.00097941
-0.8849992,-0.0009876869
-0.8859991,-0.0009938178
-0.8869991,-0.001002095
-0.8879992,-0.001009452
-0.8889992,-0.001016809
-0.8899992,-0.001024473
-0.8909991,-0.001031523
-0.8919991,-0.001039187
-0.8929992,-0.001046238
-0.8939992,-0.001054208
-0.8949991,-0.001060952
-0.8959991,-0.001067696
-0.8969992,-0.001076279
-0.8979992,-0.001083023
-0.8989992,-0.001090381
-0.8999991,-0.001098351
-0.9009991,-0.001104788
-0.9019992,-0.001112452
-0.9029992,-0.001120422
-0.9039991,-0.00112686
-0.9049991,-0.001135443
-0.9059991,-0.0011428
-0.9069992,-0.001148931
-0.9079992,-0.001158128
-0.9089991,-0.001164565
-0.9099991,-0.001171309
-0.9109992,-0.001180506
-0.9119992,-0.001186637
-0.9129992,-0.0011943
-0.9139991,-0.001202884
-0.9149991,-0.001209628
-0.9159992,-0.001217598
-0.9169992,-0.001225568
-0.9179991,-0.001232313
-0.9189991,-0.001240283
-0.9199992,-0.001247946
-0.9209992,-0.001255917
-0.9219992,-0.00126358
-0.9229991,-0.001270938
-0.9239991,-0.001278601
-0.9249992,-0.001285958
-0.9259992,-0.001293929
-0.9269992,-0.001301286
-0.9279991,-0.001308643
-0.9289991,-0.001317839
-0.9299992,-0.001324277
-0.9309992,-0.001331941
-0.9319991,-0.001341444
-0.9329991,-0.001348494
-0.9339992,-0.001356464
-0.9349992,-0.001365048
-0.9359992,-0.001371792
-0.9369991,-0.001380375
-0.9379991,-0.001388652
-0.9389992,-0.001395703
-0.9399992,-0.001404593
-0.9409992,-0.001412869
-0.9419991,-0.001420533
-0.9429991,-0.00142973
-0.9439992,-0.00143678
-0.9449992,-0.001445364
-0.9459991,-0.001454253
-0.9469991,-0.001462224
-0.9479992,-0.001471114
-0.9489992,-0.001479697
-0.9499992,-0.001487974
-0.9509991,-0.001496557
-0.9519991,-0.001504834
-0.9529992,-0.001514643
-0.9539992,-0.001522614
-0.9549991,-0.001531504
-0.9559991,-0.001541006
-0.9569992,-0.00154867
-0.9579992,-0.00155848
-0.9589992,-0.00156737
-0.9599991,-0.001575953
-0.9609991,-0.001586069
-0.9619992,-0.001594039
-0.9629992,-0.001602623
-0.9639992,-0.001613965
-0.9649991,-0.001621322
-0.9659991,-0.001630212
-0.9669992,-0.001641861
-0.9679992,-0.001648298
-0.9689991,-0.001658721
-0.9699991,-0.001669757
-0.9709992,-0.001677421
-0.9719992,-0.00168723
-0.9729992,-0.001698572
-0.9739991,-0.001706236
-0.9749991,-0.001716352
-0.9759992,-0.001726162
-0.9769992,-0.001735665
-0.9779992,-0.001744555
-0.9789991,-0.001755897
-0.9799991,-0.001764787
-0.9809992,-0.00177337
-0.9819992,-0.001785019
-0.9829991,-0.001794828
-0.9839991,-0.001803105
-0.9849992,-0.001815367
-0.9859992,-0.001824564
-0.9869992,-0.00183376
-0.9879991,-0.001845409
-0.9889991,-0.001854299
-0.9899992,-0.001864722
-0.9909992,-0.001875144
-0.9919991,-0.001884647
-0.9929991,-0.001895683
-0.9939992,-0.001906106
-0.9949992,-0.001914689
-0.9959992,-0.001926644
-0.9969991,-0.001936147
-0.9979991,-0.001944731
-0.9989992,-0.00195638
-0.9999992,-0.001965576
-1.000999,-0.001975385
-1.001999,-0.001986728
-1.002999,-0.001996231
-1.003999,-0.00200604
-1.004999,-0.002016156
-1.005999,-0.002025966
-1.006999,-0.002035162
-1.007999,-0.002044972
-1.008999,-0.002056621
-1.009999,-0.002065204
-1.010999,-0.002075933
-1.011999,-0.002086049
-1.012999,-0.002093713
-1.013999,-0.002104136
-1.014999,-0.002113945
-1.015999,-0.002120996
-1.016999,-0.002133258
-1.017999,-0.002142148
-1.018999,-0.002149505
-1.019999,-0.00216146
-1.020999,-0.002168511
-1.021999,-0.002177401
-1.022999,-0.00218813
-1.023999,-0.002196713
-1.024999,-0.00220499
-1.025999,-0.002215106
-1.026999,-0.002222463
-1.027999,-0.002231966
-1.028999,-0.002240856
-1.029999,-0.002248826
-1.030999,-0.002256797
-1.031999,-0.002265993
-1.032999,-0.002273963
-1.033999,-0.002282853
-1.034999,-0.00229113
-1.035999,-0.002300326
-1.036999,-0.00230799
-1.037999,-0.002316573
-1.038999,-0.002323931
-1.039999,-0.002331594
-1.040999,-0.002341097
-1.041999,-0.002348148
-1.042999,-0.002356425
-1.043999,-0.002366234
-1.044999,-0.002371752
-1.045999,-0.002380949
-1.046999,-0.002389839
-1.047999,-0.002395663
-1.048999,-0.00240486
-1.049999,-0.00241283
-1.050999,-0.002419574
-1.051999,-0.002429996
-1.052999,-0.002437354
-1.053999,-0.002445324
-1.054999,-0.002454214
-1.055999,-0.002461264
-1.056999,-0.002469848
-1.057999,-0.002479044
-1.058999,-0.002486708
-1.059999,-0.002496517
-1.060999,-0.002505714
-1.061999,-0.002513991
-1.062999,-0.002522881
-1.063999,-0.002531157
-1.064999,-0.00254066
-1.065999,-0.002549244
-1.066999,-0.002559053
-1.067999,-0.002568863
-1.068999,-0.00257714
-1.069999,-0.002589095
-1.070999,-0.002598598
-1.071999,-0.002605955
-1.072999,-0.002619137
-1.073999,-0.0026268
-1.074999,-0.002635997
-1.075999,-0.002649178
-1.076999,-0.002657149
-1.077999,-0.002666345
-1.078999,-0.002679833
-1.079999,-0.00268719
-1.080999,-0.002697306
-1.081999,-0.002709568
-1.082999,-0.002717232
-1.083999,-0.002727961
-1.084999,-0.002739304
-1.085999,-0.00274758
-1.086999,-0.00275647
-1.087999,-0.002768119
-1.088999,-0.002776089
-1.089999,-0.002784673
-1.090999,-0.002795402
-1.091999,-0.002802759
-1.092999,-0.002810116
-1.093999,-0.002820845
-1.094999,-0.002827896
-1.095999,-0.002832801
-1.096999,-0.00284445
-1.097999,-0.002848741
-1.098999,-0.002854566
-1.099999,-0.002863762
-1.100999,-0.002867134
-1.101999,-0.002871733
-1.102999,-0.002879703
-1.103999,-0.002881849
-1.104999,-0.00288706
-1.105999,-0.002892578
-1.106999,-0.002892884
-1.107999,-0.002897789
-1.108999,-0.002901161
-1.109999,-0.002901468
-1.110999,-0.002905453
-1.111999,-0.002906986
-1.112999,-0.002906986
-1.113999,-0.002910051
-1.114999,-0.002910051
-1.115999,-0.002910664
-1.116999,-0.00291189
-1.117999,-0.002912503
-1.118999,-0.002910051
-1.119999,-0.00291097
-1.120999,-0.00291189
-1.121999,-0.002909438
-1.122999,-0.002910358
-1.123999,-0.002911584
-1.124999,-0.002907905
-1.125999,-0.002910051
-1.126999,-0.002909744
-1.127999,-0.002906373
-1.128999,-0.002908825
-1.129999,-0.002907599
-1.130999,-0.002905453
-1.131999,-0.002908212
-1.132999,-0.002906066
-1.133999,-0.002906066
-1.134999,-0.002908212
-1.135999,-0.002905453
-1.136999,-0.002908212
-1.137999,-0.002910051
-1.138999,-0.002909438
-1.139999,-0.002911584
-1.140999,-0.002914036
-1.141999,-0.002914649
-1.142999,-0.002915875
-1.143999,-0.002918941
-1.144999,-0.0029217
-1.145999,-0.002924152
-1.146999,-0.002927831
-1.147999,-0.002931509
-1.148999,-0.002932735
-1.149999,-0.00293856
-1.150999,-0.002941013
-1.151999,-0.002944078
-1.152999,-0.002950822
-1.153999,-0.002954194
-1.154999,-0.002957873
-1.155999,-0.002965536
-1.156999,-0.002968602
-1.157999,-0.002973813
-1.158999,-0.002981783
-1.159999,-0.002983929
-1.160999,-0.00299098
-1.161999,-0.002999257
-1.162999,-0.003002322
-1.163999,-0.002973401
-1.164999,-0.002982598
-1.165999,-0.002985663
-1.166999,-0.002991794
-1.167999,-0.002997925
-1.168999,-0.003004056
-1.169999,-0.003010187
-1.170999,-0.003019383
-1.171999,-0.003025514
-1.172999,-0.003034711
-1.173999,-0.003040842
-1.174999,-0.003046973
-1.175999,-0.003053104
-1.176999,-0.0030623
-1.177999,-0.003071497
-1.178999,-0.003077628
-1.179999,-0.003086824
-1.180999,-0.003092955
-1.181999,-0.003102152
-1.182999,-0.003108283
-1.183999,-0.003117479
-1.184999,-0.003126675
-1.185999,-0.003132806
-1.186999,-0.003142003
-1.187999,-0.003154265
-1.188999,-0.003160396
-1.189999,-0.003169592
-1.190999,-0.003181854
-1.191999,-0.003187985
-1.192999,-0.003197182
-1.193999,-0.003209443
-1.194999,-0.00321864
-1.195999,-0.003227836
-1.196999,-0.003240098
-1.197999,-0.00325236
-1.198999,-0.003261557
-1.199999,-0.003273819
-1.200999,-0.003283015
-1.201999,-0.003292212
-1.202999,-0.003307539
-1.203999,-0.003319801
-1.204999,-0.003328997
-1.205999,-0.003344325
-1.206999,-0.003353521
-1.207999,-0.003365783
-1.208999,-0.00338111
-1.209999,-0.003393373
-1.210999,-0.003405634
-1.211999,-0.003420962
-1.212999,-0.003433224
-1.213999,-0.003448551
-1.214999,-0.003463879
-1.215999,-0.00347614
-1.216999,-0.003491468
-1.217999,-0.003509861
-1.218999,-0.003519057
-1.219999,-0.00353745
-1.220999,-0.003558908
-1.221999,-0.00357117
-1.222999,-0.003589563
-1.223999,-0.003607956
-1.224999,-0.003626349
-1.225999,-0.003644742
-1.226999,-0.0036662
-1.227999,-0.003684593
-1.228999,-0.003709117
-1.229999,-0.003730575
-1.230999,-0.003748968
-1.231999,-0.003770427
-1.232999,-0.003798016
-1.233999,-0.003819474
-1.234999,-0.003847064
-1.235999,-0.003874653
-1.236999,-0.003899177
-1.237999,-0.003926767
-1.238999,-0.003960487
-1.239999,-0.003985011
-1.240999,-0.004018731
-1.241999,-0.004055517
-1.242999,-0.004086172
-1.243999,-0.004122957
-1.244999,-0.004159743
-1.245999,-0.004196529
-1.246999,-0.004239446
-1.247999,-0.004279297
-1.248999,-0.004322214
-1.249999,-0.004368196
-1.250999,-0.004414178
-1.251999,-0.004463226
-1.252999,-0.004512274
-1.253999,-0.004567452
-1.254999,-0.004619565
-1.255999,-0.00467781
-1.256999,-0.004739119
-1.257999,-0.004800429
-1.258999,-0.004867869
-1.259999,-0.004938376
-1.260999,-0.005005816
-1.261999,-0.005082454
-1.262999,-0.005162156
-1.263999,-0.005238793
-1.264999,-0.005327692
-1.265999,-0.005413526
-1.266999,-0.005502424
-1.267999,-0.005603585
-1.268999,-0.005704746
-1.269999,-0.005805907
-1.270999,-0.005916264
-1.271999,-0.006029687
-1.272999,-0.006146176
-1.273999,-0.006271861
-1.274999,-0.006397545
-1.275999,-0.006532426
-1.276999,-0.006670373
-1.277999,-0.006811386
-1.278999,-0.006964659
-1.279999,-0.007120999
-1.280999,-0.007280404
-1.281999,-0.00744594
-1.282999,-0.007620673
-1.283999,-0.007798471
-1.284999,-0.007985465
-1.285999,-0.008178591
-1.286999,-0.008371716
-1.287999,-0.008574038
-1.288999,-0.008788622
-1.289999,-0.009003206
-1.290999,-0.00922392
-1.291999,-0.009453831
-1.292999,-0.009689873
-1.293999,-0.009928982
-1.294999,-0.01017729
-1.295999,-0.01042865
-1.296999,-0.01068616
-1.297999,-0.01094979
-1.298999,-0.01121955
-1.299999,-0.01149851
-1.300999,-0.01177747
-1.301999,-0.01206256
-1.302999,-0.01235684
-1.303999,-0.012645
-1.304999,-0.01294235
-1.305999,-0.0132489
-1.306999,-0.01355851
-1.307999,-0.01387119
-1.308999,-0.01419307
-1.309999,-0.01451801
-1.310999,-0.01483988
-1.311999,-0.01517402
-1.312999,-0.01550816
-1.313999,-0.01583617
-1.314999,-0.01617337
-1.315999,-0.0165167
-1.316999,-0.0168631
-1.317999,-0.0172187
-1.318999,-0.01756817
-1.319999,-0.01791763
-1.320999,-0.01827936
-1.321999,-0.01863189
-1.322999,-0.01898442
-1.323999,-0.01934614
-1.324999,-0.01970174
-1.325999,-0.02006653
-1.326999,-0.02043132
-1.327999,-0.02079612
-1.328999,-0.02116397
-1.329999,-0.02153796
-1.330999,-0.02190582
-1.331999,-0.02228594
-1.332999,-0.02266299
-1.333999,-0.02303085
-1.334999,-0.02340178
-1.335999,-0.0237819
-1.336999,-0.02415282
-1.337999,-0.02452987
-1.338999,-0.02490999
-1.339999,-0.02528092
-1.340999,-0.02565797
-1.341999,-0.02604422
-1.342999,-0.02641821
-1.343999,-0.02679833
-1.344999,-0.02717539
-1.345999,-0.02754324
-1.346999,-0.02792643
-1.347999,-0.02830961
-1.348999,-0.02868973
-1.349999,-0.02906985
-1.350999,-0.02945611
-1.351999,-0.02983929
-1.352999,-0.03022861
-1.353999,-0.03071497
-1.354999,-0.03111348
-1.355999,-0.03148134
-1.356999,-0.03187985
-1.357999,-0.03224771
-1.358999,-0.03264622
-1.359999,-0.03304474
-1.360999,-0.03344325
-1.361999,-0.03384176
-1.362999,-0.03424027
-1.363999,-0.03463879
-1.364999,-0.03500664
-1.365999,-0.03543581
-1.366999,-0.03583432
-1.367999,-0.03623284
-1.368999,-0.03660069
-1.369999,-0.03699921
-1.370999,-0.03739772
-1.371999,-0.03779623
-1.372999,-0.03819475
-1.373999,-0.03862391
-1.374999,-0.03902243
-1.375999,-0.03942094
-1.376999,-0.03981945
-1.377999,-0.04021796
-1.378999,-0.04061648
-1.379999,-0.04104565
-1.380999,-0.04144416
-1.381999,-0.04184267
-1.382999,-0.04224118
-1.383999,-0.0426397
-1.384999,-0.04306886
-1.385999,-0.04346738
-1.386999,-0.04386589
-1.387999,-0.0442644
-1.388999,-0.04466292
-1.389999,-0.04509208
-1.390999,-0.0454906
-1.391999,-0.04588911
-1.392999,-0.04628762
-1.393999,-0.04668614
-1.394999,-0.04708464
-1.395999,-0.04751381
-1.396999,-0.04791233
-1.397999,-0.04831084
-1.398999,-0.04874001
-1.399999,-0.04916918
-1.400999,-0.04956769
-1.401999,-0.0499662
-1.402999,-0.05039537
-1.403999,-0.05079388
-1.404999,-0.05122305
-1.405999,-0.05162156
-1.406999,-0.05205073
-1.407999,-0.05244924
-1.408999,-0.05287841
-1.409999,-0.05327692
-1.410999,-0.05367543
-1.411999,-0.0541046
-1.412999,-0.05453377
-1.413999,-0.05493228
-1.414999,-0.05536145
-1.415999,-0.05575996
-1.416999,-0.05618913
-1.417999,-0.05658764
-1.418999,-0.05704746
-1.419999,-0.05744598
-1.420999,-0.05787515
-1.421999,-0.05830431
-1.422999,-0.05870283
-1.423999,-0.05910134
-1.424999,-0.0595305
-1.425999,-0.05995968
-1.426999,-0.06038884
-1.427999,-0.06081801
-1.428999,-0.06121652
-1.429999,-0.06164569
-1.430999,-0.0620442
-1.431999,-0.06247337
-1.432999,-0.06290253
-1.433999,-0.06333171
-1.434999,-0.06376087
-1.435999,-0.06419004
-1.436999,-0.06461921
-1.437999,-0.06504837
-1.438999,-0.06544688
-1.439999,-0.06587606
-1.440999,-0.06627457
-1.441999,-0.06670374
-1.442999,-0.06713291
-1.443999,-0.06756207
-1.444999,-0.06796058
-1.445999,-0.0684204
-1.446999,-0.06881892
-1.447999,-0.06924809
-1.448999,-0.06970791
-1.449999,-0.07010642
-1.450999,-0.07053559
-1.451999,-0.07096475
-1.452999,-0.07139393
-1.453999,-0.07182309
-1.454999,-0.07225226
-1.455999,-0.07265078
-1.456999,-0.0731106
-1.457999,-0.0735091
-1.458999,-0.07393827
-1.459999,-0.07436744
-1.460999,-0.07479661
-1.461999,-0.07522578
-1.462999,-0.07562429
-1.463999,-0.07605346
-1.464999,-0.07648262
-1.465999,-0.07691179
-1.466999,-0.07737162
-1.467999,-0.07773947
-1.468999,-0.07816864
-1.469999,-0.07862847
-1.470999,-0.07905763
-1.471999,-0.0794868
-1.472999,-0.07994662
-1.473999,-0.08034513
-1.474999,-0.0807743
-1.475999,-0.08120347
-1.476999,-0.08163264
-1.477999,-0.0820618
-1.478999,-0.08246031
-1.479999,-0.08292013
-1.480999,-0.08334931
-1.481999,-0.08377847
-1.482999,-0.08420765
-1.483999,-0.08463681
-1.484999,-0.08506598
-1.485999,-0.0855258
-1.486999,-0.08595496
-1.487999,-0.08635347
-1.488999,-0.08678265
-1.489999,-0.08724247
-1.490999,-0.0877023
-1.491999,-0.08813146
-1.492999,-0.08852997
-1.493999,-0.08898979
-1.494999,-0.0893883
-1.495999,-0.08984812
-1.496999,-0.0902773
-1.497999,-0.09070646
-1.498999,-0.09116629
-1.499999,-0.09125825
-1.499001,-0.09082908
-1.498001,-0.09036926
-1.497001,-0.08990943
-1.496001,-0.08944961
-1.495001,-0.08895914
-1.494001,-0.08849932
-1.493001,-0.0880395
-1.492001,-0.08757967
-1.491001,-0.08711985
-1.490001,-0.08662938
-1.489001,-0.0862002
-1.488001,-0.08574038
-1.487001,-0.08528056
-1.486001,-0.08479008
-1.485001,-0.08433026
-1.484001,-0.08387043
-1.483001,-0.08341061
-1.482001,-0.08295079
-1.481001,-0.08249097
-1.480001,-0.08203115
-1.479001,-0.08160198
-1.478001,-0.08114216
-1.477001,-0.08068234
-1.476001,-0.08022251
-1.475001,-0.07976269
-1.474001,-0.07930287
-1.473001,-0.07884305
-1.472001,-0.07838323
-1.471001,-0.0779234
-1.470001,-0.07749423
-1.469001,-0.07703441
-1.468001,-0.07660525
-1.467001,-0.07611477
-1.466001,-0.07565495
-1.465001,-0.07525643
-1.464001,-0.07476595
-1.463001,-0.07433679
-1.462001,-0.07387697
-1.461001,-0.07341714
-1.460001,-0.07295732
-1.459001,-0.07252815
-1.458001,-0.07206833
-1.457001,-0.07160851
-1.456001,-0.07114869
-1.455001,-0.07068887
-1.454001,-0.0702597
-1.453001,-0.06983053
-1.452001,-0.06937071
-1.451001,-0.06891088
-1.450001,-0.06845106
-1.449001,-0.06799124
-1.448001,-0.06756207
-1.447001,-0.06710225
-1.446001,-0.06667308
-1.445001,-0.06624391
-1.444001,-0.06578409
-1.443001,-0.06535492
-1.442001,-0.0648951
-1.441001,-0.06446593
-1.440001,-0.06400611
-1.439001,-0.06357694
-1.438001,-0.06311712
-1.437001,-0.06268796
-1.436001,-0.06222813
-1.435001,-0.06179896
-1.434001,-0.0613698
-1.433001,-0.06094063
-1.432001,-0.0604808
-1.431001,-0.06005164
-1.430001,-0.05962247
-1.429001,-0.05916265
-1.428001,-0.05870283
-1.427001,-0.05827365
-1.426001,-0.05784449
-1.425001,-0.05744598
-1.424001,-0.05698615
-1.423001,-0.05652633
-1.422001,-0.05606651
-1.421001,-0.055668
-1.420001,-0.05523883
-1.419001,-0.05480966
-1.418001,-0.05434984
-1.417001,-0.05395133
-1.416001,-0.0534915
-1.415001,-0.05306234
-1.414001,-0.05263317
-1.413001,-0.052204
-1.412001,-0.05177484
-1.411001,-0.05134567
-1.410001,-0.0509165
-1.409001,-0.05048734
-1.408001,-0.05008882
-1.407001,-0.04965965
-1.406001,-0.04923048
-1.405001,-0.04880131
-1.404001,-0.04837215
-1.403001,-0.04791233
-1.402001,-0.04748316
-1.401001,-0.04708464
-1.400001,-0.04665548
-1.399001,-0.04622631
-1.398001,-0.04579714
-1.397001,-0.04539863
-1.396001,-0.04496947
-1.395001,-0.04457095
-1.394001,-0.04414178
-1.393001,-0.04371261
-1.392001,-0.0433141
-1.391001,-0.04288493
-1.390001,-0.04248642
-1.389001,-0.04205726
-1.388001,-0.04165874
-1.387001,-0.04126023
-1.386001,-0.04083106
-1.385001,-0.04043255
-1.384001,-0.04000338
-1.383001,-0.03957421
-1.382001,-0.0391757
-1.381001,-0.03874653
-1.380001,-0.03837867
-1.379001,-0.03798017
-1.378001,-0.03758165
-1.377001,-0.03718314
-1.376001,-0.03678463
-1.375001,-0.03635546
-1.374001,-0.03595695
-1.373001,-0.03555843
-1.372001,-0.03515992
-1.371001,-0.03476141
-1.370001,-0.03436289
-1.369001,-0.03399504
-1.368001,-0.03359652
-1.367001,-0.03319801
-1.366001,-0.0327995
-1.365001,-0.03243164
-1.364001,-0.03203313
-1.363001,-0.03166527
-1.362001,-0.03126676
-1.361001,-0.03086824
-1.360001,-0.03046973
-1.359001,-0.03010187
-1.358001,-0.02973401
-1.357001,-0.0293355
-1.356001,-0.02896764
-1.355001,-0.02859978
-1.354001,-0.02820127
-1.353001,-0.02783342
-1.352001,-0.02746556
-1.351001,-0.0270977
-1.350001,-0.02672984
-1.349001,-0.02639264
-1.348001,-0.02599413
-1.347001,-0.02565692
-1.346001,-0.02528906
-1.345001,-0.02492121
-1.344001,-0.02455335
-1.343001,-0.02418549
-1.342001,-0.02384829
-1.341001,-0.02348043
-1.340001,-0.02311257
-1.339001,-0.02280602
-1.338001,-0.02243817
-1.337001,-0.02210096
-1.336001,-0.02176376
-1.335001,-0.02142656
-1.334001,-0.0210587
-1.333001,-0.0207215
-1.332001,-0.02038429
-1.331001,-0.02004709
-1.330001,-0.01974054
-1.329001,-0.01940334
-1.328001,-0.01906613
-1.327001,-0.01875959
-1.326001,-0.01845304
-1.325001,-0.01811584
-1.324001,-0.01780929
-1.323001,-0.01750274
-1.322001,-0.01719619
-1.321001,-0.01685899
-1.320001,-0.01658309
-1.319001,-0.01624589
-1.318001,-0.01593934
-1.317001,-0.01576873
-1.316001,-0.01547444
-1.315001,-0.01518935
-1.314001,-0.01490426
-1.313001,-0.01461917
-1.312001,-0.01434021
-1.311001,-0.01406738
-1.310001,-0.01380069
-1.309001,-0.01353092
-1.308001,-0.01326423
-1.307001,-0.01300366
-1.306001,-0.01274923
-1.305001,-0.01249786
-1.304001,-0.01224342
-1.303001,-0.01199818
-1.302001,-0.01175601
-1.301001,-0.0115169
-1.300001,-0.01128393
-1.299001,-0.01105095
-1.298001,-0.01082104
-1.297001,-0.01060032
-1.296001,-0.01037654
-1.295001,-0.01015583
-1.294001,-0.009944309
-1.293001,-0.00973279
-1.292001,-0.009527403
-1.291001,-0.009328146
-1.290001,-0.009131956
-1.289001,-0.00893883
-1.288001,-0.008754901
-1.287001,-0.008564842
-1.286001,-0.008383978
-1.285001,-0.008212311
-1.284001,-0.008037578
-1.283001,-0.007868977
-1.282001,-0.007706506
-1.281001,-0.007547101
-1.280001,-0.007393827
-1.279001,-0.007243618
-1.278001,-0.007096475
-1.277001,-0.006952398
-1.276001,-0.006811386
-1.275001,-0.006676504
-1.274001,-0.006544688
-1.273001,-0.006415938
-1.272001,-0.006293319
-1.271001,-0.006170699
-1.270001,-0.006054211
-1.269001,-0.005940788
-1.268001,-0.005830431
-1.267001,-0.005723139
-1.266001,-0.005618913
-1.265001,-0.005520817
-1.264001,-0.005425788
-1.263001,-0.005330757
-1.262001,-0.005238793
-1.261001,-0.005152959
-1.260001,-0.00506406
-1.259001,-0.004984358
-1.258001,-0.004907721
-1.257001,-0.004828018
-1.256001,-0.004754446
-1.255001,-0.004687006
-1.254001,-0.004613434
-1.253001,-0.00454906
-1.252001,-0.004484684
-1.251001,-0.004423374
-1.250001,-0.004362065
-1.249001,-0.004306886
-1.248001,-0.004248642
-1.247001,-0.004193463
-1.246001,-0.004144416
-1.245001,-0.004092303
-1.244001,-0.004040189
-1.243001,-0.003997272
-1.242001,-0.003948225
-1.241001,-0.003902242
-1.240001,-0.003862391
-1.239001,-0.003819474
-1.238001,-0.003779623
-1.237001,-0.003736707
-1.236001,-0.003699921
-1.235001,-0.003663135
-1.234001,-0.003626349
-1.233001,-0.003592629
-1.232001,-0.003558908
-1.231001,-0.003522123
-1.230001,-0.003491468
-1.229001,-0.003460813
-1.228001,-0.003430158
-1.227001,-0.003399503
-1.226001,-0.003374979
-1.225001,-0.003341259
-1.224001,-0.003316735
-1.223001,-0.003292212
-1.222001,-0.003264622
-1.221001,-0.003237033
-1.220001,-0.003215575
-1.219001,-0.003187985
-1.218001,-0.003166527
-1.217001,-0.003145068
-1.216001,-0.003120545
-1.215001,-0.003096021
-1.214001,-0.003077628
-1.213001,-0.003056169
-1.212001,-0.003031645
-1.211001,-0.003016318
-1.210001,-0.00299486
-1.209001,-0.002973401
-1.208001,-0.002958074
-1.207001,-0.002936616
-1.206001,-0.002918222
-1.205001,-0.002902895
-1.204001,-0.002881437
-1.203001,-0.00286611
-1.202001,-0.002850782
-1.201001,-0.002829324
-1.200001,-0.002813996
-1.199001,-0.002801734
-1.198001,-0.002780276
-1.197001,-0.002764949
-1.196001,-0.002752687
-1.195001,-0.002731228
-1.194001,-0.002718966
-1.193001,-0.002706704
-1.192001,-0.002688312
-1.191001,-0.002672984
-1.190001,-0.002660722
-1.189001,-0.002645395
-1.188001,-0.002630068
-1.187001,-0.002617805
-1.186001,-0.002602478
-1.185001,-0.002587151
-1.184001,-0.002577954
-1.183001,-0.002562626
-1.182001,-0.002547299
-1.181001,-0.002538103
-1.180001,-0.002522775
-1.179001,-0.002510513
-1.178001,-0.002498251
-1.177001,-0.002482924
-1.176001,-0.002473728
-1.175001,-0.002464531
-1.174001,-0.002446138
-1.173001,-0.002436942
-1.172001,-0.00242468
-1.171001,-0.002412418
-1.170001,-0.002400156
-1.169001,-0.00239096
-1.168001,-0.002375632
-1.167001,-0.00236337
-1.166001,-0.002354174
-1.165001,-0.002341912
-1.164001,-0.00232965
-1.163001,-0.002320454
-1.162001,-0.002308191
-1.161001,-0.002292864
-1.160001,-0.002286733
-1.159001,-0.002274471
-1.158001,-0.002262209
-1.157001,-0.002253013
-1.156001,-0.002237685
-1.155001,-0.002228489
-1.154001,-0.002219293
-1.153001,-0.002207031
-1.152001,-0.002197834
-1.151001,-0.002188638
-1.150001,-0.00217331
-1.149001,-0.002164114
-1.148001,-0.002154917
-1.147001,-0.002142655
-1.146001,-0.002133459
-1.145001,-0.002124263
-1.144001,-0.002112001
-1.143001,-0.002102804
-1.142001,-0.002093608
-1.141001,-0.002081346
-1.140001,-0.002072149
-1.139001,-0.002062953
-1.138001,-0.002050691
-1.137001,-0.002041495
-1.136001,-0.002032298
-1.135001,-0.002020036
-1.134001,-0.00201084
-1.133001,-0.002004709
-1.132001,-0.001989381
-1.131001,-0.00198325
-1.130001,-0.001974054
-1.129001,-0.001958727
-1.128001,-0.001952596
-1.127001,-0.001943399
-1.126001,-0.001931137
-1.125001,-0.001925006
-1.124001,-0.001912744
-1.123001,-0.001903548
-1.122001,-0.001894351
-1.121001,-0.001885155
-1.120001,-0.001872893
-1.119001,-0.001866762
-1.118001,-0.0018545
-1.117001,-0.001845304
-1.116001,-0.001836107
-1.115001,-0.001826911
-1.114001,-0.001814649
-1.113001,-0.001805453
-1.112001,-0.001796256
-1.111001,-0.001783994
-1.110001,-0.001774798
-1.109001,-0.001765601
-1.108001,-0.001753339
-1.107001,-0.001747208
-1.106001,-0.001734946
-1.105001,-0.001722684
-1.104001,-0.001716554
-1.103001,-0.001704292
-1.102001,-0.00169203
-1.101001,-0.001682833
-1.100001,-0.001670571
-1.099001,-0.001658309
-1.098001,-0.001649113
-1.097001,-0.001639916
-1.096001,-0.001627655
-1.095001,-0.001618458
-1.094001,-0.001606196
-1.093001,-0.001628373
-1.092001,-0.001618563
-1.091001,-0.001608447
-1.090001,-0.001598025
-1.089001,-0.001586682
-1.088001,-0.001574727
-1.087001,-0.001565224
-1.086001,-0.001554495
-1.085001,-0.001543459
-1.084001,-0.001531504
-1.083001,-0.001522614
-1.082001,-0.001510352
-1.081001,-0.001498396
-1.080001,-0.001491039
-1.079001,-0.001477245
-1.078001,-0.001465596
-1.077001,-0.001457625
-1.076001,-0.001443524
-1.075001,-0.001432489
-1.074001,-0.001424518
-1.073001,-0.00141103
-1.072001,-0.001400914
-1.071001,-0.001392024
-1.070001,-0.001379456
-1.069001,-0.001369953
-1.068001,-0.001357691
-1.067001,-0.001348801
-1.066001,-0.001338378
-1.065001,-0.00132581
-1.064001,-0.001318146
-1.063001,-0.00130711
-1.062001,-0.001294542
-1.061001,-0.001286265
-1.060001,-0.001274923
-1.059001,-0.001263887
-1.058001,-0.001254384
-1.057001,-0.001244268
-1.056001,-0.001233539
-1.055001,-0.001221277
-1.054001,-0.001213
-1.053001,-0.001202271
-1.052001,-0.001190315
-1.051001,-0.001182652
-1.050001,-0.001172229
-1.049001,-0.001159354
-1.048001,-0.001152303
-1.047001,-0.001140655
-1.046001,-0.001129619
-1.045001,-0.001123181
-1.044001,-0.001109387
-1.043001,-0.001099577
-1.042001,-0.001092833
-1.041001,-0.001079345
-1.040001,-0.001071375
-1.039001,-0.001062485
-1.038001,-0.001050223
-1.037001,-0.001041333
-1.036001,-0.001032443
-1.035001,-0.001021407
-1.034001,-0.001013131
-1.033001,-0.001003321
-1.032001,-0.0009932048
-1.031001,-0.0009833951
-1.030001,-0.0009754249
-1.029001,-0.0009656154
-1.028001,-0.0009545796
-1.027001,-0.0009478356
-1.026001,-0.000937413
-1.025001,-0.0009276034
-1.024001,-0.0009193266
-1.023001,-0.0009092105
-1.022001,-0.0009006272
-1.021001,-0.0008941896
-1.020001,-0.0008822342
-1.019001,-0.0008754902
-1.018001,-0.0008678265
-1.017001,-0.0008564842
-1.016001,-0.0008503532
-1.015001,-0.0008429961
-1.014001,-0.0008319604
-1.013001,-0.0008258293
-1.012001,-0.0008166329
-1.011001,-0.0008083562
-1.010001,-0.000801612
-1.009001,-0.0007924156
-1.008001,-0.0007841389
-1.007001,-0.0007767816
-1.006001,-0.0007685049
-1.005001,-0.0007611477
-1.004001,-0.0007519512
-1.003001,-0.0007458202
-1.002001,-0.0007375435
-1.001001,-0.0007289601
-1.000001,-0.0007228291
-0.9990011,-0.0007145524
-0.9980011,-0.0007068887
-0.9970011,-0.0007004511
-0.9960011,-0.0006903351
-0.9950011,-0.0006851237
-0.9940011,-0.0006780731
-0.9930011,-0.0006691832
-0.9920011,-0.0006633588
-0.9910011,-0.0006550819
-0.9900011,-0.0006474183
-0.9890011,-0.0006425135
-0.9880011,-0.0006336236
-0.9870011,-0.000626573
-0.9860011,-0.000620442
-0.9850011,-0.0006124718
-0.9840011,-0.0006060342
-0.9830011,-0.0005989837
-0.9820011,-0.0005913199
-0.9810011,-0.0005848824
-0.9800011,-0.0005769122
-0.9790011,-0.0005704747
-0.9780011,-0.0005643437
-0.9770011,-0.00055668
-0.9760011,-0.0005499359
-0.9750011,-0.0005434984
-0.9740011,-0.0005364478
-0.9730011,-0.0005287841
-0.9720011,-0.000521427
-0.9710011,-0.0005159091
-0.9700011,-0.0005079389
-0.9690011,-0.0005011947
-0.9680011,-0.0004969031
-0.9670011,-0.0004874001
-0.9660011,-0.000480656
-0.9650011,-0.0004763643
-0.9640011,-0.0004671679
-0.9630011,-0.0004607304
-0.9620011,-0.0004555191
-0.9610011,-0.0004463226
-0.9600011,-0.0004404982
-0.9590011,-0.0004343672
-0.9580011,-0.0004270101
-0.9570011,-0.0004208791
-0.9560011,-0.0004135219
-0.9550011,-0.0004064713
-0.9540011,-0.0004006469
-0.9530011,-0.0003932898
-0.9520011,-0.0003874653
-0.9510011,-0.0003813344
-0.9500011,-0.0003739772
-0.9490011,-0.0003684594
-0.9480011,-0.0003611022
-0.9470011,-0.0003549712
-0.9460011,-0.0003491468
-0.9450011,-0.0003424028
-0.9440011,-0.0003365783
-0.9430011,-0.0003301408
-0.9420011,-0.0003240099
-0.9410011,-0.000318492
-0.9400011,-0.0003102152
-0.9390011,-0.00030623
-0.9380011,-0.0002997925
-0.9370011,-0.0002930485
-0.9360011,-0.0002884502
-0.9350011,-0.0002817062
-0.9340011,-0.0002746556
-0.9330011,-0.0002712836
-0.9320011,-0.0002633133
-0.9310011,-0.0002584085
-0.9300011,-0.0002541168
-0.9290011,-0.0002470662
-0.9280011,-0.0002415484
-0.9270011,-0.0002375632
-0.9260011,-0.0002308192
-0.9250011,-0.0002265275
-0.9240011,-0.0002207031
-0.9230011,-0.0002154918
-0.9220011,-0.0002099739
-0.9210011,-0.0002050691
-0.9200011,-0.0002007774
-0.9190011,-0.0001955661
-0.9180011,-0.0001912744
-0.9170011,-0.0001869828
-0.9160011,-0.0001814649
-0.9150011,-0.0001780929
-0.9140011,-0.0001734946
-0.9130011,-0.0001682833
-0.9120011,-0.0001658309
-0.9110011,-0.0001603131
-0.9100011,-0.0001563279
-0.9090011,-0.0001532625
-0.9080011,-0.000147438
-0.9070011,-0.0001446791
-0.9060011,-0.0001416136
-0.9050011,-0.000137547
-0.9040011,-0.000135769
-0.9030011,-0.0001324277
-0.9020011,-0.0001270324
-0.9010011,-0.0001248559
-0.9000011,-0.0001196753
-0.8990011,-0.0001162113
-0.8980011,-0.0001134217
-0.8970011,-0.0001088235
-0.8960011,-0.0001051755
-0.8950011,-0.0001016809
-0.8940011,-9.711332E-05
-0.8930011,-9.340408E-05
-0.8920011,-8.911241E-05
-0.8910011,-8.604692E-05
-0.8900011,-8.11115E-05
-0.8890011,-7.73103E-05
-0.8880011,-7.338648E-05
-0.8870011,-6.881891E-05
-0.8860011,-6.52323E-05
-0.8850011,-6.158437E-05
-0.8840011,-5.551472E-05
-0.8830011,-5.235727E-05
-0.8820011,-4.815756E-05
-0.8810011,-4.254773E-05
-0.8800011,-3.923701E-05
-0.8790011,-3.463879E-05
-0.8780011,-2.939681E-05
-0.8770011,-2.61474E-05
-0.8760011,-2.020036E-05
-0.8750011,-1.597E-05
-0.8740011,-1.207683E-05
-0.8730011,-6.497656E-06
-0.8720011,-1.991396E-06
-0.8710011,2.637482E-06
-0.8700011,8.369935E-06
-0.8690011,1.263096E-05
-0.8680011,1.784228E-05
-0.8670011,2.262443E-05
-0.8660011,2.740658E-05
-0.8650011,3.277118E-05
-0.8640011,3.77066E-05
-0.8630011,4.288727E-05
-0.8620011,4.806793E-05
-0.8610011,5.337122E-05
-0.8600011,5.956349E-05
-0.8590011,6.345665E-05
-0.8580011,6.931173E-05
-0.8570011,7.541204E-05
-0.8560011,7.942782E-05
-0.8550011,8.549747E-05
-0.8540011,9.126058E-05
-0.8530011,9.576684E-05
-0.8520011,0.0001023576
-0.8510011,0.0001079061
-0.8500011,0.0001130255
-0.8490011,0.0001199535
-0.8480011,0.0001249809
-0.8470011,0.0001305294
-0.8460011,0.0001370895
-0.8450011,0.0001420863
-0.8440011,0.0001487997
-0.8430011,0.000154992
-0.8420011,0.0001602339
-0.8410011,0.0001665488
-0.8400011,0.000172128
-0.8390011,0.0001782283
-0.8380011,0.0001847885
-0.8370011,0.0001908581
-0.8360011,0.0001976022
-0.8350011,0.0002037638
-0.8340011,0.0002094349
-0.8330011,0.000216087
-0.8320011,0.0002219115
-0.8310011,0.0002283796
-0.8300011,0.0002346025
-0.8290011,0.0002403657
-0.8280011,0.0002480907
-0.8270011,0.0002538844
-0.8260011,0.0002599541
-0.8250011,0.0002670966
-0.8240011,0.0002729824
-0.8230011,0.0002792053
-0.8220011,0.0002863785
-0.8210011,0.0002955242
-0.8200011,0.0003019617
-0.8190011,0.000309932
-0.8180011,0.0003154498
-0.8170011,0.0003225004
-0.8160011,0.0003283249
-0.8150011,0.0003344558
-0.8140011,0.0003411999
-0.8130011,0.0003470243
-0.8120011,0.0003534619
-0.8110011,0.0003602059
-0.8100011,0.0003660303
-0.8090011,0.0003721613
-0.8080011,0.0003789053
-0.8070011,0.0003850363
-0.8060011,0.0003908607
-0.8050011,0.0003969917
-0.8040011,0.0004034292
-0.8030011,0.0004086405
-0.8020011,0.0004147715
-0.8010011,0.000421209
