EXPID. 1231
[电化学]: CV : -0.8 >> -0.8 >> -1.5 >> -0.8(V) @ 0.01(V/s) X 10(Seg)
起始电位 (V),-0.8
上限电位 (V),-0.8
下限电位 (V),-1.5
终止电位 (V),-0.8
扫速 (V/s),0.01
电解液 信息:
KOH,1
-0.8,-0.3212509
-0.801,-0.1618458
-0.802,-0.108813
-0.803,-0.08623086
-0.804,-0.07262012
-0.805,-0.06330105
-0.806,-0.05637306
-0.807,-0.05110043
-0.808,-0.04680875
-0.809,-0.04303821
-0.81,-0.03972749
-0.811,-0.03675397
-0.812,-0.03414831
-0.813,-0.03194116
-0.814,-0.02997925
-0.815,-0.02826258
-0.816,-0.02672984
-0.817,-0.02531972
-0.818,-0.02403222
-0.819,-0.02286733
-0.82,-0.02176376
-0.821,-0.02066019
-0.822,-0.01961792
-0.823,-0.01879024
-0.824,-0.01802387
-0.825,-0.01734946
-0.826,-0.01673637
-0.827,-0.01615393
-0.828,-0.01560214
-0.829,-0.01524146
-0.83,-0.01477551
-0.831,-0.01434634
-0.832,-0.01392637
-0.833,-0.01353705
-0.834,-0.01317839
-0.835,-0.01281973
-0.836,-0.01249173
-0.837,-0.01218211
-0.838,-0.01187556
-0.839,-0.01159354
-0.84,-0.01132071
-0.841,-0.01105095
-0.842,-0.01080571
-0.843,-0.01056967
-0.844,-0.01033363
-0.845,-0.01011291
-0.846,-0.009901391
-0.847,-0.009689873
-0.848,-0.009493683
-0.849,-0.009303623
-0.85,-0.009110497
-0.851,-0.008932699
-0.852,-0.00874877
-0.853,-0.008564842
-0.854,-0.008383978
-0.855,-0.008196983
-0.856,-0.008009989
-0.857,-0.007819929
-0.858,-0.007626804
-0.859,-0.007439809
-0.86,-0.007252815
-0.861,-0.007075017
-0.862,-0.006909481
-0.863,-0.006753141
-0.864,-0.006596802
-0.865,-0.006458855
-0.866,-0.006320909
-0.867,-0.006192158
-0.868,-0.00607567
-0.869,-0.005956116
-0.87,-0.005845758
-0.871,-0.005744598
-0.872,-0.005640371
-0.873,-0.005542276
-0.874,-0.005453377
-0.875,-0.005361412
-0.876,-0.005278645
-0.877,-0.005195876
-0.878,-0.005113108
-0.879,-0.005039536
-0.88,-0.004969031
-0.881,-0.004895459
-0.882,-0.004828018
-0.883,-0.004760577
-0.884,-0.004696202
-0.885,-0.004634893
-0.886,-0.004576649
-0.887,-0.004518405
-0.888,-0.004466291
-0.889,-0.004414178
-0.89,-0.004358999
-0.891,-0.004313017
-0.892,-0.004260904
-0.893,-0.004208791
-0.894,-0.004162808
-0.895,-0.004113761
-0.896,-0.004064713
-0.897,-0.004018731
-0.898,-0.003975814
-0.899,-0.003932897
-0.9,-0.003893046
-0.901,-0.003850129
-0.902,-0.003810278
-0.903,-0.003773492
-0.904,-0.003736707
-0.905,-0.003699921
-0.906,-0.003669266
-0.907,-0.003635545
-0.908,-0.003601825
-0.909,-0.003574236
-0.91,-0.003546647
-0.911,-0.003519057
-0.912,-0.003494533
-0.913,-0.003466944
-0.914,-0.00344242
-0.915,-0.003420962
-0.916,-0.003399503
-0.917,-0.003378045
-0.918,-0.003356587
-0.919,-0.003338194
-0.92,-0.003319801
-0.921,-0.003301408
-0.922,-0.003283015
-0.923,-0.003267688
-0.924,-0.00325236
-0.925,-0.003233967
-0.926,-0.003221706
-0.927,-0.003206378
-0.928,-0.003191051
-0.929,-0.003181854
-0.93,-0.003169592
-0.931,-0.00315733
-0.932,-0.003148134
-0.933,-0.003135872
-0.934,-0.00312361
-0.935,-0.003114413
-0.936,-0.003105217
-0.937,-0.003092955
-0.938,-0.003083759
-0.939,-0.003077628
-0.94,-0.003068431
-0.941,-0.003059235
-0.942,-0.003053104
-0.943,-0.003043907
-0.944,-0.003037777
-0.945,-0.003031645
-0.946,-0.003022449
-0.947,-0.003019383
-0.948,-0.003010187
-0.949,-0.003004056
-0.95,-0.003000991
-0.951,-0.002991794
-0.952,-0.002985663
-0.953,-0.002982598
-0.954,-0.002976467
-0.955,-0.002970336
-0.956,-0.00296727
-0.957,-0.002958074
-0.958,-0.002958074
-0.959,-0.002951943
-0.96,-0.002945812
-0.961,-0.002942747
-0.962,-0.002939681
-0.963,-0.002930485
-0.964,-0.002927419
-0.965,-0.002924354
-0.966,-0.002918222
-0.967,-0.002918222
-0.968,-0.002912092
-0.969,-0.002905961
-0.97,-0.002905961
-0.971,-0.00289983
-0.972,-0.002896764
-0.973,-0.002893699
-0.974,-0.002887568
-0.975,-0.002887568
-0.976,-0.002881437
-0.977,-0.002878371
-0.978,-0.002878371
-0.979,-0.00287224
-0.98,-0.002869175
-0.981,-0.002869175
-0.982,-0.002863044
-0.983,-0.002859978
-0.984,-0.002856913
-0.985,-0.002853847
-0.986,-0.002850782
-0.987,-0.002847716
-0.988,-0.002844651
-0.989,-0.002841586
-0.99,-0.00283852
-0.991,-0.002835455
-0.992,-0.002832389
-0.993,-0.002829324
-0.994,-0.002826258
-0.995,-0.002820127
-0.996,-0.002820127
-0.997,-0.002813996
-0.998,-0.002813996
-0.999,-0.002810931
-1,-0.002807865
-1.001,-0.0028048
-1.002,-0.0028048
-1.003,-0.002798669
-1.004,-0.002795603
-1.005,-0.002795603
-1.006,-0.002789472
-1.007,-0.002789472
-1.008,-0.002786407
-1.009,-0.002780276
-1.01,-0.002783341
-1.011,-0.002780276
-1.012,-0.00277721
-1.013,-0.002774145
-1.014,-0.002774145
-1.015,-0.00277108
-1.016,-0.002768014
-1.017,-0.002764949
-1.018,-0.002764949
-1.019,-0.002761883
-1.02,-0.002761883
-1.021,-0.002755752
-1.022,-0.002755752
-1.023,-0.002755752
-1.024,-0.002752687
-1.025,-0.002752687
-1.026,-0.002746556
-1.027,-0.002746556
-1.028,-0.002746556
-1.029,-0.00274349
-1.03,-0.00274349
-1.031,-0.002740425
-1.032,-0.002737359
-1.033,-0.002737359
-1.034,-0.002737359
-1.035,-0.002734293
-1.036,-0.002734293
-1.037,-0.002734293
-1.038,-0.002728163
-1.039,-0.002731228
-1.04,-0.002728163
-1.041,-0.002725097
-1.042,-0.002728163
-1.043,-0.002725097
-1.044,-0.002722032
-1.045,-0.002725097
-1.046,-0.002722032
-1.047,-0.002722032
-1.048,-0.002722032
-1.049,-0.002722032
-1.05,-0.002722032
-1.051,-0.002722032
-1.052,-0.002718966
-1.053,-0.002718966
-1.054,-0.002722032
-1.055,-0.002718966
-1.056,-0.002718966
-1.057,-0.002718966
-1.058,-0.002715901
-1.059,-0.002718966
-1.06,-0.002718966
-1.061,-0.002715901
-1.062,-0.002718966
-1.063,-0.002715901
-1.064,-0.002715901
-1.065,-0.002715901
-1.066,-0.002715901
-1.067,-0.002715901
-1.068,-0.002715901
-1.069,-0.002715901
-1.07,-0.002712835
-1.071,-0.002715901
-1.072,-0.002715901
-1.073,-0.002712835
-1.074,-0.002715901
-1.075,-0.002715901
-1.076,-0.002715901
-1.077,-0.002715901
-1.078,-0.002712835
-1.079,-0.002715901
-1.08,-0.002715901
-1.081,-0.002715901
-1.082,-0.002715901
-1.083,-0.002715901
-1.084,-0.002712835
-1.085,-0.002715901
-1.086,-0.002715901
-1.087,-0.002712835
-1.088,-0.002715901
-1.089,-0.002712835
-1.09,-0.002712835
-1.091,-0.002715901
-1.092,-0.002715901
-1.093,-0.002715901
-1.094,-0.002718966
-1.095,-0.002712835
-1.096,-0.002715901
-1.097,-0.002718966
-1.098,-0.002715901
-1.099,-0.002718966
-1.1,-0.002718966
-1.101,-0.002715901
-1.102,-0.002718966
-1.103,-0.002718966
-1.104,-0.002718966
-1.105,-0.002718966
-1.106,-0.002718966
-1.107,-0.002718966
-1.108,-0.002718966
-1.109,-0.002722032
-1.11,-0.002718966
-1.111,-0.002718966
-1.112,-0.002722032
-1.113,-0.002718966
-1.114,-0.002722032
-1.115,-0.002722032
-1.116,-0.002718966
-1.117,-0.002722032
-1.118,-0.002722032
-1.119,-0.002718966
-1.12,-0.002722032
-1.121,-0.002718966
-1.122,-0.002718966
-1.123,-0.002722032
-1.124,-0.002718966
-1.125,-0.002722032
-1.126,-0.002722032
-1.127,-0.002718966
-1.128,-0.002722032
-1.129,-0.002722032
-1.13,-0.002718966
-1.131,-0.002722032
-1.132,-0.002722032
-1.133,-0.002718966
-1.134,-0.002718966
-1.135,-0.002718966
-1.136,-0.002718966
-1.137,-0.002718966
-1.138,-0.002718966
-1.139,-0.002715901
-1.14,-0.002718966
-1.141,-0.002715901
-1.142,-0.002715901
-1.143,-0.002718966
-1.144,-0.002715901
-1.145,-0.002715901
-1.146,-0.002715901
-1.147,-0.002715901
-1.148,-0.002712835
-1.149,-0.002715901
-1.15,-0.002712835
-1.151,-0.002715901
-1.152,-0.002712835
-1.153,-0.002712835
-1.154,-0.002712835
-1.155,-0.002712835
-1.156,-0.002712835
-1.157,-0.00270977
-1.158,-0.002712835
-1.159,-0.002712835
-1.16,-0.002712835
-1.161,-0.002712835
-1.162,-0.00270977
-1.163,-0.00270977
-1.164,-0.002712835
-1.165,-0.00270977
-1.166,-0.002712835
-1.167,-0.002712835
-1.168,-0.00270977
-1.169,-0.002712835
-1.17,-0.002712835
-1.171,-0.002712835
-1.172,-0.002715901
-1.173,-0.002712835
-1.174,-0.002715901
-1.175,-0.002715901
-1.176,-0.002715901
-1.177,-0.002718966
-1.178,-0.002718966
-1.179,-0.002715901
-1.18,-0.002718966
-1.181,-0.002718966
-1.182,-0.002718966
-1.183,-0.002722032
-1.184,-0.002722032
-1.185,-0.002722032
-1.186,-0.002728163
-1.187,-0.002728163
-1.188,-0.002728163
-1.189,-0.002731228
-1.19,-0.002731228
-1.191,-0.002731228
-1.192,-0.002734293
-1.193,-0.002737359
-1.194,-0.002737359
-1.195,-0.002740425
-1.196,-0.002740425
-1.197,-0.00274349
-1.198,-0.002746556
-1.199,-0.002749621
-1.2,-0.002749621
-1.201,-0.002752687
-1.202,-0.002752687
-1.203,-0.002755752
-1.204,-0.002758818
-1.205,-0.002758818
-1.206,-0.002764949
-1.207,-0.002768014
-1.208,-0.002768014
-1.209,-0.00277108
-1.21,-0.00277721
-1.211,-0.002774145
-1.212,-0.002780276
-1.213,-0.002783341
-1.214,-0.002786407
-1.215,-0.002789472
-1.216,-0.002792538
-1.217,-0.002792538
-1.218,-0.002798669
-1.219,-0.002801734
-1.22,-0.0028048
-1.221,-0.002810931
-1.222,-0.002810931
-1.223,-0.002817062
-1.224,-0.002820127
-1.225,-0.002823193
-1.226,-0.002829324
-1.227,-0.002832389
-1.228,-0.002835455
-1.229,-0.002841586
-1.23,-0.002844651
-1.231,-0.002847716
-1.232,-0.002853847
-1.233,-0.002856913
-1.234,-0.002859978
-1.235,-0.002869175
-1.236,-0.00287224
-1.237,-0.002878371
-1.238,-0.002884502
-1.239,-0.002887568
-1.24,-0.002893699
-1.241,-0.00289983
-1.242,-0.002902895
-1.243,-0.002909026
-1.244,-0.002915157
-1.245,-0.002921288
-1.246,-0.002924354
-1.247,-0.00293355
-1.248,-0.002936616
-1.249,-0.002945812
-1.25,-0.002951943
-1.251,-0.002958074
-1.252,-0.002964205
-1.253,-0.002973401
-1.254,-0.002979532
-1.255,-0.002985663
-1.256,-0.00299486
-1.257,-0.003000991
-1.258,-0.003010187
-1.259,-0.003019383
-1.26,-0.003025514
-1.261,-0.003037777
-1.262,-0.003046973
-1.263,-0.003053104
-1.264,-0.003065366
-1.265,-0.003071497
-1.266,-0.003080693
-1.267,-0.003089889
-1.268,-0.003102152
-1.269,-0.003111348
-1.27,-0.00312361
-1.271,-0.003135872
-1.272,-0.003145068
-1.273,-0.003154265
-1.274,-0.003169592
-1.275,-0.003175723
-1.276,-0.003191051
-1.277,-0.003203312
-1.278,-0.003215575
-1.279,-0.003227836
-1.28,-0.003240098
-1.281,-0.003255426
-1.282,-0.003267688
-1.283,-0.00327995
-1.284,-0.003295277
-1.285,-0.003310604
-1.286,-0.003319801
-1.287,-0.003338194
-1.288,-0.003350456
-1.289,-0.003365783
-1.29,-0.00338111
-1.291,-0.003396438
-1.292,-0.0034087
-1.293,-0.003427093
-1.294,-0.003439354
-1.295,-0.003457748
-1.296,-0.00347614
-1.297,-0.003488402
-1.298,-0.00350373
-1.299,-0.003528254
-1.3,-0.00353745
-1.301,-0.003555843
-1.302,-0.003577302
-1.303,-0.003589563
-1.304,-0.003607956
-1.305,-0.003629415
-1.306,-0.003641677
-1.307,-0.003663135
-1.308,-0.003681528
-1.309,-0.003699921
-1.31,-0.003721379
-1.311,-0.003739772
-1.312,-0.003755099
-1.313,-0.003776558
-1.314,-0.003798016
-1.315,-0.003816409
-1.316,-0.003837867
-1.317,-0.00385626
-1.318,-0.003874653
-1.319,-0.003899177
-1.32,-0.003920636
-1.321,-0.003939028
-1.322,-0.003963552
-1.323,-0.003985011
-1.324,-0.004006469
-1.325,-0.004030993
-1.326,-0.004052451
-1.327,-0.004076975
-1.328,-0.004101499
-1.329,-0.004126023
-1.33,-0.004150547
-1.331,-0.004178136
-1.332,-0.004199594
-1.333,-0.004227184
-1.334,-0.004254773
-1.335,-0.004282362
-1.336,-0.004309952
-1.337,-0.004340607
-1.338,-0.00436513
-1.339,-0.004395785
-1.34,-0.004429505
-1.341,-0.00446016
-1.342,-0.004490815
-1.343,-0.004530666
-1.344,-0.004564387
-1.345,-0.004601172
-1.346,-0.004641024
-1.347,-0.004680875
-1.348,-0.004723792
-1.349,-0.004769774
-1.35,-0.004815756
-1.351,-0.004867869
-1.352,-0.004923048
-1.353,-0.004978227
-1.354,-0.005039536
-1.355,-0.005106977
-1.356,-0.005171353
-1.357,-0.005247989
-1.358,-0.005330757
-1.359,-0.005413526
-1.36,-0.005508556
-1.361,-0.005612782
-1.362,-0.005723139
-1.363,-0.005845758
-1.364,-0.005971443
-1.365,-0.006118587
-1.366,-0.006268795
-1.367,-0.006434331
-1.368,-0.006615194
-1.369,-0.00680832
-1.37,-0.007013707
-1.371,-0.007240553
-1.372,-0.007476595
-1.373,-0.007724899
-1.374,-0.007997727
-1.375,-0.008279751
-1.376,-0.008580169
-1.377,-0.008898979
-1.378,-0.009226986
-1.379,-0.009564188
-1.38,-0.00992285
-1.381,-0.01027845
-1.382,-0.0106555
-1.383,-0.01104175
-1.384,-0.01143107
-1.385,-0.01182652
-1.386,-0.01223422
-1.387,-0.01263887
-1.388,-0.01305271
-1.389,-0.01346042
-1.39,-0.013862
-1.391,-0.01427277
-1.392,-0.01469274
-1.393,-0.01511271
-1.394,-0.01552349
-1.395,-0.0159312
-1.396,-0.01634504
-1.397,-0.01675888
-1.398,-0.01716352
-1.399,-0.0175651
-1.4,-0.01796361
-1.401,-0.01837132
-1.402,-0.0187637
-1.403,-0.01915302
-1.404,-0.0195362
-1.405,-0.01992552
-1.406,-0.02030564
-1.407,-0.02068882
-1.408,-0.02107507
-1.409,-0.02144906
-1.41,-0.02181692
-1.411,-0.02218785
-1.412,-0.02255877
-1.413,-0.02291743
-1.414,-0.02327303
-1.415,-0.02363475
-1.416,-0.02395969
-1.417,-0.0242877
-1.418,-0.02464943
-1.419,-0.02496824
-1.42,-0.02529624
-1.421,-0.02565184
-1.422,-0.02598904
-1.423,-0.02633238
-1.424,-0.02668797
-1.425,-0.02703744
-1.426,-0.02737771
-1.427,-0.02772411
-1.428,-0.02804598
-1.429,-0.02839238
-1.43,-0.02873572
-1.431,-0.02908518
-1.432,-0.02945304
-1.433,-0.02978411
-1.434,-0.03009986
-1.435,-0.03043706
-1.436,-0.03086824
-1.437,-0.03120545
-1.438,-0.03154265
-1.439,-0.0318492
-1.44,-0.0321864
-1.441,-0.0325236
-1.442,-0.03286081
-1.443,-0.03319801
-1.444,-0.03353521
-1.445,-0.03384176
-1.446,-0.03414831
-1.447,-0.03445486
-1.448,-0.03479206
-1.449,-0.03509861
-1.45,-0.03540516
-1.451,-0.03574236
-1.452,-0.03604891
-1.453,-0.03638611
-1.454,-0.03669266
-1.455,-0.03702986
-1.456,-0.03736707
-1.457,-0.03767361
-1.458,-0.03798017
-1.459,-0.03831736
-1.46,-0.03862391
-1.461,-0.03896112
-1.462,-0.03929832
-1.463,-0.03963552
-1.464,-0.03994207
-1.465,-0.04027928
-1.466,-0.04061648
-1.467,-0.04095368
-1.468,-0.04129088
-1.469,-0.04162809
-1.47,-0.04199595
-1.471,-0.04233315
-1.472,-0.04267035
-1.473,-0.04303821
-1.474,-0.04337541
-1.475,-0.04371261
-1.476,-0.04404982
-1.477,-0.04438702
-1.478,-0.04472422
-1.479,-0.04509208
-1.48,-0.04545994
-1.481,-0.0458278
-1.482,-0.046165
-1.483,-0.0465022
-1.484,-0.04687006
-1.485,-0.04720726
-1.486,-0.04757512
-1.487,-0.04791233
-1.488,-0.04828018
-1.489,-0.04864804
-1.49,-0.0490159
-1.491,-0.0493531
-1.492,-0.04969031
-1.493,-0.05008882
-1.494,-0.05045668
-1.495,-0.05082453
-1.496,-0.05122305
-1.497,-0.05159091
-1.498,-0.05195877
-1.499,-0.05232662
-1.5,-0.05244924
-1.499,-0.05214269
-1.498,-0.05180549
-1.497,-0.05143763
-1.496,-0.05110043
-1.495,-0.05076323
-1.494,-0.05039537
-1.493,-0.05005816
-1.492,-0.04972096
-1.491,-0.04938376
-1.49,-0.04907721
-1.489,-0.04874001
-1.488,-0.04837215
-1.487,-0.0480656
-1.486,-0.0477284
-1.485,-0.04739119
-1.484,-0.04705399
-1.483,-0.04671679
-1.482,-0.04641024
-1.481,-0.04607304
-1.48,-0.04576649
-1.479,-0.04542929
-1.478,-0.04512274
-1.477,-0.04478553
-1.476,-0.04444833
-1.475,-0.04411113
-1.474,-0.04380458
-1.473,-0.04346738
-1.472,-0.04316083
-1.471,-0.04282362
-1.47,-0.04251708
-1.469,-0.04221053
-1.468,-0.04184267
-1.467,-0.04150547
-1.466,-0.04119892
-1.465,-0.04086172
-1.464,-0.04052451
-1.463,-0.04021796
-1.462,-0.03988076
-1.461,-0.03954356
-1.46,-0.03923701
-1.459,-0.03889981
-1.458,-0.03859326
-1.457,-0.03825606
-1.456,-0.03791885
-1.455,-0.0376123
-1.454,-0.03730575
-1.453,-0.03696856
-1.452,-0.03663135
-1.451,-0.03629415
-1.45,-0.03595695
-1.449,-0.0356504
-1.448,-0.03534385
-1.447,-0.03497599
-1.446,-0.0347001
-1.445,-0.03436289
-1.444,-0.03402569
-1.443,-0.03371914
-1.442,-0.03338194
-1.441,-0.03304474
-1.44,-0.03270753
-1.439,-0.03240098
-1.438,-0.03206378
-1.437,-0.03175723
-1.436,-0.03142003
-1.435,-0.03111348
-1.434,-0.03080693
-1.433,-0.03046973
-1.432,-0.03013253
-1.431,-0.02982598
-1.43,-0.02948878
-1.429,-0.02918223
-1.428,-0.02887568
-1.427,-0.02853847
-1.426,-0.02823193
-1.425,-0.02789472
-1.424,-0.02758818
-1.423,-0.02728163
-1.422,-0.02697508
-1.421,-0.02663788
-1.42,-0.02633133
-1.419,-0.02602478
-1.418,-0.02571823
-1.417,-0.02541168
-1.416,-0.02510513
-1.415,-0.02479859
-1.414,-0.02449204
-1.413,-0.02418549
-1.412,-0.02384829
-1.411,-0.02357239
-1.41,-0.02326585
-1.409,-0.0229593
-1.408,-0.0226834
-1.407,-0.02237686
-1.406,-0.02207031
-1.405,-0.02179441
-1.404,-0.02148787
-1.403,-0.02121197
-1.402,-0.02090542
-1.401,-0.02062953
-1.4,-0.02032298
-1.399,-0.02007774
-1.398,-0.0197712
-1.397,-0.0194953
-1.396,-0.01921941
-1.395,-0.01894352
-1.394,-0.01866762
-1.393,-0.01839173
-1.392,-0.01811584
-1.391,-0.0178706
-1.39,-0.0175947
-1.389,-0.01731881
-1.388,-0.01707357
-1.387,-0.01679768
-1.386,-0.01655244
-1.385,-0.01627655
-1.384,-0.01603131
-1.383,-0.01589135
-1.382,-0.01565224
-1.381,-0.015407
-1.38,-0.01517096
-1.379,-0.01493492
-1.378,-0.01469887
-1.377,-0.01447203
-1.376,-0.01424825
-1.375,-0.01401834
-1.374,-0.01379762
-1.373,-0.01358917
-1.372,-0.01337152
-1.371,-0.01316
-1.37,-0.01295461
-1.369,-0.01274616
-1.368,-0.0125469
-1.367,-0.01234765
-1.366,-0.01215452
-1.365,-0.01196753
-1.364,-0.0117744
-1.363,-0.01159047
-1.362,-0.01141268
-1.361,-0.01123488
-1.36,-0.01106014
-1.359,-0.01089154
-1.358,-0.01072294
-1.357,-0.01056047
-1.356,-0.010398
-1.355,-0.01024166
-1.354,-0.01008532
-1.353,-0.009938178
-1.352,-0.009791034
-1.351,-0.009643891
-1.35,-0.00950901
-1.349,-0.009364933
-1.348,-0.009233117
-1.347,-0.009110497
-1.346,-0.008978682
-1.345,-0.008856062
-1.344,-0.008736508
-1.343,-0.008613889
-1.342,-0.008500466
-1.341,-0.008390109
-1.34,-0.008279751
-1.339,-0.008175525
-1.338,-0.008071299
-1.337,-0.007967073
-1.336,-0.007872042
-1.335,-0.007773947
-1.334,-0.007678917
-1.333,-0.007593083
-1.332,-0.007501119
-1.331,-0.00741222
-1.33,-0.007332517
-1.329,-0.007246684
-1.328,-0.007166982
-1.327,-0.007090344
-1.326,-0.007010642
-1.325,-0.006940136
-1.324,-0.006866564
-1.323,-0.006792993
-1.322,-0.006725552
-1.321,-0.006661177
-1.32,-0.006590671
-1.319,-0.006526296
-1.318,-0.006464986
-1.317,-0.006400611
-1.316,-0.006342367
-1.315,-0.006284122
-1.314,-0.006222813
-1.313,-0.006170699
-1.312,-0.006118587
-1.311,-0.006060342
-1.31,-0.006011295
-1.309,-0.005959181
-1.308,-0.005907068
-1.307,-0.005861086
-1.306,-0.005812038
-1.305,-0.005762991
-1.304,-0.005720073
-1.303,-0.005674092
-1.302,-0.005628109
-1.301,-0.005585192
-1.3,-0.005542276
-1.299,-0.005502424
-1.298,-0.005462573
-1.297,-0.005419657
-1.296,-0.00538287
-1.295,-0.005346085
-1.294,-0.005306234
-1.293,-0.005269447
-1.292,-0.005232662
-1.291,-0.005195876
-1.29,-0.005162156
-1.289,-0.005128435
-1.288,-0.00509165
-1.287,-0.00505793
-1.286,-0.005027275
-1.285,-0.004993554
-1.284,-0.0049629
-1.283,-0.004932245
-1.282,-0.00490159
-1.281,-0.004870935
-1.28,-0.00484028
-1.279,-0.004812691
-1.278,-0.004782036
-1.277,-0.004754446
-1.276,-0.004726857
-1.275,-0.004699268
-1.274,-0.004671679
-1.273,-0.004644089
-1.272,-0.0046165
-1.271,-0.004591976
-1.27,-0.004567452
-1.269,-0.004542928
-1.268,-0.004515339
-1.267,-0.004490815
-1.266,-0.004466291
-1.265,-0.004438702
-1.264,-0.004417243
-1.263,-0.004398851
-1.262,-0.004371261
-1.261,-0.004346738
-1.26,-0.004325279
-1.259,-0.004300755
-1.258,-0.004279297
-1.257,-0.004257839
-1.256,-0.00423638
-1.255,-0.004217987
-1.254,-0.004193463
-1.253,-0.00417507
-1.252,-0.004153612
-1.251,-0.004132153
-1.25,-0.004110695
-1.249,-0.004092303
-1.248,-0.004070844
-1.247,-0.004052451
-1.246,-0.004034058
-1.245,-0.004009534
-1.244,-0.003994207
-1.243,-0.003975814
-1.242,-0.003954356
-1.241,-0.003935963
-1.24,-0.003920636
-1.239,-0.003899177
-1.238,-0.00388385
-1.237,-0.003862391
-1.236,-0.003847064
-1.235,-0.003828671
-1.234,-0.003810278
-1.233,-0.003791885
-1.232,-0.003776558
-1.231,-0.003755099
-1.23,-0.003739772
-1.229,-0.003724444
-1.228,-0.003706052
-1.227,-0.003690724
-1.226,-0.003675397
-1.225,-0.003657004
-1.224,-0.003641677
-1.223,-0.003626349
-1.222,-0.003604891
-1.221,-0.003592629
-1.22,-0.003577302
-1.219,-0.003558908
-1.218,-0.003546647
-1.217,-0.003528254
-1.216,-0.003512926
-1.215,-0.003497599
-1.214,-0.003482271
-1.213,-0.003466944
-1.212,-0.003454682
-1.211,-0.003439354
-1.21,-0.003420962
-1.209,-0.003411765
-1.208,-0.003393373
-1.207,-0.00338111
-1.206,-0.003368848
-1.205,-0.003353521
-1.204,-0.003338194
-1.203,-0.003325932
-1.202,-0.003310604
-1.201,-0.003295277
-1.2,-0.003283015
-1.199,-0.003270753
-1.198,-0.003255426
-1.197,-0.003243164
-1.196,-0.003227836
-1.195,-0.003215575
-1.194,-0.003203312
-1.193,-0.003187985
-1.192,-0.003178789
-1.191,-0.003163461
-1.19,-0.003148134
-1.189,-0.003138937
-1.188,-0.003126675
-1.187,-0.003111348
-1.186,-0.003102152
-1.185,-0.003086824
-1.184,-0.003074562
-1.183,-0.0030623
-1.182,-0.003053104
-1.181,-0.003040842
-1.18,-0.00302858
-1.179,-0.003016318
-1.178,-0.003004056
-1.177,-0.002991794
-1.176,-0.002982598
-1.175,-0.00296727
-1.174,-0.002955008
-1.173,-0.002945812
-1.172,-0.00293355
-1.171,-0.002921288
-1.17,-0.002912092
-1.169,-0.00289983
-1.168,-0.002887568
-1.167,-0.002881437
-1.166,-0.00286611
-1.165,-0.002856913
-1.164,-0.002847716
-1.163,-0.002835455
-1.162,-0.002826258
-1.161,-0.002813996
-1.16,-0.0028048
-1.159,-0.002795603
-1.158,-0.002783341
-1.157,-0.00277108
-1.156,-0.002764949
-1.155,-0.002752687
-1.154,-0.00274349
-1.153,-0.002734293
-1.152,-0.002725097
-1.151,-0.002712835
-1.15,-0.002703639
-1.149,-0.002691377
-1.148,-0.002685246
-1.147,-0.002676049
-1.146,-0.002663787
-1.145,-0.002654591
-1.144,-0.002645395
-1.143,-0.002636198
-1.142,-0.002627002
-1.141,-0.002617805
-1.14,-0.002608609
-1.139,-0.002599412
-1.138,-0.002590216
-1.137,-0.002577954
-1.136,-0.002571823
-1.135,-0.002562626
-1.134,-0.002550365
-1.133,-0.002544234
-1.132,-0.002531972
-1.131,-0.002525841
-1.13,-0.00251971
-1.129,-0.002507448
-1.128,-0.002498251
-1.127,-0.00249212
-1.126,-0.002479859
-1.125,-0.002473728
-1.124,-0.002464531
-1.123,-0.002455335
-1.122,-0.002446138
-1.121,-0.002436942
-1.12,-0.002427745
-1.119,-0.002421614
-1.118,-0.002412418
-1.117,-0.002403222
-1.116,-0.002394025
-1.115,-0.002384829
-1.114,-0.002378698
-1.113,-0.002369501
-1.112,-0.002360305
-1.111,-0.002351108
-1.11,-0.002344977
-1.109,-0.002335781
-1.108,-0.002323519
-1.107,-0.002320454
-1.106,-0.002308191
-1.105,-0.002302061
-1.104,-0.00229593
-1.103,-0.002283668
-1.102,-0.002274471
-1.101,-0.00226834
-1.1,-0.002259144
-1.099,-0.002249948
-1.098,-0.002243817
-1.097,-0.00223462
-1.096,-0.002225423
-1.095,-0.002219293
-1.094,-0.002210096
-1.093,-0.0022009
-1.092,-0.002191703
-1.091,-0.002182507
-1.09,-0.00217331
-1.089,-0.002167179
-1.088,-0.002157983
-1.087,-0.002148786
-1.086,-0.00213959
-1.085,-0.002133459
-1.084,-0.002121197
-1.083,-0.002118132
-1.082,-0.00210587
-1.081,-0.002099739
-1.08,-0.002090542
-1.079,-0.00207828
-1.078,-0.002072149
-1.077,-0.002066019
-1.076,-0.002053756
-1.075,-0.002047626
-1.074,-0.002038429
-1.073,-0.002029233
-1.072,-0.002020036
-1.071,-0.002013905
-1.07,-0.002001643
-1.069,-0.001995512
-1.068,-0.001986316
-1.067,-0.00197712
-1.066,-0.001970988
-1.065,-0.001958727
-1.064,-0.001952596
-1.063,-0.001943399
-1.062,-0.001931137
-1.061,-0.001925006
-1.06,-0.00191581
-1.059,-0.001906613
-1.058,-0.001897417
-1.057,-0.00188822
-1.056,-0.001879024
-1.055,-0.001869828
-1.054,-0.001860631
-1.053,-0.001851435
-1.052,-0.001839173
-1.051,-0.001833042
-1.05,-0.00182078
-1.049,-0.001811583
-1.048,-0.001805453
-1.047,-0.00179319
-1.046,-0.001783994
-1.045,-0.001774798
-1.044,-0.001765601
-1.043,-0.001753339
-1.042,-0.001747208
-1.041,-0.001734946
-1.04,-0.00172575
-1.039,-0.001719619
-1.038,-0.001707357
-1.037,-0.001695095
-1.036,-0.001688964
-1.035,-0.001676702
-1.034,-0.001667506
-1.033,-0.001658309
-1.032,-0.001646047
-1.031,-0.001636851
-1.03,-0.001627655
-1.029,-0.001618458
-1.028,-0.001606196
-1.027,-0.001633584
-1.026,-0.001624388
-1.025,-0.001616111
-1.024,-0.001604462
-1.023,-0.001594346
-1.022,-0.001586989
-1.021,-0.00157626
-1.02,-0.001566143
-1.019,-0.001559093
-1.018,-0.001548057
-1.017,-0.001538554
-1.016,-0.001531197
-1.015,-0.001520468
-1.014,-0.001511271
-1.013,-0.001503914
-1.012,-0.001493185
-1.011,-0.001483682
-1.01,-0.001477858
-1.009,-0.001467435
-1.008,-0.001457319
-1.007,-0.001451495
-1.006,-0.001441992
-1.005,-0.001433408
-1.004,-0.001423599
-1.003,-0.001417468
-1.002,-0.001408884
-1.001,-0.001399075
-1,-0.001392331
-0.9990003,-0.00138528
-0.9980002,-0.001375777
-0.9970002,-0.001368726
-0.9960002,-0.001360756
-0.9950002,-0.001350334
-0.9940003,-0.001346042
-0.9930002,-0.001338685
-0.9920002,-0.001328262
-0.9910002,-0.001323357
-0.9900002,-0.001316
-0.9890002,-0.001306191
-0.9880002,-0.001300673
-0.9870002,-0.001293622
-0.9860002,-0.001284426
-0.9850003,-0.001278908
-0.9840002,-0.001271857
-0.9830002,-0.001262967
-0.9820002,-0.001256223
-0.9810002,-0.001250705
-0.9800002,-0.001241202
-0.9790002,-0.001235378
-0.9780002,-0.001229247
-0.9770002,-0.00122189
-0.9760002,-0.001215452
-0.9750002,-0.001206562
-0.9740002,-0.001200125
-0.9730002,-0.001193687
-0.9720002,-0.001185717
-0.9710003,-0.00117928
-0.9700002,-0.001173149
-0.9690002,-0.001164872
-0.9680002,-0.001158434
-0.9670002,-0.001152303
-0.9660002,-0.001144333
-0.9650002,-0.001137282
-0.9640002,-0.001130845
-0.9630002,-0.001123488
-0.9620003,-0.001116437
-0.9610002,-0.001110306
-0.9600002,-0.001102949
-0.9590002,-0.001096205
-0.9580002,-0.001089154
-0.9570003,-0.001081491
-0.9560002,-0.001074134
-0.9550002,-0.001068309
-0.9540002,-0.001060645
-0.9530002,-0.001052982
-0.9520002,-0.001046851
-0.9510002,-0.001039494
-0.9500002,-0.00103183
-0.9490002,-0.001026312
-0.9480003,-0.001016502
-0.9470002,-0.001011904
-0.9460002,-0.001004854
-0.9450002,-0.000995044
-0.9440002,-0.0009901392
-0.9430002,-0.0009827821
-0.9420002,-0.0009741987
-0.9410002,-0.0009696006
-0.9400002,-0.0009613237
-0.9390002,-0.0009530469
-0.9380002,-0.0009472225
-0.9370002,-0.0009389457
-0.9360002,-0.0009315885
-0.9350002,-0.0009239248
-0.9340003,-0.0009184069
-0.9330002,-0.0009092105
-0.9320002,-0.0009021599
-0.9310002,-0.0008957224
-0.9300002,-0.000887139
-0.9290002,-0.000880395
-0.9280002,-0.0008733444
-0.9270002,-0.0008653741
-0.9260002,-0.0008595497
-0.9250003,-0.0008521925
-0.9240002,-0.0008436092
-0.9230002,-0.0008380913
-0.9220002,-0.0008295079
-0.9210002,-0.0008224574
-0.9200003,-0.0008163264
-0.9190002,-0.0008080496
-0.9180002,-0.0008022251
-0.9170002,-0.0007970139
-0.9160002,-0.0007878174
-0.9150002,-0.0007816864
-0.9140002,-0.0007761685
-0.9130002,-0.0007685049
-0.9120002,-0.0007626804
-0.9110003,-0.0007574691
-0.9100002,-0.0007491923
-0.9090002,-0.0007445941
-0.9080002,-0.0007390762
-0.9070002,-0.000731106
-0.9060002,-0.0007277339
-0.9050002,-0.0007212964
-0.9040002,-0.000715472
-0.9030002,-0.0007102606
-0.9020002,-0.0007050494
-0.9010002,-0.0007001446
-0.9000002,-0.0006946267
-0.8990002,-0.0006891088
-0.8980002,-0.0006848171
-0.8970003,-0.0006792994
-0.8960002,-0.0006743945
-0.8950002,-0.0006707159
-0.8940002,-0.000664585
-0.8930002,-0.0006602933
-0.8920002,-0.0006560017
-0.8910002,-0.0006510969
-0.8900002,-0.0006449659
-0.8890002,-0.0006415938
-0.8880002,-0.0006363826
-0.8870002,-0.0006308646
-0.8860002,-0.0006271861
-0.8850002,-0.0006210551
-0.8840002,-0.00061707
-0.8830003,-0.0006133915
-0.8820002,-0.0006078735
-0.8810002,-0.0006026622
-0.8800002,-0.0005999033
-0.8790002,-0.0005928527
-0.8780002,-0.0005891741
-0.8770002,-0.0005848824
-0.8760002,-0.0005784449
-0.8750002,-0.0005744598
-0.8740003,-0.0005704747
-0.8730002,-0.0005637306
-0.8720002,-0.0005594389
-0.8710002,-0.0005548407
-0.8700002,-0.0005484032
-0.8690003,-0.000543805
-0.8680002,-0.0005389001
-0.8670002,-0.0005330758
-0.8660002,-0.0005278645
-0.8650002,-0.00052204
-0.8640002,-0.0005162156
-0.8630002,-0.0005110043
-0.8620002,-0.0005048733
-0.8610002,-0.0004987424
-0.8600003,-0.000492918
-0.8590002,-0.0004870935
-0.8580002,-0.0004800429
-0.8570002,-0.000473912
-0.8560002,-0.0004671679
-0.8550002,-0.0004598107
-0.8540002,-0.0004527601
-0.8530002,-0.0004463226
-0.8520002,-0.0004374327
-0.8510002,-0.0004306886
-0.8500002,-0.0004230249
-0.8490002,-0.0004135219
-0.8480002,-0.0004058582
-0.8470002,-0.0003975815
-0.8460003,-0.0003880784
-0.8450002,-0.000378882
-0.8440002,-0.0003690725
-0.8430002,-0.0003589563
-0.8420002,-0.0003488403
-0.8410002,-0.0003378045
-0.8400002,-0.000327995
-0.8390002,-0.0003160396
-0.8380002,-0.0003043908
-0.8370003,-0.0002927419
-0.8360002,-0.0002801734
-0.8350002,-0.0002672984
-0.8340002,-0.0002550365
-0.8330002,-0.0002409353
-0.8320003,-0.0002280602
-0.8310002,-0.0002148787
-0.8300002,-0.0002001643
-0.8290002,-0.0001860631
-0.8280002,-0.0001716554
-0.8270002,-0.0001554083
-0.8260002,-0.0001410005
-0.8250002,-0.0001283506
-0.8240002,-0.0001122262
-0.8230003,-9.689873E-05
-0.8220002,-8.01612E-05
-0.8210002,-6.219748E-05
-0.8200002,-4.653286E-05
-0.8190002,-2.801734E-05
-0.8180002,-9.747067E-06
-0.8170002,7.297016E-06
-0.8160002,2.519943E-05
-0.8150002,4.445066E-05
-0.8140002,6.229177E-05
-0.8130002,8.065401E-05
-0.8120002,0.0001001198
-0.8110002,0.0001175011
-0.8100002,0.0001363232
-0.8090003,0.0001561875
-0.8080002,0.0001742738
-0.8070002,0.000193617
-0.8060002,0.0002130216
-0.8050002,0.0002312918
-0.8040002,0.0002513401
-0.8030002,0.0002695491
-0.8020002,0.000288831
-0.8010002,0.0003120778
-0.8000003,0.0002912325
-0.8009998,0.0002406521
-0.8019998,0.0001980419
-0.8029998,0.000157884
-0.8039998,0.000119259
-0.8049998,8.369936E-05
-0.8059998,4.570751E-05
-0.8069998,1.201786E-05
-0.8079998,-1.891286E-05
-0.8089998,-5.018078E-05
-0.8099998,-8.022251E-05
-0.8109998,-0.0001079345
-0.8119998,-0.0001358917
-0.8129998,-0.0001628066
-0.8139998,-0.0001881888
-0.8149998,-0.0002132644
-0.8159998,-0.0002375431
-0.8169998,-0.0002605648
-0.8179998,-0.0002835253
-0.8189998,-0.0003037777
-0.8199998,-0.0003246229
-0.8209998,-0.0003451617
-0.8219998,-0.0003653939
-0.8229998,-0.0003847064
-0.8239998,-0.0004037124
-0.8249998,-0.0004230249
-0.8259998,-0.0004408048
-0.8269998,-0.000458278
-0.8279998,-0.0004760578
-0.8289998,-0.0004926114
-0.8299998,-0.0005088585
-0.8309998,-0.0005257186
-0.8319998,-0.0005401264
-0.8329998,-0.0005557603
-0.8339998,-0.0005707812
-0.8349998,-0.0005848824
-0.8359998,-0.0006002099
-0.8369998,-0.0006133915
-0.8379998,-0.0006271861
-0.8389998,-0.0006412873
-0.8399998,-0.0006532427
-0.8409998,-0.0006658112
-0.8419998,-0.0006789928
-0.8429998,-0.0006903351
-0.8439998,-0.0007029035
-0.8449998,-0.0007151655
-0.8459998,-0.0007255881
-0.8469998,-0.0007366238
-0.8479998,-0.0007488858
-0.8489998,-0.0007590018
-0.8499998,-0.0007694245
-0.8509998,-0.0007807668
-0.8519998,-0.0007899632
-0.8529998,-0.0007994662
-0.8539998,-0.000810502
-0.8549998,-0.0008193919
-0.8559998,-0.0008285883
-0.8569998,-0.0008380913
-0.8579998,-0.0008472878
-0.8589998,-0.0008561776
-0.8599998,-0.000864761
-0.8609998,-0.0008733444
-0.8619998,-0.0008825408
-0.8629998,-0.0008902045
-0.8639998,-0.0008984813
-0.8649998,-0.0009073712
-0.8659998,-0.0009144219
-0.8669998,-0.0009220855
-0.8679998,-0.0009306689
-0.8689998,-0.0009383326
-0.8699998,-0.0009453832
-0.8709998,-0.00095366
-0.8719998,-0.0009613237
-0.8729998,-0.0009683743
-0.8739998,-0.0009766511
-0.8749998,-0.0009824756
-0.8759998,-0.0009907524
-0.8769998,-0.0009974964
-0.8779998,-0.001003627
-0.8789998,-0.001011904
-0.8799998,-0.001018648
-0.8809998,-0.001025086
-0.8819998,-0.001033363
-0.8829998,-0.001039494
-0.8839998,-0.001046238
-0.8849998,-0.001053288
-0.8859998,-0.001060032
-0.8869998,-0.00106647
-0.8879998,-0.001073521
-0.8889998,-0.001080264
-0.8899998,-0.001086089
-0.8909998,-0.001092833
-0.8919998,-0.001100497
-0.8929998,-0.001106015
-0.8939998,-0.001113678
-0.8949998,-0.001119809
-0.8959998,-0.001125327
-0.8969998,-0.001133604
-0.8979998,-0.001138815
-0.8989998,-0.001145866
-0.8999998,-0.001153223
-0.9009998,-0.001159047
-0.9019998,-0.001165485
-0.9029998,-0.001172229
-0.9039998,-0.001177134
-0.9049998,-0.001185411
-0.9059998,-0.001191235
-0.9069998,-0.001197059
-0.9079998,-0.001204417
-0.9089998,-0.001210241
-0.9099998,-0.001216678
-0.9109998,-0.001224342
-0.9119998,-0.001229247
-0.9129998,-0.001235684
-0.9139998,-0.001243042
-0.9149998,-0.001248253
-0.9159998,-0.00125561
-0.9169998,-0.001262354
-0.9179998,-0.001267566
-0.9189998,-0.001274616
-0.9199998,-0.001280134
-0.9209998,-0.001286878
-0.9219998,-0.001294235
-0.9229998,-0.00130006
-0.9239998,-0.001305884
-0.9249998,-0.001312935
-0.9259998,-0.001319066
-0.9269998,-0.001324583
-0.9279998,-0.001331327
-0.9289998,-0.001335926
-0.9299998,-0.00134359
-0.9309998,-0.00135064
-0.9319998,-0.001356464
-0.9329998,-0.001361982
-0.9339998,-0.001369646
-0.9349998,-0.001374551
-0.9359998,-0.001380375
-0.9369998,-0.001386813
-0.9379998,-0.001392637
-0.9389998,-0.001398155
-0.9399998,-0.001405512
-0.9409998,-0.00141103
-0.9419998,-0.001416241
-0.9429998,-0.001423905
-0.9439998,-0.001429116
-0.9449998,-0.001434634
-0.9459998,-0.001441685
-0.9469998,-0.00144659
-0.9479998,-0.001453027
-0.9489998,-0.001459771
-0.9499998,-0.001465289
-0.9509998,-0.001470807
-0.9519998,-0.001476631
-0.9529998,-0.001482456
-0.9539998,-0.00148828
-0.9549998,-0.001495331
-0.9559998,-0.001501155
-0.9569998,-0.001506367
-0.9579998,-0.001514643
-0.9589998,-0.001518629
-0.9599998,-0.001524759
-0.9609998,-0.00153181
-0.9619998,-0.001537328
-0.9629998,-0.001543459
-0.9639998,-0.001550203
-0.9649998,-0.001555108
-0.9659998,-0.001562158
-0.9669998,-0.001568902
-0.9679998,-0.001572888
-0.9689998,-0.001579938
-0.9699998,-0.001586069
-0.9709998,-0.001592813
-0.9719998,-0.001599864
-0.9729998,-0.001604462
-0.9739998,-0.0016109
-0.9749998,-0.001618257
-0.9759998,-0.001622548
-0.9769998,-0.001629906
-0.9779998,-0.001636956
-0.9789998,-0.001641248
-0.9799998,-0.001649831
-0.9809998,-0.001655656
-0.9819998,-0.001660254
-0.9829998,-0.001668837
-0.9839998,-0.001674355
-0.9849998,-0.001680793
-0.9859998,-0.00168723
-0.9869998,-0.001693974
-0.9879998,-0.001700718
-0.9889998,-0.001706849
-0.9899998,-0.001713287
-0.9909998,-0.001718805
-0.9919998,-0.001726775
-0.9929998,-0.001733519
-0.9939998,-0.00173873
-0.9949998,-0.00174762
-0.9959998,-0.001752831
-0.9969998,-0.001760188
-0.9979998,-0.001768465
-0.9989998,-0.001773983
-0.9999998,-0.00178134
-1.001,-0.001789617
-1.002,-0.001795135
-1.003,-0.001803412
-1.004,-0.001811689
-1.005,-0.00181782
-1.006,-0.001826403
-1.007,-0.001834373
-1.008,-0.001839585
-1.009,-0.001848168
-1.01,-0.001857058
-1.011,-0.001862882
-1.012,-0.001871466
-1.013,-0.001880355
-1.014,-0.001886793
-1.015,-0.001894763
-1.016,-0.001904266
-1.017,-0.001910091
-1.018,-0.001918367
-1.019,-0.001929403
-1.02,-0.00193676
-1.021,-0.001944424
-1.022,-0.00195362
-1.023,-0.001963123
-1.024,-0.001971707
-1.025,-0.001980597
-1.026,-0.0019901
-1.027,-0.00199807
-1.028,-0.002008493
-1.029,-0.002017689
-1.03,-0.002027192
-1.031,-0.002036695
-1.032,-0.002046505
-1.033,-0.002057234
-1.034,-0.002067043
-1.035,-0.002077466
-1.036,-0.002089421
-1.037,-0.002099231
-1.038,-0.002111186
-1.039,-0.002122528
-1.04,-0.002132338
-1.041,-0.00214552
-1.042,-0.002157475
-1.043,-0.002169124
-1.044,-0.002181692
-1.045,-0.002195793
-1.046,-0.002206216
-1.047,-0.002220317
-1.048,-0.002234112
-1.049,-0.002245148
-1.05,-0.002260475
-1.051,-0.00227427
-1.052,-0.002287451
-1.053,-0.002302779
-1.054,-0.002315654
-1.055,-0.002330675
-1.056,-0.002345696
-1.057,-0.002359184
-1.058,-0.002373898
-1.059,-0.002388919
-1.06,-0.002401794
-1.061,-0.002418348
-1.062,-0.002433062
-1.063,-0.00244563
-1.064,-0.002461264
-1.065,-0.002475059
-1.066,-0.002486401
-1.067,-0.002502035
-1.068,-0.002515217
-1.069,-0.002526559
-1.07,-0.002541273
-1.071,-0.002552922
-1.072,-0.002563038
-1.073,-0.002576526
-1.074,-0.002587562
-1.075,-0.002597372
-1.076,-0.002609634
-1.077,-0.002619443
-1.078,-0.002627414
-1.079,-0.002639369
-1.08,-0.002647646
-1.081,-0.002655309
-1.082,-0.002665119
-1.083,-0.00267033
-1.084,-0.002678607
-1.085,-0.002687497
-1.086,-0.002691789
-1.087,-0.002699759
-1.088,-0.002705583
-1.089,-0.002709568
-1.09,-0.002716925
-1.091,-0.002722137
-1.092,-0.002725202
-1.093,-0.002731333
-1.094,-0.002736238
-1.095,-0.002737771
-1.096,-0.002744209
-1.097,-0.002747887
-1.098,-0.00274942
-1.099,-0.002754325
-1.1,-0.002760149
-1.101,-0.002760455
-1.102,-0.002766586
-1.103,-0.002769652
-1.104,-0.002770878
-1.105,-0.002779155
-1.106,-0.002780381
-1.107,-0.002782527
-1.108,-0.002789884
-1.109,-0.002792643
-1.11,-0.002796015
-1.111,-0.002802453
-1.112,-0.002803985
-1.113,-0.00280889
-1.114,-0.002816554
-1.115,-0.002818086
-1.116,-0.002822072
-1.117,-0.002827896
-1.118,-0.002831268
-1.119,-0.00283556
-1.12,-0.002840771
-1.121,-0.002842304
-1.122,-0.002849968
-1.123,-0.002854566
-1.124,-0.002855485
-1.125,-0.002864682
-1.126,-0.00286836
-1.127,-0.002871426
-1.128,-0.00287725
-1.129,-0.002881235
-1.13,-0.002885527
-1.131,-0.002892271
-1.132,-0.00289595
-1.133,-0.002901161
-1.134,-0.002907599
-1.135,-0.00291189
-1.136,-0.002917102
-1.137,-0.002924765
-1.138,-0.002929364
-1.139,-0.002935801
-1.14,-0.002944998
-1.141,-0.002946224
-1.142,-0.002955727
-1.143,-0.002961858
-1.144,-0.002966149
-1.145,-0.002974426
-1.146,-0.002982396
-1.147,-0.002987301
-1.148,-0.002997111
-1.149,-0.003003548
-1.15,-0.003009066
-1.151,-0.002982598
-1.152,-0.002988729
-1.153,-0.00299486
-1.154,-0.003007122
-1.155,-0.003013253
-1.156,-0.003019383
-1.157,-0.003031645
-1.158,-0.003037777
-1.159,-0.003046973
-1.16,-0.003056169
-1.161,-0.003065366
-1.162,-0.003071497
-1.163,-0.003083759
-1.164,-0.003092955
-1.165,-0.003099086
-1.166,-0.003108283
-1.167,-0.003120545
-1.168,-0.003126675
-1.169,-0.003138937
-1.17,-0.003148134
-1.171,-0.00315733
-1.172,-0.003169592
-1.173,-0.003178789
-1.174,-0.003187985
-1.175,-0.003200247
-1.176,-0.003206378
-1.177,-0.00321864
-1.178,-0.003230902
-1.179,-0.003240098
-1.18,-0.00325236
-1.181,-0.003261557
-1.182,-0.003273819
-1.183,-0.003283015
-1.184,-0.003292212
-1.185,-0.003304473
-1.186,-0.003316735
-1.187,-0.003325932
-1.188,-0.003338194
-1.189,-0.00334739
-1.19,-0.003356587
-1.191,-0.003365783
-1.192,-0.003378045
-1.193,-0.003390307
-1.194,-0.003399503
-1.195,-0.003411765
-1.196,-0.003420962
-1.197,-0.003433224
-1.198,-0.003445486
-1.199,-0.003454682
-1.2,-0.003466944
-1.201,-0.00347614
-1.202,-0.003488402
-1.203,-0.003500664
-1.204,-0.003509861
-1.205,-0.003522123
-1.206,-0.003534385
-1.207,-0.003543581
-1.208,-0.003555843
-1.209,-0.00357117
-1.21,-0.003580367
-1.211,-0.003592629
-1.212,-0.003604891
-1.213,-0.003611021
-1.214,-0.003626349
-1.215,-0.003638611
-1.216,-0.003647808
-1.217,-0.003663135
-1.218,-0.003675397
-1.219,-0.003687659
-1.22,-0.003699921
-1.221,-0.003712183
-1.222,-0.003721379
-1.223,-0.003736707
-1.224,-0.003745903
-1.225,-0.00376123
-1.226,-0.003776558
-1.227,-0.003785754
-1.228,-0.003798016
-1.229,-0.003813344
-1.23,-0.00382254
-1.231,-0.003837867
-1.232,-0.003853195
-1.233,-0.003862391
-1.234,-0.003877719
-1.235,-0.003893046
-1.236,-0.003905308
-1.237,-0.003920636
-1.238,-0.003932897
-1.239,-0.003948225
-1.24,-0.003960487
-1.241,-0.00397888
-1.242,-0.003991141
-1.243,-0.004006469
-1.244,-0.004021796
-1.245,-0.004034058
-1.246,-0.004052451
-1.247,-0.004067779
-1.248,-0.004083106
-1.249,-0.004098434
-1.25,-0.004116826
-1.251,-0.004132153
-1.252,-0.004150547
-1.253,-0.004162808
-1.254,-0.004181202
-1.255,-0.00420266
-1.256,-0.004217987
-1.257,-0.004233315
-1.258,-0.004257839
-1.259,-0.004270101
-1.26,-0.004291559
-1.261,-0.004313017
-1.262,-0.00433141
-1.263,-0.004349803
-1.264,-0.004371261
-1.265,-0.004389654
-1.266,-0.004411113
-1.267,-0.004435637
-1.268,-0.004450964
-1.269,-0.004478553
-1.27,-0.004503077
-1.271,-0.00452147
-1.272,-0.00454906
-1.273,-0.004573583
-1.274,-0.004591976
-1.275,-0.004622631
-1.276,-0.00465022
-1.277,-0.004671679
-1.278,-0.004702333
-1.279,-0.004729923
-1.28,-0.004754446
-1.281,-0.004788167
-1.282,-0.004815756
-1.283,-0.004846411
-1.284,-0.004880131
-1.285,-0.004910786
-1.286,-0.004944507
-1.287,-0.004978227
-1.288,-0.005011947
-1.289,-0.005048733
-1.29,-0.005085519
-1.291,-0.005122304
-1.292,-0.005162156
-1.293,-0.005202007
-1.294,-0.005244924
-1.295,-0.005287841
-1.296,-0.005333823
-1.297,-0.005373674
-1.298,-0.005422722
-1.299,-0.005471769
-1.3,-0.005517752
-1.301,-0.005569865
-1.302,-0.005625044
-1.303,-0.005677157
-1.304,-0.005735401
-1.305,-0.00579058
-1.306,-0.005848824
-1.307,-0.005913199
-1.308,-0.005974509
-1.309,-0.006041949
-1.31,-0.006112455
-1.311,-0.006179896
-1.312,-0.006250402
-1.313,-0.006330105
-1.314,-0.006403676
-1.315,-0.006486444
-1.316,-0.006569212
-1.317,-0.00665198
-1.318,-0.006740879
-1.319,-0.00683591
-1.32,-0.006924808
-1.321,-0.00702597
-1.322,-0.007130195
-1.323,-0.007231356
-1.324,-0.007341714
-1.325,-0.007458202
-1.326,-0.007565494
-1.327,-0.007691179
-1.328,-0.007816863
-1.329,-0.007942548
-1.33,-0.008080496
-1.331,-0.008215376
-1.332,-0.008356389
-1.333,-0.008509663
-1.334,-0.008656806
-1.335,-0.008816211
-1.336,-0.008978682
-1.337,-0.009144218
-1.338,-0.00931895
-1.339,-0.009499813
-1.34,-0.009680677
-1.341,-0.009870737
-1.342,-0.01006999
-1.343,-0.01026925
-1.344,-0.0104777
-1.345,-0.01069535
-1.346,-0.01090687
-1.347,-0.01113678
-1.348,-0.01136976
-1.349,-0.01159967
-1.35,-0.01184797
-1.351,-0.01209628
-1.352,-0.01235071
-1.353,-0.01261741
-1.354,-0.01288104
-1.355,-0.0131508
-1.356,-0.01343283
-1.357,-0.01370872
-1.358,-0.01399994
-1.359,-0.01429423
-1.36,-0.01458852
-1.361,-0.014892
-1.362,-0.01519855
-1.363,-0.01550509
-1.364,-0.0158239
-1.365,-0.01613965
-1.366,-0.01646153
-1.367,-0.01678953
-1.368,-0.01711754
-1.369,-0.01745474
-1.37,-0.01779808
-1.371,-0.01813834
-1.372,-0.01848474
-1.373,-0.01883114
-1.374,-0.01918367
-1.375,-0.01953007
-1.376,-0.0198826
-1.377,-0.02023513
-1.378,-0.02059073
-1.379,-0.02095246
-1.38,-0.02131112
-1.381,-0.02165752
-1.382,-0.02201924
-1.383,-0.02238403
-1.384,-0.02274576
-1.385,-0.02311362
-1.386,-0.02347535
-1.387,-0.02384321
-1.388,-0.024208
-1.389,-0.02456973
-1.39,-0.02492532
-1.391,-0.02529624
-1.392,-0.02566104
-1.393,-0.02602583
-1.394,-0.02639062
-1.395,-0.02676154
-1.396,-0.02712327
-1.397,-0.02748806
-1.398,-0.02785592
-1.399,-0.02821458
-1.4,-0.0285947
-1.401,-0.0289595
-1.402,-0.02932735
-1.403,-0.02969828
-1.404,-0.03005694
-1.405,-0.03042173
-1.406,-0.03092955
-1.407,-0.03126676
-1.408,-0.03163461
-1.409,-0.03200247
-1.41,-0.03237033
-1.411,-0.03273819
-1.412,-0.0331367
-1.413,-0.03350456
-1.414,-0.03387242
-1.415,-0.03424027
-1.416,-0.03460813
-1.417,-0.03497599
-1.418,-0.0353745
-1.419,-0.03571171
-1.42,-0.03611022
-1.421,-0.03647808
-1.422,-0.03684593
-1.423,-0.03718314
-1.424,-0.037551
-1.425,-0.03791885
-1.426,-0.03828671
-1.427,-0.03865457
-1.428,-0.03902243
-1.429,-0.03939028
-1.43,-0.03975814
-1.431,-0.04009534
-1.432,-0.04049386
-1.433,-0.04086172
-1.434,-0.04122957
-1.435,-0.04162809
-1.436,-0.04199595
-1.437,-0.0423638
-1.438,-0.04273166
-1.439,-0.04306886
-1.44,-0.04343672
-1.441,-0.04383523
-1.442,-0.04417244
-1.443,-0.0445403
-1.444,-0.04490815
-1.445,-0.04524536
-1.446,-0.04564387
-1.447,-0.04601173
-1.448,-0.04634893
-1.449,-0.04674744
-1.45,-0.04708464
-1.451,-0.04745251
-1.452,-0.04782036
-1.453,-0.04818822
-1.454,-0.04855608
-1.455,-0.04895459
-1.456,-0.04932245
-1.457,-0.04969031
-1.458,-0.05008882
-1.459,-0.05042602
-1.46,-0.05079388
-1.461,-0.05119239
-1.462,-0.05156025
-1.463,-0.05192811
-1.464,-0.05229596
-1.465,-0.05263317
-1.466,-0.05303168
-1.467,-0.05339954
-1.468,-0.05376739
-1.469,-0.05416591
-1.47,-0.05450311
-1.471,-0.05487097
-1.472,-0.05526949
-1.473,-0.05563734
-1.474,-0.0560052
-1.475,-0.05637306
-1.476,-0.05671026
-1.477,-0.05707812
-1.478,-0.05747664
-1.479,-0.05784449
-1.48,-0.05821235
-1.481,-0.05858021
-1.482,-0.05894807
-1.483,-0.05934658
-1.484,-0.05971443
-1.485,-0.06008229
-1.486,-0.0604808
-1.487,-0.06087932
-1.488,-0.06124718
-1.489,-0.06164569
-1.49,-0.06201354
-1.491,-0.06238141
-1.492,-0.06277992
-1.493,-0.06314778
-1.494,-0.06351563
-1.495,-0.0639448
-1.496,-0.06431266
-1.497,-0.06471118
-1.498,-0.06510969
-1.499,-0.06547754
-1.5,-0.06556951
-1.499,-0.065171
-1.498,-0.06474183
-1.497,-0.06431266
-1.496,-0.06391414
-1.495,-0.06348498
-1.494,-0.06308647
-1.493,-0.06262664
-1.492,-0.06219748
-1.491,-0.0617683
-1.49,-0.0613698
-1.489,-0.06094063
-1.488,-0.06054211
-1.487,-0.06011295
-1.486,-0.05971443
-1.485,-0.05928526
-1.484,-0.05888676
-1.483,-0.05845758
-1.482,-0.05805907
-1.481,-0.05762991
-1.48,-0.05723139
-1.479,-0.05683288
-1.478,-0.05640372
-1.477,-0.05597454
-1.476,-0.05557603
-1.475001,-0.05517752
-1.474,-0.054779
-1.473,-0.0543805
-1.472,-0.05395133
-1.471,-0.05355281
-1.47,-0.0531543
-1.469,-0.05275579
-1.468,-0.05235728
-1.467,-0.05195877
-1.466,-0.05156025
-1.465,-0.05113108
-1.464,-0.05073257
-1.463,-0.05033405
-1.462,-0.04993555
-1.461,-0.04953703
-1.46,-0.04913852
-1.459,-0.04874001
-1.458,-0.04837215
-1.457,-0.04794298
-1.456,-0.04754447
-1.455,-0.04714596
-1.454,-0.04674744
-1.453,-0.04634893
-1.452,-0.04595042
-1.451,-0.04555191
-1.45,-0.04515339
-1.449,-0.04478553
-1.448,-0.04438702
-1.447,-0.04398851
-1.446,-0.04362065
-1.445,-0.04322214
-1.444,-0.04282362
-1.443,-0.04245577
-1.442,-0.04205726
-1.441,-0.04165874
-1.44,-0.04126023
-1.439,-0.04089237
-1.438,-0.04049386
-1.437,-0.04009534
-1.436,-0.03972749
-1.435,-0.03935963
-1.434,-0.03896112
-1.433,-0.03859326
-1.432,-0.0382254
-1.431,-0.03782689
-1.43,-0.03742838
-1.429,-0.03706052
-1.428,-0.036662
-1.427,-0.0363248
-1.426,-0.03592629
-1.425,-0.03555843
-1.424,-0.03519057
-1.423,-0.03479206
-1.422,-0.0344242
-1.421,-0.034087
-1.42,-0.03368849
-1.419,-0.03332063
-1.418,-0.03295277
-1.417,-0.03258491
-1.416,-0.03221706
-1.415,-0.0318492
-1.414,-0.03148134
-1.413,-0.03114414
-1.412,-0.03077628
-1.411,-0.03043908
-1.41,-0.03007122
-1.409,-0.02970336
-1.408,-0.02936616
-1.407,-0.0289983
-1.406,-0.0286611
-1.405,-0.02832389
-1.404,-0.02795603
-1.403,-0.02761883
-1.402,-0.02725097
-1.401,-0.02691377
-1.4,-0.02657657
-1.399,-0.02623936
-1.398,-0.02590216
-1.397,-0.02556496
-1.396,-0.02522776
-1.395,-0.02489055
-1.394,-0.02455335
-1.393,-0.02421615
-1.392,-0.0239096
-1.391,-0.02357239
-1.39,-0.02323519
-1.389,-0.02292864
-1.388,-0.02262209
-1.387,-0.02228489
-1.386,-0.02197834
-1.385,-0.02167179
-1.384,-0.02136525
-1.383,-0.0210587
-1.382,-0.0207215
-1.381,-0.02041495
-1.38,-0.02013905
-1.379,-0.0198325
-1.378,-0.01952596
-1.377,-0.01921941
-1.376,-0.01894352
-1.375,-0.01863697
-1.374,-0.01836107
-1.373,-0.01805453
-1.372,-0.01777863
-1.371,-0.01750274
-1.37,-0.01722685
-1.369,-0.01695095
-1.368,-0.01667506
-1.367,-0.01639917
-1.366,-0.01612327
-1.365,-0.01599251
-1.364,-0.01573194
-1.363,-0.01548364
-1.362,-0.01523227
-1.361,-0.0149809
-1.36,-0.01473566
-1.359,-0.01449348
-1.358,-0.01425131
-1.357,-0.01401834
-1.356,-0.01378536
-1.355,-0.01355545
-1.354,-0.01333473
-1.353,-0.01310789
-1.352,-0.01288411
-1.351,-0.01267565
-1.350001,-0.01245494
-1.349,-0.01224955
-1.348,-0.01204723
-1.347,-0.01183878
-1.346,-0.01164259
-1.345,-0.01145253
-1.344,-0.0112594
-1.343,-0.01107241
-1.342,-0.01088848
-1.341,-0.01070761
-1.34,-0.01053288
-1.339,-0.01036735
-1.338,-0.01018955
-1.337,-0.01002708
-1.336,-0.009867672
-1.335,-0.009696005
-1.334,-0.009545796
-1.333,-0.009392521
-1.332,-0.009236182
-1.331,-0.009092105
-1.33,-0.008948027
-1.329,-0.008807015
-1.328,-0.008675199
-1.327,-0.008537252
-1.326,-0.008408502
-1.325,-0.008282817
-1.324,-0.008151001
-1.323,-0.008034512
-1.322,-0.007914959
-1.321,-0.00779234
-1.32,-0.007685048
-1.319,-0.007574691
-1.318,-0.007461268
-1.317,-0.007360106
-1.316,-0.007262012
-1.315,-0.007157785
-1.314,-0.007065821
-1.313,-0.006967725
-1.312,-0.006872695
-1.311,-0.006789927
-1.31,-0.006701028
-1.309,-0.006612129
-1.308,-0.006532426
-1.307,-0.006446593
-1.306,-0.006369956
-1.305,-0.006296384
-1.304,-0.006216682
-1.303,-0.006146176
-1.302,-0.006078735
-1.301,-0.006002098
-1.3,-0.005937723
-1.299,-0.005873348
-1.298,-0.005805907
-1.297,-0.005744598
-1.296,-0.005686353
-1.295,-0.005621978
-1.294,-0.005563734
-1.293,-0.005508556
-1.292,-0.005450311
-1.291,-0.005398198
-1.29,-0.005343019
-1.289,-0.005287841
-1.288,-0.005244924
-1.287,-0.005192811
-1.286,-0.005143763
-1.285,-0.005100846
-1.284,-0.005048733
-1.283,-0.005005816
-1.282,-0.0049629
-1.281,-0.004919983
-1.28,-0.004880131
-1.279,-0.00484028
-1.278,-0.004797364
-1.277,-0.004757512
-1.276,-0.004720726
-1.275,-0.004680875
-1.274,-0.004644089
-1.273,-0.004610369
-1.272,-0.004573583
-1.271,-0.004539863
-1.27,-0.004506143
-1.269,-0.004469357
-1.268,-0.004438702
-1.267,-0.004404982
-1.266,-0.004374327
-1.265,-0.004346738
-1.264,-0.004313017
-1.263,-0.004285428
-1.262,-0.004257839
-1.261,-0.004227184
-1.26,-0.004199594
-1.259,-0.00417507
-1.258,-0.004144416
-1.257,-0.004116826
-1.256,-0.004095368
-1.255,-0.004067779
-1.254,-0.004040189
-1.253,-0.004018731
-1.252,-0.003991141
-1.251,-0.003969683
-1.25,-0.003945159
-1.249,-0.003920636
-1.248,-0.003899177
-1.247,-0.003874653
-1.246,-0.003853195
-1.245,-0.003831736
-1.244,-0.003810278
-1.243,-0.00378882
-1.242,-0.003767361
-1.241,-0.003745903
-1.24,-0.003724444
-1.239,-0.003706052
-1.238,-0.003684593
-1.237,-0.0036662
-1.236,-0.003644742
-1.235,-0.003626349
-1.234,-0.003607956
-1.233,-0.003586498
-1.232,-0.003568105
-1.231,-0.003552777
-1.23,-0.003534385
-1.229,-0.003515992
-1.228,-0.003497599
-1.227,-0.003479206
-1.226,-0.003463879
-1.225001,-0.003448551
-1.224,-0.003430158
-1.223,-0.003411765
-1.222,-0.003399503
-1.221,-0.00338111
-1.22,-0.003365783
-1.219,-0.003350456
-1.218,-0.003332063
-1.217,-0.003319801
-1.216,-0.003301408
-1.215,-0.003286081
-1.214,-0.003273819
-1.213,-0.003258491
-1.212,-0.003243164
-1.211,-0.003230902
-1.21,-0.003215575
-1.209,-0.003197182
-1.208,-0.003184919
-1.207,-0.003172658
-1.206,-0.00315733
-1.205,-0.003148134
-1.204,-0.003132806
-1.203,-0.003114413
-1.202,-0.003105217
-1.201,-0.003089889
-1.2,-0.003074562
-1.199,-0.003068431
-1.198,-0.003050038
-1.197,-0.003037777
-1.196,-0.003025514
-1.195,-0.003013253
-1.194,-0.003000991
-1.193,-0.002991794
-1.192,-0.002976467
-1.191,-0.002961139
-1.19,-0.002955008
-1.189,-0.002939681
-1.188,-0.002927419
-1.187,-0.002918222
-1.186,-0.002902895
-1.185,-0.002893699
-1.184,-0.002881437
-1.183,-0.002869175
-1.182,-0.002859978
-1.181,-0.002847716
-1.18,-0.002835455
-1.179,-0.002829324
-1.178,-0.002813996
-1.177,-0.0028048
-1.176,-0.002795603
-1.175,-0.002783341
-1.174,-0.002774145
-1.173,-0.002764949
-1.172,-0.002752687
-1.171,-0.00274349
-1.17,-0.002734293
-1.169,-0.002722032
-1.168,-0.002712835
-1.167,-0.002703639
-1.166,-0.002691377
-1.165,-0.00268218
-1.164,-0.002672984
-1.163,-0.002660722
-1.162,-0.002654591
-1.161,-0.002645395
-1.16,-0.002633133
-1.159,-0.002627002
-1.158,-0.00261474
-1.157,-0.002605543
-1.156,-0.002596347
-1.155,-0.002587151
-1.154,-0.002574889
-1.153,-0.002568757
-1.152,-0.002559561
-1.151,-0.002550365
-1.15,-0.002541168
-1.149,-0.002528906
-1.148,-0.00251971
-1.147,-0.002513579
-1.146,-0.002501317
-1.145,-0.002495186
-1.144,-0.00248599
-1.143,-0.002473728
-1.142,-0.002470662
-1.141,-0.0024584
-1.14,-0.002446138
-1.139,-0.002440007
-1.138,-0.002430811
-1.137,-0.002421614
-1.136,-0.002418549
-1.135,-0.002406287
-1.134,-0.002397091
-1.133,-0.00239096
-1.132,-0.002381763
-1.131,-0.002372567
-1.13,-0.00236337
-1.129,-0.002357239
-1.128,-0.002348043
-1.127,-0.002338846
-1.126,-0.002332716
-1.125,-0.002323519
-1.124,-0.002314323
-1.123,-0.002305126
-1.122,-0.00229593
-1.121,-0.002292864
-1.12,-0.002283668
-1.119,-0.002274471
-1.118,-0.002271406
-1.117,-0.002259144
-1.116,-0.002249948
-1.115,-0.002243817
-1.114,-0.00223462
-1.113,-0.002225423
-1.112,-0.002219293
-1.111,-0.002210096
-1.11,-0.0022009
-1.109,-0.002197834
-1.108,-0.002185572
-1.107,-0.002179441
-1.106,-0.00217331
-1.105,-0.002161048
-1.104,-0.002154917
-1.103,-0.002148786
-1.102,-0.002136525
-1.101,-0.002133459
-1.100001,-0.002124263
-1.099,-0.002112001
-1.098,-0.002108935
-1.097,-0.002096673
-1.096,-0.002090542
-1.095,-0.002084411
-1.094,-0.002072149
-1.093,-0.002066019
-1.092,-0.002059887
-1.091,-0.002050691
-1.09,-0.00204456
-1.089,-0.002032298
-1.088,-0.002023102
-1.087,-0.002020036
-1.086,-0.00201084
-1.085,-0.002001643
-1.084,-0.001995512
-1.083,-0.001986316
-1.082,-0.00197712
-1.081,-0.001970988
-1.08,-0.001964858
-1.079,-0.001952596
-1.078,-0.001946465
-1.077,-0.001940334
-1.076,-0.001928072
-1.075,-0.001918875
-1.074,-0.001912744
-1.073,-0.001903548
-1.072,-0.001894351
-1.071,-0.00188822
-1.07,-0.001875959
-1.069,-0.001869828
-1.068,-0.001860631
-1.067,-0.001851435
-1.066,-0.001842238
-1.065,-0.001836107
-1.064,-0.001826911
-1.063,-0.001817714
-1.062,-0.001808518
-1.061,-0.001799321
-1.06,-0.001790125
-1.059,-0.001783994
-1.058,-0.001774798
-1.057,-0.001762536
-1.056,-0.001756405
-1.055,-0.001747208
-1.054,-0.001738012
-1.053,-0.00172575
-1.052,-0.001716554
-1.051,-0.001710422
-1.05,-0.001701226
-1.049,-0.001688964
-1.048,-0.001682833
-1.047,-0.001670571
-1.046,-0.001661375
-1.045,-0.001655244
-1.044,-0.001642982
-1.043,-0.001633785
-1.042,-0.001627655
-1.041,-0.001612327
-1.04,-0.001606196
-1.039,-0.001632051
-1.038,-0.001621322
-1.037,-0.001610286
-1.036,-0.001602623
-1.035,-0.00159312
-1.034,-0.001583617
-1.033,-0.001572274
-1.032,-0.001563691
-1.031,-0.001552962
-1.03,-0.001543459
-1.029,-0.001533956
-1.028,-0.001525373
-1.027,-0.00151403
-1.026,-0.001504221
-1.025,-0.001496557
-1.024,-0.001484602
-1.023,-0.001474486
-1.022,-0.001467129
-1.021,-0.001457319
-1.02,-0.00144659
-1.019,-0.001437393
-1.018,-0.001429116
-1.017,-0.001417774
-1.016,-0.00141195
-1.015,-0.001400914
-1.014,-0.001389265
-1.013,-0.001382828
-1.012,-0.001371179
-1.011,-0.001362595
-1.01,-0.001356158
-1.009,-0.001344203
-1.008,-0.001336232
-1.007,-0.001327649
-1.006,-0.001316307
-1.005,-0.001308336
-1.004,-0.001300673
-1.003,-0.001290557
-1.002,-0.00128228
-1.001,-0.00127339
-1,-0.001263887
-0.9990004,-0.001255304
-0.9980004,-0.001247027
-0.9970005,-0.001237217
-0.9960005,-0.001227101
-0.9950004,-0.00122097
-0.9940004,-0.001212387
-0.9930004,-0.001202577
-0.9920005,-0.0011943
-0.9910004,-0.001185717
-0.9900004,-0.001175601
-0.9890004,-0.001171003
-0.9880005,-0.001157821
-0.9870005,-0.001149851
-0.9860004,-0.001143413
-0.9850004,-0.001131151
-0.9840004,-0.001125327
-0.9830005,-0.001116437
-0.9820005,-0.001106015
-0.9810004,-0.001100497
-0.9800004,-0.001089768
-0.9790004,-0.001080264
-0.9780005,-0.001074747
-0.9770004,-0.001064324
-0.9760004,-0.001056047
-0.9750004,-0.00104777
-0.9740005,-0.001038574
-0.9730005,-0.001029071
-0.9720004,-0.001020181
-0.9710004,-0.001012824
-0.9700004,-0.001003934
-0.9690005,-0.0009947375
-0.9680004,-0.0009861541
-0.9670004,-0.0009763446
-0.9660004,-0.0009686808
-0.9650005,-0.0009610172
-0.9640005,-0.0009496749
-0.9630004,-0.0009413981
-0.9620004,-0.0009328147
-0.9610004,-0.0009248445
-0.9600005,-0.0009162611
-0.9590005,-0.0009046123
-0.9580004,-0.0008972551
-0.9570004,-0.0008895915
-0.9560004,-0.000877023
-0.9550005,-0.0008699723
-0.9540004,-0.0008616955
-0.9530004,-0.0008497401
-0.9520004,-0.0008436092
-0.9510005,-0.0008331866
-0.9500005,-0.0008212312
-0.9490004,-0.0008154067
-0.9480004,-0.0008049841
-0.9470004,-0.0007942549
-0.9460005,-0.0007872043
-0.9450005,-0.0007764751
-0.9440004,-0.0007660525
-0.9430004,-0.0007593084
-0.9420004,-0.0007485792
-0.9410005,-0.0007384631
-0.9400004,-0.0007292667
-0.9390004,-0.0007203768
-0.9380004,-0.000709341
-0.9370005,-0.0007019839
-0.9360005,-0.0006934005
-0.9350004,-0.0006808321
-0.9340004,-0.0006731683
-0.9330004,-0.0006642784
-0.9320005,-0.0006532427
-0.9310004,-0.0006461921
-0.9300004,-0.0006363826
-0.9290004,-0.0006274926
-0.9280005,-0.0006189093
-0.9270005,-0.0006090997
-0.9260004,-0.000600823
-0.9250004,-0.0005928527
-0.9240004,-0.0005821235
-0.9230005,-0.000575686
-0.9220005,-0.0005664895
-0.9210004,-0.00055668
-0.9200004,-0.0005502424
-0.9190004,-0.0005434984
-0.9180005,-0.0005330758
-0.9170004,-0.0005275579
-0.9160004,-0.0005195877
-0.9150004,-0.0005094716
-0.9140005,-0.0005051799
-0.9130005,-0.0004969031
-0.9120004,-0.0004898525
-0.9110004,-0.0004843346
-0.9100004,-0.0004763643
-0.9090005,-0.0004699268
-0.9080005,-0.0004644089
-0.9070004,-0.0004576649
-0.9060004,-0.0004527601
-0.9050004,-0.0004472423
-0.9040005,-0.0004411113
-0.9030004,-0.0004352869
-0.9020004,-0.0004306886
-0.9010004,-0.0004248642
-0.9000005,-0.0004205726
-0.8990005,-0.0004162809
-0.8980004,-0.0004089237
-0.8970004,-0.0004061648
-0.8960004,-0.0004034059
-0.8950005,-0.0003960487
-0.8940005,-0.0003932898
-0.8930004,-0.0003896112
-0.8920004,-0.0003828671
-0.8910004,-0.0003798016
-0.8900005,-0.0003748969
-0.8890004,-0.0003687659
-0.8880004,-0.0003653939
-0.8870004,-0.0003611022
-0.8860005,-0.0003555843
-0.8850005,-0.0003528254
-0.8840004,-0.0003466944
-0.8830004,-0.00034087
-0.8820004,-0.0003387242
-0.8810005,-0.0003322866
-0.8800004,-0.0003276884
-0.8790004,-0.0003240099
-0.8780004,-0.0003175724
-0.8770005,-0.0003126676
-0.8760005,-0.0003077628
-0.8750004,-0.0003019384
-0.8740004,-0.0002970336
-0.8730004,-0.0002918223
-0.8720005,-0.0002859978
-0.8710005,-0.0002789472
-0.8700004,-0.0002746556
-0.8690004,-0.0002688312
-0.8680004,-0.0002605543
-0.8670005,-0.0002562627
-0.8660004,-0.0002492121
-0.8650004,-0.0002418549
-0.8640004,-0.0002354174
-0.8630005,-0.0002289799
-0.8620005,-0.0002216227
-0.8610004,-0.0002142656
-0.8600004,-0.0002050691
-0.8590004,-0.0001980185
-0.8580005,-0.0001897417
-0.8570005,-0.0001805453
-0.8560004,-0.000172575
-0.8550004,-0.0001624589
-0.8540004,-0.0001520363
-0.8530005,-0.000144066
-0.8520004,-0.0001344816
-0.8510004,-0.000123783
-0.8500004,-0.0001141267
-0.8490005,-0.0001018035
-0.8480005,-8.954158E-05
-0.8470004,-7.850584E-05
-0.8460004,-6.40061E-05
-0.8450004,-5.260251E-05
-0.8440005,-3.874653E-05
-0.8430004,-2.372567E-05
-0.8420004,-9.747067E-06
-0.8410004,4.875285E-06
-0.8400005,2.093841E-05
-0.8390005,3.614321E-05
-0.8380004,5.272746E-05
-0.8370004,7.059924E-05
-0.8360004,8.666235E-05
-0.8350005,0.0001042889
-0.8340005,0.0001230496
-0.8330004,0.0001412279
-0.8320004,0.0001594369
-0.8310004,0.000180037
-0.8300005,0.0001995028
-0.8290004,0.0002192751
-0.8280004,0.0002414999
-0.8270004,0.0002606898
-0.8260005,0.0002815044
-0.8250005,0.0003093189
-0.8240004,0.0003283249
-0.8230004,0.0003510095
-0.8220004,0.0003746136
-0.8210005,0.000396072
-0.8200005,0.0004205959
-0.8190004,0.0004460394
-0.8180004,0.000468724
-0.8170004,0.0004935544
-0.8160005,0.0005174651
-0.8150004,0.0005407628
-0.8140004,0.0005668194
-0.8130004,0.0005910367
-0.8120005,0.0006161737
-0.8110005,0.0006419237
-0.8100004,0.0006664476
-0.8090004,0.0006915845
-0.8080004,0.0007170281
-0.8070005,0.0007421651
-0.8060004,0.0007676086
-0.8050004,0.0007933586
-0.8040004,0.0008191086
-0.8030005,0.0008436325
-0.8020005,0.0008703023
-0.8010004,0.0008954392
-0.8000004,0.0008660106
-0.8009996,0.0007912128
-0.8019996,0.0007256114
-0.8029996,0.000666141
-0.8039996,0.0006088165
-0.8049996,0.0005539444
-0.8059996,0.0005021378
-0.8069996,0.0004533966
-0.8079996,0.0004055751
-0.8089996,0.0003595928
-0.8099996,0.000316676
-0.8109996,0.0002725331
-0.8119996,0.0002314556
-0.8129996,0.0001922174
-0.8139996,0.0001526727
-0.8149996,0.0001165
-0.8159996,8.032732E-05
-0.8169996,4.181435E-05
-0.8179996,8.891066E-06
-0.8189996,-2.571823E-05
-0.8199996,-5.769121E-05
-0.8209996,-8.733443E-05
-0.8219996,-0.0001174375
-0.8229996,-0.0001468661
-0.8239996,-0.0001744248
-0.8249996,-0.0002021674
-0.8259996,-0.0002293276
-0.8269996,-0.000254158
-0.8279996,-0.0002798774
-0.8289996,-0.0003013253
-0.8299996,-0.0003243164
-0.8309996,-0.0003479206
-0.8319996,-0.0003709117
-0.8329996,-0.0003920636
-0.8339996,-0.0004135219
-0.8349996,-0.0004346738
-0.8359996,-0.0004545994
-0.8369996,-0.0004748316
-0.8379996,-0.0004950638
-0.8389996,-0.0005119239
-0.8399996,-0.0005321561
-0.8409996,-0.0005496293
-0.8419996,-0.0005667961
-0.8429996,-0.0005842693
-0.8439996,-0.0006014361
-0.8449996,-0.0006158438
-0.8459996,-0.0006333171
-0.8469996,-0.0006483379
-0.8479996,-0.0006630523
-0.8489996,-0.0006786863
-0.8499996,-0.0006921744
-0.8509996,-0.0007053559
-0.8519996,-0.0007206833
-0.8529996,-0.0007332518
-0.8539996,-0.0007461268
-0.8549996,-0.0007599215
-0.8559996,-0.0007715704
-0.8569996,-0.0007838323
-0.8579996,-0.0007970139
-0.8589996,-0.00080713
-0.8599996,-0.0008190853
-0.8609996,-0.0008316538
-0.8619996,-0.0008414634
-0.8629996,-0.000852499
-0.8639996,-0.0008638413
-0.8649996,-0.0008739574
-0.8659996,-0.0008843801
-0.8669996,-0.0008941896
-0.8679996,-0.0009036926
-0.8689996,-0.0009138088
-0.8699996,-0.0009239248
-0.8709996,-0.0009325081
-0.8719996,-0.0009423177
-0.8729996,-0.0009515142
-0.8739996,-0.0009600975
-0.8749996,-0.000969294
-0.8759996,-0.0009784905
-0.8769996,-0.0009864607
-0.8779996,-0.0009959637
-0.8789996,-0.001003934
-0.8799996,-0.001010678
-0.8809996,-0.001021714
-0.8819996,-0.001029377
-0.8829996,-0.001035815
-0.8839996,-0.001046544
-0.8849996,-0.001052369
-0.8859996,-0.001060339
-0.8869996,-0.001070455
-0.8879996,-0.001075973
-0.8889996,-0.00108425
-0.8899996,-0.001093753
-0.8909996,-0.001098657
-0.8919996,-0.001107854
-0.8929996,-0.001116131
-0.8939996,-0.001121955
-0.8949996,-0.001129925
-0.8959996,-0.001137282
-0.8969996,-0.00114372
-0.8979996,-0.001152916
-0.8989996,-0.001160274
-0.8999996,-0.001165485
-0.9009996,-0.001176214
-0.9019996,-0.001182038
-0.9029996,-0.001188783
-0.9039996,-0.001197673
-0.9049996,-0.001204723
-0.9059996,-0.001211161
-0.9069996,-0.001219744
-0.9079996,-0.001226488
-0.9089996,-0.001233232
-0.9099996,-0.001241509
-0.9109996,-0.001247333
-0.9119996,-0.00125469
-0.9129996,-0.001262967
-0.9139996,-0.001269098
-0.9149996,-0.001275842
-0.9159996,-0.001285039
-0.9169996,-0.00129025
-0.9179996,-0.001297914
-0.9189996,-0.001305577
-0.9199996,-0.001310482
-0.9209996,-0.001320598
-0.9219996,-0.001327036
-0.9229996,-0.001332247
-0.9239996,-0.001342363
-0.9249996,-0.001348188
-0.9259996,-0.001354319
-0.9269996,-0.001363822
-0.9279996,-0.001368726
-0.9289996,-0.001376697
-0.9299996,-0.00138528
-0.9309996,-0.001389878
-0.9319996,-0.001398155
-0.9329996,-0.001406432
-0.9339996,-0.001411337
-0.9349996,-0.001419613
-0.9359996,-0.001426357
-0.9369996,-0.001432795
-0.9379996,-0.001439846
-0.9389996,-0.001447203
-0.9399996,-0.001452414
-0.9409996,-0.001460691
-0.9419996,-0.001468355
-0.9429996,-0.001472953
-0.9439996,-0.001481843
-0.9449996,-0.001489506
-0.9459996,-0.001494411
-0.9469996,-0.001502382
-0.9479996,-0.001510045
-0.9489996,-0.00151495
-0.9499996,-0.00152292
-0.9509996,-0.001530584
-0.9519996,-0.001535795
-0.9529996,-0.001544379
-0.9539996,-0.001550816
-0.9549996,-0.001554801
-0.9559996,-0.00156553
-0.9569996,-0.001570742
-0.9579996,-0.001577486
-0.9589996,-0.001586682
-0.9599996,-0.001591587
-0.9609996,-0.001598638
-0.9619996,-0.001605995
-0.9629996,-0.001611513
-0.9639996,-0.001620403
-0.9649996,-0.00162684
-0.9659996,-0.001632051
-0.9669996,-0.001641554
-0.9679996,-0.001647379
-0.9689996,-0.001653203
-0.9699996,-0.001662706
-0.9709996,-0.001668837
-0.9719996,-0.001674355
-0.9729996,-0.001683551
-0.9739996,-0.001689376
-0.9749996,-0.001694894
-0.9759996,-0.001705623
-0.9769996,-0.001711447
-0.9779996,-0.001716046
-0.9789996,-0.001726468
-0.9799996,-0.00173076
-0.9809996,-0.00173873
-0.9819996,-0.001747927
-0.9829996,-0.001753445
-0.9839996,-0.001760495
-0.9849996,-0.001770305
-0.9859996,-0.001774903
-0.9869996,-0.001784099
-0.9879996,-0.001792683
-0.9889996,-0.001798507
-0.9899996,-0.001807397
-0.9909996,-0.001814754
-0.9919996,-0.001820579
-0.9929996,-0.001831001
-0.9939996,-0.001838052
-0.9949996,-0.001844183
-0.9959996,-0.001854912
-0.9969996,-0.001860736
-0.9979996,-0.001867787
-0.9989996,-0.001877597
-0.9999996,-0.001884954
-1.001,-0.001892924
-1.002,-0.00190304
-1.003,-0.001911317
-1.004,-0.001918981
-1.005,-0.00192879
-1.006,-0.00193768
-1.007,-0.001945037
-1.008,-0.00195546
-1.009,-0.001964656
-1.01,-0.001972933
-1.011,-0.001983662
-1.012,-0.001993472
-1.013,-0.002001749
-1.014,-0.002013091
-1.015,-0.002022594
-1.016,-0.002030871
-1.017,-0.002043132
-1.018,-0.002053862
-1.019,-0.002061525
-1.02,-0.002075627
-1.021,-0.002087275
-1.022,-0.002094326
-1.023,-0.002109347
-1.024,-0.002120996
-1.025,-0.002132032
-1.026,-0.002144907
-1.027,-0.002155942
-1.028,-0.002170044
-1.029,-0.002181692
-1.03,-0.002193954
-1.031,-0.002208975
-1.032,-0.002220931
-1.033,-0.002233806
-1.034,-0.002249746
-1.035,-0.002261395
-1.036,-0.002276722
-1.037,-0.002294502
-1.038,-0.002306764
-1.039,-0.002321785
-1.04,-0.002339565
-1.041,-0.00235244
-1.042,-0.0023693
-1.043,-0.002386773
-1.044,-0.002401181
-1.045,-0.002417428
-1.046,-0.002436127
-1.047,-0.002449616
-1.048,-0.002466782
-1.049,-0.002487321
-1.05,-0.002499583
-1.051,-0.002520122
-1.052,-0.002538515
-1.053,-0.002551696
-1.054,-0.002570702
-1.055,-0.002587869
-1.056,-0.002600744
-1.057,-0.002621589
-1.058,-0.002635384
-1.059,-0.002650405
-1.06,-0.002667878
-1.061,-0.002683512
-1.062,-0.00269792
-1.063,-0.00271478
-1.064,-0.002728881
-1.065,-0.002742063
-1.066,-0.002756777
-1.067,-0.002769039
-1.068,-0.00278222
-1.069,-0.002794789
-1.07,-0.002808584
-1.071,-0.00281778
-1.072,-0.002830655
-1.073,-0.002841384
-1.074,-0.002849048
-1.075,-0.00286131
-1.076,-0.002870813
-1.077,-0.002877864
-1.078,-0.002888899
-1.079,-0.002894724
-1.08,-0.002901161
-1.081,-0.002911584
-1.082,-0.002915875
-1.083,-0.002922006
-1.084,-0.002930283
-1.085,-0.002933962
-1.086,-0.002942239
-1.087,-0.002948676
-1.088,-0.002950822
-1.089,-0.002959712
-1.09,-0.002964923
-1.091,-0.002966456
-1.092,-0.002975346
-1.093,-0.002980864
-1.094,-0.00298209
-1.095,-0.002988528
-1.096,-0.002991593
-1.097,-0.002993432
-1.098,-0.00296727
-1.099,-0.00296727
-1.1,-0.002964205
-1.101,-0.002973401
-1.102,-0.002970336
-1.103,-0.002970336
-1.104,-0.002976467
-1.105,-0.002976467
-1.106,-0.002973401
-1.107,-0.002976467
-1.108,-0.002970336
-1.109,-0.002973401
-1.11,-0.002973401
-1.111,-0.002970336
-1.112,-0.00296727
-1.113,-0.002970336
-1.114,-0.00296727
-1.115,-0.00296727
-1.116,-0.00296727
-1.117,-0.002961139
-1.118,-0.002964205
-1.119,-0.002964205
-1.12,-0.002958074
-1.121,-0.002964205
-1.122,-0.002964205
-1.123,-0.002961139
-1.124,-0.00296727
-1.125,-0.002964205
-1.126,-0.00296727
-1.127,-0.002970336
-1.128,-0.00296727
-1.129,-0.002973401
-1.13,-0.002976467
-1.131,-0.002976467
-1.132,-0.002982598
-1.133,-0.002985663
-1.134,-0.002985663
-1.135,-0.002988729
-1.136,-0.002997925
-1.137,-0.002997925
-1.138,-0.003000991
-1.139,-0.003007122
-1.14,-0.003010187
-1.141,-0.003016318
-1.142,-0.003019383
-1.143,-0.003025514
-1.144,-0.003031645
-1.145,-0.003037777
-1.146,-0.003040842
-1.147,-0.003050038
-1.148,-0.003053104
-1.149,-0.0030623
-1.15,-0.003068431
-1.151,-0.003071497
-1.152,-0.003077628
-1.153,-0.003086824
-1.154,-0.003089889
-1.155,-0.003099086
-1.156,-0.003108283
-1.157,-0.003111348
-1.158,-0.00312361
-1.159,-0.003132806
-1.16,-0.003132806
-1.161,-0.003148134
-1.162,-0.003154265
-1.163,-0.00315733
-1.164,-0.003172658
-1.165,-0.003178789
-1.166,-0.003187985
-1.167,-0.003200247
-1.168,-0.003206378
-1.169,-0.003212509
-1.17,-0.003224771
-1.171,-0.003230902
-1.172,-0.003240098
-1.173,-0.00325236
-1.174,-0.003261557
-1.175,-0.003270753
-1.176,-0.003283015
-1.177,-0.003292212
-1.178,-0.003301408
-1.179,-0.003310604
-1.18,-0.003322866
-1.181,-0.003332063
-1.182,-0.003344325
-1.183,-0.003350456
-1.184,-0.003365783
-1.185,-0.003374979
-1.186,-0.003384176
-1.187,-0.003396438
-1.188,-0.003405634
-1.189,-0.003414831
-1.19,-0.003427093
-1.191,-0.003439354
-1.192,-0.003448551
-1.193,-0.003460813
-1.194,-0.003473075
-1.195,-0.003479206
-1.196,-0.003494533
-1.197,-0.003506796
-1.198,-0.003512926
-1.199,-0.003528254
-1.2,-0.00353745
-1.201,-0.003546647
-1.202,-0.003561974
-1.203,-0.00357117
-1.204,-0.003583432
-1.205,-0.003592629
-1.206,-0.003604891
-1.207,-0.003617153
-1.208,-0.003629415
-1.209,-0.003638611
-1.21,-0.003650873
-1.211,-0.0036662
-1.212,-0.003675397
-1.213,-0.003690724
-1.214,-0.003706052
-1.215,-0.003712183
-1.216,-0.00372751
-1.217,-0.003739772
-1.218,-0.003748968
-1.219,-0.003764296
-1.22,-0.003776558
-1.221,-0.003785754
-1.222,-0.003804147
-1.223,-0.003816409
-1.224,-0.003825605
-1.225,-0.003840933
-1.226,-0.00385626
-1.227,-0.003865457
-1.228,-0.00388385
-1.229,-0.003896111
-1.23,-0.003908373
-1.231,-0.003926767
-1.232,-0.003939028
-1.233,-0.00395129
-1.234,-0.003969683
-1.235,-0.003981945
-1.236,-0.003997272
-1.237,-0.004015665
-1.238,-0.004027927
-1.239,-0.00404632
-1.24,-0.004061648
-1.241,-0.004076975
-1.242,-0.004095368
-1.243,-0.004113761
-1.244,-0.004129088
-1.245,-0.004147481
-1.246,-0.004168939
-1.247,-0.004181202
-1.248,-0.00420266
-1.249,-0.004221053
-1.25,-0.00423638
-1.251,-0.004260904
-1.252,-0.004282362
-1.253,-0.00429769
-1.254,-0.004322214
-1.255,-0.004343672
-1.256,-0.004358999
-1.257,-0.004386589
-1.258,-0.004408047
-1.259,-0.00442644
-1.26,-0.004457095
-1.261,-0.004478553
-1.262,-0.004500012
-1.263,-0.004533732
-1.264,-0.004552125
-1.265,-0.004582779
-1.266,-0.004613434
-1.267,-0.004637958
-1.268,-0.004668613
-1.269,-0.004702333
-1.27,-0.004726857
-1.271,-0.004760577
-1.272,-0.004794298
-1.273,-0.004824953
-1.274,-0.004861739
-1.275,-0.004898524
-1.276,-0.004932245
-1.277,-0.004969031
-1.278,-0.005011947
-1.279,-0.005045668
-1.28,-0.00509165
-1.281,-0.005134566
-1.282,-0.005174418
-1.283,-0.0052204
-1.284,-0.005266382
-1.285,-0.005312365
-1.286,-0.005361412
-1.287,-0.005416591
-1.288,-0.005465638
-1.289,-0.005520817
-1.29,-0.005575996
-1.291,-0.005628109
-1.292,-0.00569555
-1.293,-0.005753794
-1.294,-0.005815104
-1.295,-0.00588561
-1.296,-0.005946919
-1.297,-0.006017426
-1.298,-0.006090997
-1.299,-0.006161503
-1.3,-0.006244271
-1.301,-0.006320909
-1.302,-0.006400611
-1.303,-0.00648951
-1.304,-0.006575344
-1.305,-0.006661177
-1.306,-0.006759272
-1.307,-0.006854302
-1.308,-0.006949332
-1.309,-0.007053559
-1.31,-0.007157785
-1.311,-0.007265077
-1.312,-0.007381565
-1.313,-0.007494988
-1.314,-0.007611477
-1.315,-0.007740227
-1.316,-0.007862846
-1.317,-0.007994662
-1.318,-0.008132609
-1.319,-0.008270555
-1.32,-0.008411567
-1.321,-0.008564842
-1.322,-0.008708919
-1.323,-0.00887139
-1.324,-0.009036926
-1.325,-0.009196331
-1.326,-0.009367998
-1.327,-0.009548862
-1.328,-0.009720528
-1.329,-0.009907522
-1.33,-0.01010065
-1.331,-0.01029684
-1.332,-0.01049916
-1.333,-0.01070455
-1.334,-0.010913
-1.335,-0.01113372
-1.336,-0.0113575
-1.337,-0.01157821
-1.338,-0.01181732
-1.339,-0.01205336
-1.34,-0.0122894
-1.341,-0.01254384
-1.342,-0.01279521
-1.343,-0.01304658
-1.344,-0.01331634
-1.345,-0.0135861
-1.346,-0.01384667
-1.347,-0.01412563
-1.348,-0.01440765
-1.349,-0.01468661
-1.35,-0.01497477
-1.351,-0.01526905
-1.352,-0.01555721
-1.353,-0.01585762
-1.354,-0.01616111
-1.355,-0.01646153
-1.356,-0.01677421
-1.357,-0.01708382
-1.358,-0.01739956
-1.359,-0.01772144
-1.36,-0.01804638
-1.361,-0.01836826
-1.362,-0.0186932
-1.363,-0.0190304
-1.364,-0.01935841
-1.365,-0.01968948
-1.366,-0.02003281
-1.367,-0.02036082
-1.368,-0.02070415
-1.369,-0.02105362
-1.37,-0.02139389
-1.371,-0.02173415
-1.372,-0.02208975
-1.373,-0.02243309
-1.374,-0.02277948
-1.375,-0.02313508
-1.376,-0.02347228
-1.377,-0.02383094
-1.378,-0.02418654
-1.379,-0.02453601
-1.38,-0.02489467
-1.381,-0.02524107
-1.382,-0.02559666
-1.383,-0.02595532
-1.384,-0.02631092
-1.385,-0.02666958
-1.386,-0.02702824
-1.387,-0.0273869
-1.388,-0.0277517
-1.389,-0.02811342
-1.39,-0.02847208
-1.391,-0.02883994
-1.392,-0.02920167
-1.393,-0.02956646
-1.394,-0.02992819
-1.395,-0.03028992
-1.396,-0.03077628
-1.397,-0.03111348
-1.398,-0.03148134
-1.399,-0.0318492
-1.4,-0.03224771
-1.401,-0.03261557
-1.402,-0.03298343
-1.403,-0.03338194
-1.404,-0.0337498
-1.405,-0.03411765
-1.406,-0.03448552
-1.407,-0.03485337
-1.408,-0.03522123
-1.409,-0.03561974
-1.41,-0.0359876
-1.411,-0.03635546
-1.412,-0.03675397
-1.413,-0.03712183
-1.414,-0.03748969
-1.415,-0.0378882
-1.416,-0.03825606
-1.417,-0.03865457
-1.418,-0.03905308
-1.419,-0.03942094
-1.42,-0.03981945
-1.421,-0.04018731
-1.422,-0.04058582
-1.423,-0.04098434
-1.424,-0.04138285
-1.425,-0.04175071
-1.426,-0.04214922
-1.427,-0.04251708
-1.428,-0.04288493
-1.429,-0.04328345
-1.43,-0.04368196
-1.431,-0.04404982
-1.432,-0.04441768
-1.433,-0.04481619
-1.434,-0.04518405
-1.435,-0.04555191
-1.436,-0.04598107
-1.437,-0.04634893
-1.438,-0.04674744
-1.439,-0.04714596
-1.44,-0.04751381
-1.441,-0.04788167
-1.442,-0.04828018
-1.443,-0.04864804
-1.444,-0.04907721
-1.445,-0.04947572
-1.446,-0.04981292
-1.447,-0.05018078
-1.448,-0.0505793
-1.449,-0.05097781
-1.45,-0.05137632
-1.451,-0.05177484
-1.452,-0.05214269
-1.453,-0.0525412
-1.454,-0.05290907
-1.455,-0.05327692
-1.456,-0.05367543
-1.457,-0.05407395
-1.458,-0.05447246
-1.459,-0.05487097
-1.46,-0.05523883
-1.461,-0.05560669
-1.462,-0.0560052
-1.463,-0.05640372
-1.464,-0.05677157
-1.465,-0.05720074
-1.466,-0.0575686
-1.467,-0.05796711
-1.468,-0.05836562
-1.469,-0.05876414
-1.47,-0.05916265
-1.471,-0.05956116
-1.472,-0.05995968
-1.473,-0.06035819
-1.474,-0.06075669
-1.475,-0.06115521
-1.476,-0.06152307
-1.477,-0.06192158
-1.478,-0.06228944
-1.479,-0.06271861
-1.48,-0.06308647
-1.481,-0.06348498
-1.482,-0.06388349
-1.483,-0.06431266
-1.484,-0.06471118
-1.485,-0.06514034
-1.486,-0.06553885
-1.487,-0.06590671
-1.488,-0.06633588
-1.489,-0.0667344
-1.49,-0.06713291
-1.491,-0.06756207
-1.492,-0.06796058
-1.493,-0.0683591
-1.494,-0.06878826
-1.495,-0.06915613
-1.496,-0.06958529
-1.497,-0.07001445
-1.498,-0.07038232
-1.499,-0.07081148
-1.5,-0.0709341
-1.499001,-0.07050493
-1.498001,-0.07010642
-1.497001,-0.06967726
-1.496001,-0.06921744
-1.495001,-0.06878826
-1.494001,-0.06838975
-1.493001,-0.06789928
-1.492001,-0.06750076
-1.491001,-0.06704094
-1.490001,-0.06661177
-1.489001,-0.06618261
-1.488001,-0.06575344
-1.487001,-0.06529361
-1.486001,-0.0648951
-1.485001,-0.06446593
-1.484001,-0.06400611
-1.483001,-0.0636076
-1.482001,-0.06314778
-1.481001,-0.06271861
-1.480001,-0.06228944
-1.479001,-0.06186027
-1.478001,-0.06146176
-1.477001,-0.06103259
-1.476001,-0.06057277
-1.475001,-0.0601436
-1.474001,-0.05974509
-1.473001,-0.05931592
-1.472001,-0.05891741
-1.471001,-0.05848824
-1.470001,-0.05805907
-1.469001,-0.05762991
-1.468001,-0.05720074
-1.467001,-0.05677157
-1.466001,-0.05637306
-1.465001,-0.05591324
-1.464001,-0.05548407
-1.463001,-0.05508556
-1.462001,-0.05465639
-1.461001,-0.05425788
-1.460001,-0.05385936
-1.459001,-0.05339954
-1.458001,-0.05300103
-1.457001,-0.05260251
-1.456001,-0.05217335
-1.455001,-0.05174418
-1.454001,-0.05134567
-1.453001,-0.0509165
-1.452001,-0.05048734
-1.451001,-0.05008882
-1.450001,-0.04965965
-1.449001,-0.04926114
-1.448001,-0.04886262
-1.447001,-0.04846412
-1.446001,-0.04803495
-1.445001,-0.04763643
-1.444001,-0.04720726
-1.443001,-0.0467781
-1.442001,-0.04637958
-1.441001,-0.04598107
-1.440001,-0.04558256
-1.439001,-0.04515339
-1.438001,-0.04478553
-1.437001,-0.04435637
-1.436001,-0.04398851
-1.435001,-0.04358999
-1.434001,-0.04319149
-1.433001,-0.04276232
-1.432001,-0.0423638
-1.431001,-0.04199595
-1.430001,-0.04159743
-1.429001,-0.04119892
-1.428001,-0.0408004
-1.427001,-0.04040189
-1.426001,-0.04000338
-1.425001,-0.03960487
-1.424001,-0.03923701
-1.423001,-0.03880784
-1.422001,-0.03843999
-1.421001,-0.03807213
-1.420001,-0.03764296
-1.419001,-0.0372751
-1.418001,-0.03687659
-1.417001,-0.03650873
-1.416001,-0.03614087
-1.415001,-0.03574236
-1.414001,-0.03534385
-1.413001,-0.03497599
-1.412001,-0.03460813
-1.411001,-0.03424027
-1.410001,-0.03387242
-1.409001,-0.03347391
-1.408001,-0.03310604
-1.407001,-0.03273819
-1.406001,-0.03233967
-1.405001,-0.03200247
-1.404001,-0.03160396
-1.403001,-0.0312361
-1.402001,-0.0308989
-1.401001,-0.03053104
-1.400001,-0.03013253
-1.399001,-0.02979532
-1.398001,-0.02942747
-1.397001,-0.02909026
-1.396001,-0.02872241
-1.395001,-0.0283852
-1.394001,-0.02801734
-1.393001,-0.02768014
-1.392001,-0.02731228
-1.391001,-0.02697508
-1.390001,-0.02663788
-1.389001,-0.02627002
-1.388001,-0.02593282
-1.387001,-0.02559561
-1.386001,-0.02522776
-1.385001,-0.02489055
-1.384001,-0.02455335
-1.383001,-0.02421615
-1.382001,-0.02387894
-1.381001,-0.02357239
-1.380001,-0.02323519
-1.379001,-0.02289799
-1.378001,-0.02259144
-1.377001,-0.02225424
-1.376001,-0.02194769
-1.375001,-0.02164114
-1.374001,-0.02130394
-1.373001,-0.02099739
-1.372001,-0.02069084
-1.371001,-0.02038429
-1.370001,-0.02007774
-1.369001,-0.0197712
-1.368001,-0.01946465
-1.367001,-0.0191581
-1.366001,-0.01888221
-1.365001,-0.01857566
-1.364001,-0.01829976
-1.363001,-0.01802387
-1.362001,-0.01771732
-1.361001,-0.01744143
-1.360001,-0.01716554
-1.359001,-0.01685899
-1.358001,-0.01658309
-1.357001,-0.0163072
-1.356001,-0.01603131
-1.355001,-0.01589748
-1.354001,-0.01563691
-1.353001,-0.01538248
-1.352001,-0.01513417
-1.351001,-0.01487667
-1.350001,-0.01463143
-1.349001,-0.01438926
-1.348001,-0.01415015
-1.347001,-0.01391717
-1.346001,-0.0136842
-1.345001,-0.01344509
-1.344001,-0.01322437
-1.343001,-0.01299753
-1.342001,-0.01277375
-1.341001,-0.0125561
-1.340001,-0.01234458
-1.339001,-0.01213306
-1.338001,-0.01192768
-1.337001,-0.01172229
-1.336001,-0.01151997
-1.335001,-0.01132378
-1.334001,-0.01112758
-1.333001,-0.01093753
-1.332001,-0.01075053
-1.331001,-0.01056967
-1.330001,-0.0103888
-1.329001,-0.01021101
-1.328001,-0.01004547
-1.327001,-0.009870737
-1.326001,-0.009708267
-1.325001,-0.009548862
-1.324001,-0.009383325
-1.323001,-0.009233117
-1.322001,-0.009082908
-1.321001,-0.008929634
-1.320001,-0.008788622
-1.319001,-0.008641479
-1.318001,-0.008500466
-1.317001,-0.00836865
-1.316001,-0.008236835
-1.315001,-0.008105019
-1.314001,-0.007979334
-1.313001,-0.00785365
-1.312001,-0.00773103
-1.311001,-0.007617608
-1.310001,-0.007501119
-1.309001,-0.007387696
-1.308001,-0.007280404
-1.307001,-0.007170047
-1.306001,-0.007062755
-1.305001,-0.006964659
-1.304001,-0.006863499
-1.303001,-0.006765403
-1.302001,-0.006673439
-1.301001,-0.00658454
-1.300001,-0.006492575
-1.299001,-0.006406742
-1.298001,-0.006323974
-1.297001,-0.006235075
-1.296001,-0.006161503
-1.295001,-0.0060818
-1.294001,-0.006002098
-1.293001,-0.005931592
-1.292001,-0.005854954
-1.291001,-0.005787514
-1.290001,-0.005720073
-1.289001,-0.005649568
-1.288001,-0.005585192
-1.287001,-0.005523883
-1.286001,-0.005456442
-1.285001,-0.005395133
-1.284001,-0.005339954
-1.283001,-0.00528171
-1.282001,-0.005226531
-1.281001,-0.005174418
-1.280001,-0.005116174
-1.279001,-0.00506406
-1.278001,-0.005021143
-1.277001,-0.004965965
-1.276001,-0.004919983
-1.275001,-0.004874
-1.274001,-0.004824953
-1.273001,-0.00477897
-1.272001,-0.004736054
-1.271001,-0.004693137
-1.270001,-0.004656351
-1.269001,-0.004613434
-1.268001,-0.004570518
-1.267001,-0.004536797
-1.266001,-0.004493881
-1.265001,-0.00446016
-1.264001,-0.004423374
-1.263001,-0.004386589
-1.262001,-0.004352869
-1.261001,-0.004322214
-1.260001,-0.004282362
-1.259001,-0.004254773
-1.258001,-0.004224118
-1.257001,-0.004187332
-1.256001,-0.004162808
-1.255001,-0.004132153
-1.254001,-0.004098434
-1.253001,-0.004073909
-1.252001,-0.00404632
-1.251001,-0.004015665
-1.250001,-0.003991141
-1.249001,-0.003960487
-1.248001,-0.003935963
-1.247001,-0.003911439
-1.246001,-0.00388385
-1.245001,-0.003859326
-1.244001,-0.003837867
-1.243001,-0.003810278
-1.242001,-0.003785754
-1.241001,-0.003767361
-1.240001,-0.003736707
-1.239001,-0.003721379
-1.238001,-0.003699921
-1.237001,-0.003672331
-1.236001,-0.003653938
-1.235001,-0.00363248
-1.234001,-0.003607956
-1.233001,-0.003589563
-1.232001,-0.00357117
-1.231001,-0.003549712
-1.230001,-0.003531319
-1.229001,-0.003509861
-1.228001,-0.003491468
-1.227001,-0.003470009
-1.226001,-0.003451617
-1.225001,-0.003433224
-1.224001,-0.003414831
-1.223001,-0.003399503
-1.222001,-0.003378045
-1.221001,-0.003362718
-1.220001,-0.003344325
-1.219001,-0.003325932
-1.218001,-0.003310604
-1.217001,-0.003295277
-1.216001,-0.003273819
-1.215001,-0.003258491
-1.214001,-0.003243164
-1.213001,-0.003224771
-1.212001,-0.003209443
-1.211001,-0.003197182
-1.210001,-0.003178789
-1.209001,-0.003163461
-1.208001,-0.003151199
-1.207001,-0.003129741
-1.206001,-0.003117479
-1.205001,-0.003105217
-1.204001,-0.003089889
-1.203001,-0.003074562
-1.202001,-0.003065366
-1.201001,-0.003046973
-1.200001,-0.003037777
-1.199001,-0.003019383
-1.198001,-0.003004056
-1.197001,-0.00299486
-1.196001,-0.002979532
-1.195001,-0.002964205
-1.194001,-0.002955008
-1.193001,-0.002942747
-1.192001,-0.002927419
-1.191001,-0.002915157
-1.190001,-0.002902895
-1.189001,-0.002887568
-1.188001,-0.002878371
-1.187001,-0.00286611
-1.186001,-0.002853847
-1.185001,-0.002841586
-1.184001,-0.002829324
-1.183001,-0.002817062
-1.182001,-0.0028048
-1.181001,-0.002795603
-1.180001,-0.002783341
-1.179001,-0.00277108
-1.178001,-0.002758818
-1.177001,-0.002749621
-1.176001,-0.002737359
-1.175001,-0.002725097
-1.174001,-0.002712835
-1.173001,-0.002703639
-1.172001,-0.002694442
-1.171001,-0.002679115
-1.170001,-0.002672984
-1.169001,-0.002660722
-1.168001,-0.00264846
-1.167001,-0.002639264
-1.166001,-0.002627002
-1.165001,-0.002617805
-1.164001,-0.002608609
-1.163001,-0.002596347
-1.162001,-0.002587151
-1.161001,-0.002577954
-1.160001,-0.002562626
-1.159001,-0.002556496
-1.158001,-0.002547299
-1.157001,-0.002535037
-1.156001,-0.002525841
-1.155001,-0.002516645
-1.154001,-0.002507448
-1.153001,-0.002495186
-1.152001,-0.002489055
-1.151001,-0.002476793
-1.150001,-0.002470662
-1.149001,-0.002461466
-1.148001,-0.002446138
-1.147001,-0.002440007
-1.146001,-0.002430811
-1.145001,-0.002418549
-1.144001,-0.002415484
-1.143001,-0.002403222
-1.142001,-0.002394025
-1.141001,-0.002387894
-1.140001,-0.002375632
-1.139001,-0.002366436
-1.138001,-0.002357239
-1.137001,-0.002348043
-1.136001,-0.002338846
-1.135001,-0.002332716
-1.134001,-0.002323519
-1.133001,-0.002311257
-1.132001,-0.002308191
-1.131001,-0.00229593
-1.130001,-0.002289799
-1.129001,-0.002283668
-1.128001,-0.002271406
-1.127001,-0.002262209
-1.126001,-0.002259144
-1.125001,-0.002246882
-1.124001,-0.002240751
-1.123001,-0.00223462
-1.122001,-0.002222358
-1.121001,-0.002213162
-1.120001,-0.002207031
-1.119001,-0.002197834
-1.118001,-0.002188638
-1.117001,-0.002182507
-1.116001,-0.002170245
-1.115001,-0.002167179
-1.114001,-0.002157983
-1.113001,-0.002148786
-1.112001,-0.002142655
-1.111001,-0.002133459
-1.110001,-0.002124263
-1.109001,-0.002118132
-1.108001,-0.00210587
-1.107001,-0.002099739
-1.106001,-0.002093608
-1.105001,-0.002084411
-1.104001,-0.002075215
-1.103001,-0.002072149
-1.102001,-0.002059887
-1.101001,-0.002053756
-1.100001,-0.002047626
-1.099001,-0.002032298
-1.098001,-0.002026167
-1.097001,-0.002020036
-1.096001,-0.00201084
-1.095001,-0.002004709
-1.094001,-0.001998578
-1.093001,-0.001986316
-1.092001,-0.001980185
-1.091001,-0.001974054
-1.090001,-0.001964858
-1.089001,-0.001955661
-1.088001,-0.00194953
-1.087001,-0.001940334
-1.086001,-0.001931137
-1.085001,-0.001925006
-1.084001,-0.00191581
-1.083001,-0.001906613
-1.082001,-0.001900482
-1.081001,-0.001891286
-1.080001,-0.001885155
-1.079001,-0.001879024
-1.078001,-0.001866762
-1.077001,-0.001860631
-1.076001,-0.0018545
-1.075001,-0.001842238
-1.074001,-0.001836107
-1.073001,-0.001826911
-1.072001,-0.001817714
-1.071001,-0.001811583
-1.070001,-0.001802387
-1.069001,-0.00179319
-1.068001,-0.001783994
-1.067001,-0.001777863
-1.066001,-0.001768667
-1.065001,-0.00175947
-1.064001,-0.001756405
-1.063001,-0.001744143
-1.062001,-0.001734946
-1.061001,-0.001728815
-1.060001,-0.001713488
-1.059001,-0.001710422
-1.058001,-0.001701226
-1.057001,-0.00169203
-1.056001,-0.001685899
-1.055001,-0.001673637
-1.054001,-0.00166444
-1.053001,-0.001658309
-1.052001,-0.001646047
-1.051001,-0.001639916
-1.050001,-0.001633785
-1.049001,-0.001621523
-1.048001,-0.001612327
-1.047001,-0.001606196
-1.046001,-0.00162776
-1.045001,-0.001621016
-1.044001,-0.001612432
-1.043001,-0.001599251
-1.042001,-0.00159312
-1.041001,-0.001585149
-1.040001,-0.001570742
-1.039001,-0.001566757
-1.038001,-0.00155756
-1.037001,-0.001544685
-1.036001,-0.001537941
-1.035001,-0.001528132
-1.034001,-0.001516789
-1.033001,-0.001509126
-1.032001,-0.001499316
-1.031001,-0.001488893
-1.030001,-0.001480617
-1.029001,-0.001470807
-1.028001,-0.001459771
-1.027001,-0.001452414
-1.026001,-0.001441378
-1.025001,-0.001431875
-1.024001,-0.001422985
-1.023001,-0.00141103
-1.022001,-0.001402447
-1.021001,-0.001395396
-1.020001,-0.001382828
-1.019001,-0.00137547
-1.018001,-0.001367807
-1.017001,-0.001353092
-1.016001,-0.001346962
-1.015001,-0.001337152
-1.014001,-0.001324277
-1.013001,-0.001319372
-1.012001,-0.001309256
-1.011001,-0.001298527
-1.010001,-0.001291476
-1.009001,-0.001279827
-1.008001,-0.001270324
-1.007001,-0.001262661
-1.006001,-0.001251625
-1.005001,-0.001242429
-1.004001,-0.001235071
-1.003001,-0.001224342
-1.002001,-0.00121392
-1.001001,-0.001204417
-1.000001,-0.00119614
-0.9990007,-0.001185717
-0.9980007,-0.00117744
-0.9970006,-0.001166405
-0.9960006,-0.001154756
-0.9950007,-0.001150158
-0.9940007,-0.001137896
-0.9930006,-0.001129312
-0.9920006,-0.001123181
-0.9910007,-0.00111
-0.9900007,-0.001100497
-0.9890007,-0.001093753
-0.9880006,-0.001080571
-0.9870006,-0.001073214
-0.9860007,-0.001065244
-0.9850007,-0.001052369
-0.9840007,-0.001043785
-0.9830006,-0.001036122
-0.9820006,-0.001023553
-0.9810007,-0.001016809
-0.9800007,-0.001006999
-0.9790006,-0.0009932048
-0.9780006,-0.0009898327
-0.9770007,-0.0009772643
-0.9760007,-0.0009671481
-0.9750007,-0.0009594844
-0.9740006,-0.0009484487
-0.9730006,-0.0009377195
-0.9720007,-0.0009291361
-0.9710007,-0.0009187135
-0.9700007,-0.0009101302
-0.9690006,-0.0009009338
-0.9680007,-0.0008889784
-0.9670007,-0.0008785557
-0.9660007,-0.0008696658
-0.9650006,-0.0008604693
-0.9640006,-0.0008497401
-0.9630007,-0.000839624
-0.9620007,-0.0008273621
-0.9610007,-0.0008190853
-0.9600006,-0.0008092758
-0.9590006,-0.0007985466
-0.9580007,-0.0007878174
-0.9570007,-0.0007783144
-0.9560006,-0.0007660525
-0.9550006,-0.0007559364
-0.9540007,-0.0007467399
-0.9530007,-0.0007341714
-0.9520007,-0.0007246684
-0.9510006,-0.0007160851
-0.9500006,-0.0007016773
-0.9490007,-0.0006940136
-0.9480007,-0.0006823648
-0.9470007,-0.0006691832
-0.9460006,-0.000661213
-0.9450006,-0.0006498707
-0.9440007,-0.0006376088
-0.9430007,-0.0006296384
-0.9420006,-0.0006176831
-0.9410006,-0.0006066473
-0.9400007,-0.0005949985
-0.9390007,-0.0005858021
-0.9380007,-0.0005741533
-0.9370006,-0.0005634241
-0.9360006,-0.0005542276
-0.9350007,-0.0005422722
-0.9340007,-0.0005312365
-0.9330007,-0.0005226531
-0.9320006,-0.0005094716
-0.9310006,-0.000499662
-0.9300007,-0.0004916918
-0.9290007,-0.0004800429
-0.9280006,-0.0004699268
-0.9270006,-0.0004588911
-0.9260007,-0.0004500012
-0.9250007,-0.0004417244
-0.9240007,-0.0004303821
-0.9230006,-0.0004205726
-0.9220006,-0.0004135219
-0.9210007,-0.00040126
-0.9200007,-0.0003939029
-0.9190007,-0.0003862391
-0.9180006,-0.0003752034
-0.9170007,-0.0003690725
-0.9160007,-0.0003611022
-0.9150007,-0.0003509861
-0.9140006,-0.0003451617
-0.9130006,-0.000337498
-0.9120007,-0.0003283015
-0.9110007,-0.0003227837
-0.9100007,-0.0003154265
-0.9090006,-0.0003086824
-0.9080006,-0.0003004056
-0.9070007,-0.0002955009
-0.9060007,-0.0002890633
-0.9050006,-0.0002813996
-0.9040006,-0.0002789472
-0.9030007,-0.000270977
-0.9020007,-0.0002660722
-0.9010007,-0.0002627002
-0.9000006,-0.0002541168
-0.8990006,-0.0002510514
-0.8980007,-0.0002473728
-0.8970007,-0.0002403222
-0.8960007,-0.0002384829
-0.8950006,-0.0002326585
-0.8940006,-0.0002265275
-0.8930007,-0.0002240751
-0.8920007,-0.0002188638
-0.8910006,-0.0002136525
-0.8900006,-0.0002108935
-0.8890007,-0.0002056822
-0.8880007,-0.0002007774
-0.8870007,-0.0001967923
-0.8860006,-0.0001925007
-0.8850006,-0.0001875959
-0.8840007,-0.0001833042
-0.8830007,-0.0001793191
-0.8820007,-0.0001738012
-0.8810006,-0.000169203
-0.8800007,-0.0001652178
-0.8790007,-0.0001590869
-0.8780007,-0.0001551017
-0.8770006,-0.0001495839
-0.8760006,-0.0001428398
-0.8750007,-0.0001418081
-0.8740007,-0.0001373325
-0.8730007,-0.0001303432
-0.8720006,-0.0001252544
-0.8710006,-0.0001200738
-0.8700007,-0.0001124407
-0.8690007,-0.0001079651
-0.8680006,-9.993356E-05
-0.8670006,-9.383325E-05
-0.8660007,-8.788622E-05
-0.8650007,-7.967072E-05
-0.8640007,-7.311059E-05
-0.8630006,-6.630522E-05
-0.8620006,-5.70168E-05
-0.8610007,-5.073257E-05
-0.8600007,-4.113761E-05
-0.8590007,-3.215575E-05
-0.8580006,-2.522776E-05
-0.8570006,-1.459053E-05
-0.8560007,-4.689021E-06
-0.8550007,4.139569E-06
-0.8540006,1.548186E-05
-0.8530006,2.667087E-05
-0.8520007,3.773726E-05
-0.8510007,4.975395E-05
-0.8500007,6.229177E-05
-0.8490006,7.492156E-05
-0.8480006,8.874689E-05
-0.8470007,0.0001007636
-0.8460007,0.0001161216
-0.8450007,0.0001314797
-0.8440006,0.0001465312
-0.8430007,0.0001608164
-0.8420007,0.0001785655
-0.8410007,0.000195395
-0.8400006,0.0002113049
-0.8390006,0.0002317516
-0.8380007,0.0002495928
-0.8370007,0.0002675258
-0.8360007,0.0002884018
-0.8350006,0.0003111582
-0.8340006,0.0003313904
-0.8330007,0.0003531553
-0.8320007,0.0003743071
-0.8310006,0.0003972982
-0.8300006,0.0004196763
-0.8290007,0.0004423608
-0.8280007,0.0004671912
-0.8270007,0.000491102
-0.8260006,0.0005150128
-0.8250006,0.0005407628
-0.8240007,0.0005658998
-0.8230007,0.0005913433
-0.8220007,0.000618013
-0.8210006,0.0006449892
-0.8200006,0.0006713524
-0.8190007,0.0007013941
-0.8180007,0.0007283704
-0.8170006,0.0007562663
-0.8160006,0.0007853883
-0.8150007,0.0008129777
-0.8140007,0.0008420998
-0.8130007,0.0008715284
-0.8120006,0.000900957
-0.8110006,0.000929466
-0.8100007,0.0009595078
-0.8090007,0.0009895496
-0.8080007,0.001018672
-0.8070006,0.00104902
-0.8060006,0.001078755
-0.8050007,0.001109103
-0.8040007,0.001140371
-0.8030006,0.001169187
-0.8020006,0.001199535
-0.8010007,0.00123019
-0.8000007,0.001195243
-0.8009993,0.001107877
-0.8019994,0.00103216
-0.8029994,0.0009613471
-0.8039994,0.0008948261
-0.8049994,0.000831064
-0.8059993,0.0007694478
-0.8069994,0.0007118168
-0.8079994,0.0006557184
-0.8089994,0.0006008463
-0.8099993,0.0005493462
-0.8109994,0.0004990723
-0.8119994,0.000449718
-0.8129994,0.0004034292
-0.8139994,0.0003586731
-0.8149993,0.0003129975
-0.8159994,0.0002722265
-0.8169994,0.0002296163
-0.8179994,0.0001897651
-0.8189994,0.0001505269
-0.8199994,0.0001122083
-0.8209994,7.271441E-05
-0.8219994,3.841166E-05
-0.8229994,2.545518E-06
-0.8239993,-3.000991E-05
-0.8249994,-6.195223E-05
-0.8259994,-9.398653E-05
-0.8269994,-0.0001242735
-0.8279994,-0.0001548057
-0.8289993,-0.0001844183
-0.8299994,-0.0002109347
-0.8309994,-0.0002398422
-0.8319994,-0.0002663893
-0.8329993,-0.000291281
-0.8339994,-0.0003145068
-0.8349994,-0.0003390307
-0.8359994,-0.0003623284
-0.8369994,-0.0003868522
-0.8379993,-0.0004092303
-0.8389994,-0.0004309952
-0.8399994,-0.0004530667
-0.8409994,-0.0004742185
-0.8419994,-0.0004941442
-0.8429993,-0.0005143763
-0.8439994,-0.0005346085
-0.8449994,-0.0005520818
-0.8459994,-0.0005720074
-0.8469993,-0.0005900938
-0.8479994,-0.0006060342
-0.8489994,-0.0006244272
-0.8499994,-0.0006412873
-0.8509994,-0.0006569213
-0.8519993,-0.000674088
-0.8529994,-0.0006888023
-0.8539994,-0.0007035166
-0.8549994,-0.0007191506
-0.8559994,-0.0007332518
-0.8569994,-0.000747353
-0.8579994,-0.0007626804
-0.8589994,-0.0007752489
-0.8599994,-0.0007875108
-0.8609993,-0.0008013055
-0.8619994,-0.0008141805
-0.8629994,-0.000826749
-0.8639994,-0.000839624
-0.8649994,-0.0008497401
-0.8659993,-0.0008629217
-0.8669994,-0.000874264
-0.8679994,-0.0008843801
-0.8689994,-0.0008960289
-0.8699993,-0.0009076777
-0.8709994,-0.0009168742
-0.8719994,-0.00092791
-0.8729994,-0.0009383326
-0.8739994,-0.0009472225
-0.8749993,-0.0009573385
-0.8759994,-0.0009674546
-0.8769994,-0.000976038
-0.8779994,-0.0009861541
-0.8789994,-0.0009962702
-0.8799993,-0.001003014
-0.8809994,-0.001014663
-0.8819994,-0.00102294
-0.8829994,-0.001030604
-0.8839993,-0.001041333
-0.8849994,-0.001048384
-0.8859994,-0.001056047
-0.8869994,-0.001065857
-0.8879994,-0.001073214
-0.8889993,-0.001081491
-0.8899994,-0.001091913
-0.8909994,-0.001097738
-0.8919994,-0.001106321
-0.8929994,-0.001114904
-0.8939994,-0.001121342
-0.8949994,-0.001129619
-0.8959994,-0.001137896
-0.8969994,-0.001145253
-0.8979993,-0.001152916
-0.8989994,-0.001161193
-0.8999994,-0.001167631
-0.9009994,-0.001175601
-0.9019994,-0.001183878
-0.9029993,-0.001190928
-0.9039994,-0.001197673
-0.9049994,-0.001206562
-0.9059994,-0.001212693
-0.9069993,-0.001221277
-0.9079994,-0.001229247
-0.9089994,-0.001235684
-0.9099994,-0.001243655
-0.9109994,-0.001251625
-0.9119993,-0.00125745
-0.9129994,-0.001266033
-0.9139994,-0.00127339
-0.9149994,-0.001280134
-0.9159994,-0.001289024
-0.9169993,-0.001295155
-0.9179994,-0.001302205
-0.9189994,-0.001311095
-0.9199994,-0.001317226
-0.9209993,-0.00132489
-0.9219994,-0.001332247
-0.9229994,-0.001338685
-0.9239994,-0.001348494
-0.9249994,-0.001355851
-0.9259993,-0.00136045
-0.9269994,-0.001369646
-0.9279994,-0.001376697
-0.9289994,-0.001383134
-0.9299994,-0.001390491
-0.9309993,-0.001398768
-0.9319994,-0.001404899
-0.9329994,-0.001412563
-0.9339994,-0.001420533
-0.9349993,-0.001427277
-0.9359994,-0.001433715
-0.9369994,-0.001443524
-0.9379994,-0.001448736
-0.9389994,-0.00145456
-0.9399993,-0.001464983
-0.9409994,-0.001470194
-0.9419994,-0.001478777
-0.9429994,-0.001487667
-0.9439994,-0.001491959
-0.9449994,-0.001501155
-0.9459994,-0.001508819
-0.9469994,-0.001514337
-0.9479994,-0.001524453
-0.9489993,-0.001530584
-0.9499994,-0.001536715
-0.9509994,-0.001546524
-0.9519994,-0.001552042
-0.9529994,-0.001558173
-0.9539993,-0.001567983
-0.9549994,-0.00157442
-0.9559994,-0.001581471
-0.9569994,-0.001589135
-0.9579993,-0.001596798
-0.9589994,-0.001603849
-0.9599994,-0.001613965
-0.9609994,-0.001619789
-0.9619994,-0.001627147
-0.9629993,-0.00163481
-0.9639994,-0.001640941
-0.9649994,-0.001648298
-0.9659994,-0.001656269
-0.9669994,-0.001663626
-0.9679993,-0.001672209
-0.9689994,-0.001680793
-0.9699994,-0.001685084
-0.9709994,-0.0016952
-0.9719993,-0.001702251
-0.9729994,-0.001708075
-0.9739994,-0.001717578
-0.9749994,-0.001726162
-0.9759994,-0.00173076
-0.9769993,-0.001741489
-0.9779994,-0.001748233
-0.9789994,-0.001754364
-0.9799994,-0.00176632
-0.9809994,-0.001770305
-0.9819994,-0.001778888
-0.9829994,-0.001788698
-0.9839994,-0.001793602
-0.9849994,-0.001804945
-0.9859993,-0.001812608
-0.9869994,-0.001818126
-0.9879994,-0.001828855
-0.9889994,-0.001837439
-0.9899994,-0.001844796
-0.9909993,-0.001852766
-0.9919994,-0.001863189
-0.9929994,-0.001870546
-0.9939994,-0.001880355
-0.9949993,-0.001890165
-0.9959994,-0.001897216
-0.9969994,-0.001907638
-0.9979994,-0.001915609
-0.9989994,-0.001924192
-0.9999993,-0.001934614
-1.000999,-0.001943504
-1.001999,-0.001953007
-1.002999,-0.00196343
-1.003999,-0.001973546
-1.004999,-0.001982743
-1.005999,-0.001996231
-1.006999,-0.002003281
-1.007999,-0.00201401
-1.008999,-0.002026272
-1.009999,-0.002034243
-1.010999,-0.002046811
-1.011999,-0.002060299
-1.012999,-0.00206827
-1.013999,-0.002082984
-1.014999,-0.002094019
-1.015999,-0.002102603
-1.016999,-0.002119463
-1.017999,-0.002130805
-1.018999,-0.002140615
-1.019999,-0.002157475
-1.020999,-0.002169737
-1.021999,-0.002180466
-1.022999,-0.00219702
-1.023999,-0.002209282
-1.024999,-0.002223689
-1.025999,-0.002240856
-1.026999,-0.002252505
-1.027999,-0.002268446
-1.028999,-0.002286838
-1.029999,-0.002296648
-1.030999,-0.002315961
-1.031999,-0.002332208
-1.032999,-0.002346002
-1.033999,-0.002365315
-1.034999,-0.002380642
-1.035999,-0.002394437
-1.036999,-0.002414363
-1.037999,-0.002431529
-1.038999,-0.002445937
-1.039999,-0.002465556
-1.040999,-0.002482416
-1.041999,-0.002496211
-1.042999,-0.002518589
-1.043999,-0.002535449
-1.044999,-0.002549857
-1.045999,-0.002570702
-1.046999,-0.002588175
-1.047999,-0.002604116
-1.048999,-0.002621589
-1.049999,-0.002641515
-1.050999,-0.002655922
-1.051999,-0.002676461
-1.052999,-0.002692708
-1.053999,-0.002707729
-1.054999,-0.002726735
-1.055999,-0.002740836
-1.056999,-0.00275739
-1.057999,-0.00277517
-1.058999,-0.002787125
-1.059999,-0.002806131
-1.060999,-0.002819619
-1.061999,-0.002830961
-1.062999,-0.002849968
-1.063999,-0.00286131
-1.064999,-0.002871733
-1.065999,-0.002887673
-1.066999,-0.002899935
-1.067999,-0.002908212
-1.068999,-0.002922619
-1.069999,-0.00293059
-1.070999,-0.002941013
-1.071999,-0.002953581
-1.072999,-0.002961244
-1.073999,-0.002969215
-1.074999,-0.002982396
-1.075999,-0.002986382
-1.076999,-0.002994965
-1.077999,-0.003005081
-1.078999,-0.002973401
-1.079999,-0.002976467
-1.080999,-0.002988729
-1.081999,-0.002991794
-1.082999,-0.00299486
-1.083999,-0.003004056
-1.084999,-0.003007122
-1.085999,-0.003013253
-1.086999,-0.003019383
-1.087999,-0.003019383
-1.088999,-0.003025514
-1.089999,-0.00302858
-1.090999,-0.003031645
-1.091999,-0.003031645
-1.092999,-0.003037777
-1.093999,-0.003037777
-1.094999,-0.003037777
-1.095999,-0.003040842
-1.096999,-0.003040842
-1.097999,-0.003037777
-1.098999,-0.003037777
-1.099999,-0.003040842
-1.100999,-0.003034711
-1.101999,-0.003034711
-1.102999,-0.00302858
-1.103999,-0.00302858
-1.104999,-0.003025514
-1.105999,-0.003022449
-1.106999,-0.003019383
-1.107999,-0.003019383
-1.108999,-0.003013253
-1.109999,-0.003010187
-1.110999,-0.003007122
-1.111999,-0.003000991
-1.112999,-0.002997925
-1.113999,-0.003000991
-1.114999,-0.002991794
-1.115999,-0.002991794
-1.116999,-0.00299486
-1.117999,-0.002985663
-1.118999,-0.002988729
-1.119999,-0.002985663
-1.120999,-0.002985663
-1.121999,-0.002985663
-1.122999,-0.002982598
-1.123999,-0.002982598
-1.124999,-0.002985663
-1.125999,-0.002985663
-1.126999,-0.002985663
-1.127999,-0.002988729
-1.128999,-0.002988729
-1.129999,-0.002991794
-1.130999,-0.002991794
-1.131999,-0.002991794
-1.132999,-0.003000991
-1.133999,-0.003000991
-1.134999,-0.003000991
-1.135999,-0.003007122
-1.136999,-0.003010187
-1.137999,-0.003010187
-1.138999,-0.003016318
-1.139999,-0.003022449
-1.140999,-0.003022449
-1.141999,-0.003031645
-1.142999,-0.003037777
-1.143999,-0.003034711
-1.144999,-0.003043907
-1.145999,-0.003053104
-1.146999,-0.003056169
-1.147999,-0.003059235
-1.148999,-0.003065366
-1.149999,-0.003071497
-1.150999,-0.003077628
-1.151999,-0.003083759
-1.152999,-0.003089889
-1.153999,-0.003099086
-1.154999,-0.003102152
-1.155999,-0.003111348
-1.156999,-0.003117479
-1.157999,-0.003126675
-1.158999,-0.003132806
-1.159999,-0.003138937
-1.160999,-0.003148134
-1.161999,-0.003151199
-1.162999,-0.003163461
-1.163999,-0.003169592
-1.164999,-0.003178789
-1.165999,-0.003191051
-1.166999,-0.003194116
-1.167999,-0.003206378
-1.168999,-0.003215575
-1.169999,-0.003221706
-1.170999,-0.003230902
-1.171999,-0.003243164
-1.172999,-0.003249295
-1.173999,-0.003261557
-1.174999,-0.003270753
-1.175999,-0.003273819
-1.176999,-0.003289146
-1.177999,-0.003301408
-1.178999,-0.003304473
-1.179999,-0.003319801
-1.180999,-0.003328997
-1.181999,-0.003335128
-1.182999,-0.003353521
-1.183999,-0.003359652
-1.184999,-0.003368848
-1.185999,-0.003384176
-1.186999,-0.003390307
-1.187999,-0.003399503
-1.188999,-0.003414831
-1.189999,-0.003420962
-1.190999,-0.003436289
-1.191999,-0.003445486
-1.192999,-0.003454682
-1.193999,-0.003470009
-1.194999,-0.003479206
-1.195999,-0.003488402
-1.196999,-0.00350373
-1.197999,-0.003515992
-1.198999,-0.003522123
-1.199999,-0.00353745
-1.200999,-0.003549712
-1.201999,-0.003558908
-1.202999,-0.00357117
-1.203999,-0.003583432
-1.204999,-0.003592629
-1.205999,-0.003607956
-1.206999,-0.003620218
-1.207999,-0.003629415
-1.208999,-0.003644742
-1.209999,-0.003653938
-1.210999,-0.003669266
-1.211999,-0.003684593
-1.212999,-0.003690724
-1.213999,-0.003706052
-1.214999,-0.003721379
-1.215999,-0.003730575
-1.216999,-0.003742838
-1.217999,-0.003758165
-1.218999,-0.003770427
-1.219999,-0.003785754
-1.220999,-0.003798016
-1.221999,-0.003810278
-1.222999,-0.00382254
-1.223999,-0.003840933
-1.224999,-0.003853195
-1.225999,-0.003862391
-1.226999,-0.003880784
-1.227999,-0.003893046
-1.228999,-0.003914505
-1.229999,-0.003929832
-1.230999,-0.003939028
-1.231999,-0.003957421
-1.232999,-0.003975814
-1.233999,-0.003988076
-1.234999,-0.004006469
-1.235999,-0.004024862
-1.236999,-0.004037124
-1.237999,-0.004058582
-1.238999,-0.004076975
-1.239999,-0.004092303
-1.240999,-0.004110695
-1.241999,-0.004132153
-1.242999,-0.004147481
-1.243999,-0.004168939
-1.244999,-0.004190398
-1.245999,-0.004205726
-1.246999,-0.004230249
-1.247999,-0.004251707
-1.248999,-0.004270101
-1.249999,-0.004294624
-1.250999,-0.004316083
-1.251999,-0.004340607
-1.252999,-0.004362065
-1.253999,-0.004386589
-1.254999,-0.004411113
-1.255999,-0.004432571
-1.256999,-0.004463226
-1.257999,-0.004484684
-1.258999,-0.004515339
-1.259999,-0.004545994
-1.260999,-0.004570518
-1.261999,-0.004604238
-1.262999,-0.004634893
-1.263999,-0.004662482
-1.264999,-0.004696202
-1.265999,-0.004729923
-1.266999,-0.004760577
-1.267999,-0.004797364
-1.268999,-0.004837214
-1.269999,-0.004870935
-1.270999,-0.004910786
-1.271999,-0.004950637
-1.272999,-0.004990489
-1.273999,-0.005033405
-1.274999,-0.005079388
-1.275999,-0.005119239
-1.276999,-0.005168287
-1.277999,-0.005217335
-1.278999,-0.005263316
-1.279999,-0.00531543
-1.280999,-0.005370609
-1.281999,-0.005416591
-1.282999,-0.0054779
-1.283999,-0.005536145
-1.284999,-0.005591323
-1.285999,-0.005655698
-1.286999,-0.005720073
-1.287999,-0.005781383
-1.288999,-0.005851889
-1.289999,-0.005922395
-1.290999,-0.005989837
-1.291999,-0.006066473
-1.292999,-0.006146176
-1.293999,-0.006222813
-1.294999,-0.00630558
-1.295999,-0.006391414
-1.296999,-0.006474182
-1.297999,-0.006569212
-1.298999,-0.006661177
-1.299999,-0.006756207
-1.300999,-0.006857368
-1.301999,-0.006955463
-1.302999,-0.00705969
-1.303999,-0.007173113
-1.304999,-0.00728347
-1.305999,-0.007399958
-1.306999,-0.007522577
-1.307999,-0.007639066
-1.308999,-0.007764751
-1.309999,-0.007899632
-1.310999,-0.008031447
-1.311999,-0.008175525
-1.312999,-0.008316537
-1.313999,-0.00845755
-1.314999,-0.008616954
-1.315999,-0.008773294
-1.316999,-0.008926569
-1.317999,-0.009101301
-1.318999,-0.009263772
-1.319999,-0.009435439
-1.320999,-0.009619367
-1.321999,-0.009800231
-1.322999,-0.009987226
-1.323999,-0.01018342
-1.324999,-0.01037654
-1.325999,-0.01057886
-1.326999,-0.01078732
-1.327999,-0.0109927
-1.328999,-0.01121342
-1.329999,-0.01143413
-1.330999,-0.01165485
-1.331999,-0.01189396
-1.332999,-0.01212387
-1.333999,-0.01235991
-1.334999,-0.01260821
-1.335999,-0.01285345
-1.336999,-0.01310482
-1.337999,-0.01337152
-1.338999,-0.01363209
-1.339999,-0.01389878
-1.340999,-0.01416854
-1.341999,-0.01443524
-1.342999,-0.01471727
-1.343999,-0.01499929
-1.344999,-0.01528131
-1.345999,-0.0155756
-1.346999,-0.01586682
-1.347999,-0.01615498
-1.348999,-0.01645846
-1.349999,-0.01675888
-1.350999,-0.01706236
-1.351999,-0.01737197
-1.352999,-0.01768772
-1.353999,-0.01799427
-1.354999,-0.01831308
-1.355999,-0.01863802
-1.356999,-0.01894457
-1.357999,-0.0192787
-1.358999,-0.01960058
-1.359999,-0.01992552
-1.360999,-0.02026272
-1.361999,-0.02059073
-1.362999,-0.0209218
-1.363999,-0.021259
-1.364999,-0.02159314
-1.365999,-0.02192421
-1.366999,-0.02227061
-1.367999,-0.02259862
-1.368999,-0.02294809
-1.369999,-0.02329448
-1.370999,-0.02362862
-1.371999,-0.02397809
-1.372999,-0.02433368
-1.373999,-0.02466782
-1.374999,-0.02502955
-1.375999,-0.02538514
-1.376999,-0.02573461
-1.377999,-0.02610247
-1.378999,-0.026455
-1.379999,-0.02680753
-1.380999,-0.02716619
-1.381999,-0.02751565
-1.382999,-0.02786819
-1.383999,-0.02822991
-1.384999,-0.02859164
-1.385999,-0.02894417
-1.386999,-0.0293059
-1.387999,-0.02966149
-1.388999,-0.03002628
-1.389999,-0.03040027
-1.390999,-0.03086824
-1.391999,-0.0312361
-1.392999,-0.03160396
-1.393999,-0.03194116
-1.394999,-0.03233967
-1.395999,-0.03273819
-1.396999,-0.03307539
-1.397999,-0.03347391
-1.398999,-0.03384176
-1.399999,-0.03420962
-1.400999,-0.03457748
-1.401999,-0.03497599
-1.402999,-0.03534385
-1.403999,-0.03574236
-1.404999,-0.03611022
-1.405999,-0.03647808
-1.406999,-0.03687659
-1.407999,-0.03724445
-1.408999,-0.03764296
-1.409999,-0.03804147
-1.410999,-0.03840933
-1.411999,-0.03877719
-1.412999,-0.0391757
-1.413999,-0.03954356
-1.414999,-0.03994207
-1.415999,-0.04034058
-1.416999,-0.04070844
-1.417999,-0.04110695
-1.418999,-0.04150547
-1.419999,-0.04187332
-1.420999,-0.04227184
-1.421999,-0.04267035
-1.422999,-0.04306886
-1.423999,-0.04346738
-1.424999,-0.04383523
-1.425999,-0.04423375
-1.426999,-0.0446016
-1.427999,-0.04500012
-1.428999,-0.04536797
-1.429999,-0.04579714
-1.430999,-0.046165
-1.431999,-0.04653286
-1.432999,-0.04693137
-1.433999,-0.04732988
-1.434999,-0.0477284
-1.435999,-0.04812691
-1.436999,-0.04852542
-1.437999,-0.04892394
-1.438999,-0.04932245
-1.439999,-0.04969031
-1.440999,-0.05008882
-1.441999,-0.05048734
-1.442999,-0.05088584
-1.443999,-0.05128435
-1.444999,-0.05168287
-1.445999,-0.05208138
-1.446999,-0.05247989
-1.447999,-0.05287841
-1.448999,-0.05327692
-1.449999,-0.05367543
-1.450999,-0.05407395
-1.451999,-0.05447246
-1.452999,-0.05487097
-1.453999,-0.05526949
-1.454999,-0.055668
-1.455999,-0.05606651
-1.456999,-0.05646503
-1.457999,-0.05686354
-1.458999,-0.05726204
-1.459999,-0.05766056
-1.460999,-0.05805907
-1.461999,-0.05845758
-1.462999,-0.0588561
-1.463999,-0.05925461
-1.464999,-0.05968378
-1.465999,-0.06005164
-1.466999,-0.0604808
-1.467999,-0.06087932
-1.468999,-0.06124718
-1.469999,-0.061707
-1.470999,-0.06207486
-1.471999,-0.06247337
-1.472999,-0.06290253
-1.473999,-0.06330105
-1.474999,-0.06369957
-1.475999,-0.06412873
-1.476999,-0.0645579
-1.477999,-0.06495641
-1.478999,-0.06538557
-1.479999,-0.06575344
-1.480999,-0.06618261
-1.481999,-0.06658112
-1.482999,-0.06697963
-1.483999,-0.06740879
-1.484999,-0.06783796
-1.485999,-0.06823648
-1.486999,-0.06866565
-1.487999,-0.06909481
-1.488999,-0.06949332
-1.489999,-0.06992249
-1.490999,-0.07032101
-1.491999,-0.07071952
-1.492999,-0.07114869
-1.493999,-0.0715472
-1.494999,-0.07197636
-1.495999,-0.07240553
-1.496999,-0.0728347
-1.497999,-0.07323321
-1.498999,-0.07366238
-1.499999,-0.073785
-1.499001,-0.07335583
-1.498001,-0.07292666
-1.497001,-0.07252815
-1.496001,-0.07203767
-1.495001,-0.07160851
-1.494001,-0.07117934
-1.493001,-0.07071952
-1.492001,-0.07032101
-1.491001,-0.06986118
-1.490001,-0.06940136
-1.489001,-0.06897219
-1.488001,-0.06854302
-1.487001,-0.0680832
-1.486001,-0.06765404
-1.485001,-0.06722487
-1.484001,-0.06676505
-1.483001,-0.06633588
-1.482001,-0.06590671
-1.481001,-0.06544688
-1.480001,-0.06501772
-1.479001,-0.0645579
-1.478001,-0.06415939
-1.477001,-0.06369957
-1.476001,-0.0632704
-1.475001,-0.06284123
-1.474001,-0.06241206
-1.473001,-0.06195223
-1.472001,-0.06155372
-1.471001,-0.06112456
-1.470001,-0.06066473
-1.469001,-0.06026622
-1.468001,-0.0598064
-1.467001,-0.05937723
-1.466001,-0.05894807
-1.465001,-0.05851889
-1.464001,-0.05808973
-1.463001,-0.05766056
-1.462001,-0.05723139
-1.461001,-0.05680222
-1.460001,-0.05637306
-1.459001,-0.05594389
-1.458001,-0.05551472
-1.457001,-0.05511621
-1.456001,-0.05468704
-1.455001,-0.05422722
-1.454001,-0.05382871
-1.453001,-0.05336889
-1.452001,-0.05293972
-1.451001,-0.0525412
-1.450001,-0.05211204
-1.449001,-0.05168287
-1.448001,-0.05128435
-1.447001,-0.05085519
-1.446001,-0.05042602
-1.445001,-0.05002751
-1.444001,-0.04959834
-1.443001,-0.04919983
-1.442001,-0.04877066
-1.441001,-0.04834149
-1.440001,-0.04794298
-1.439001,-0.04751381
-1.438001,-0.04708464
-1.437001,-0.04668614
-1.436001,-0.04625697
-1.435001,-0.04585845
-1.434001,-0.04545994
-1.433001,-0.04503077
-1.432001,-0.04463226
-1.431001,-0.04423375
-1.430001,-0.04383523
-1.429001,-0.04340607
-1.428001,-0.04300755
-1.427001,-0.04260904
-1.426001,-0.04217988
-1.425001,-0.04181201
-1.424001,-0.04138285
-1.423001,-0.04098434
-1.422001,-0.04058582
-1.421001,-0.04018731
-1.420001,-0.0397888
-1.419001,-0.03942094
-1.418001,-0.03899177
-1.417001,-0.03859326
-1.416001,-0.0382254
-1.415001,-0.03782689
-1.414001,-0.03742838
-1.413001,-0.03706052
-1.412001,-0.036662
-1.411001,-0.03629415
-1.410001,-0.03589563
-1.409001,-0.03549712
-1.408001,-0.03512926
-1.407001,-0.03473075
-1.406001,-0.03433224
-1.405001,-0.03396438
-1.404001,-0.03356587
-1.403001,-0.03319801
-1.402001,-0.03286081
-1.401001,-0.0324623
-1.400001,-0.03209443
-1.399001,-0.03169592
-1.398001,-0.03132806
-1.397001,-0.03096021
-1.396001,-0.03059235
-1.395001,-0.03022449
-1.394001,-0.02985664
-1.393001,-0.02948878
-1.392001,-0.02915157
-1.391001,-0.02875306
-1.390001,-0.02841586
-1.389001,-0.02807865
-1.388001,-0.0277108
-1.387001,-0.02737359
-1.386001,-0.02700574
-1.385001,-0.02663788
-1.384001,-0.02633133
-1.383001,-0.02596347
-1.382001,-0.02562627
-1.381001,-0.02528906
-1.380001,-0.02492121
-1.379001,-0.024584
-1.378001,-0.0242468
-1.377001,-0.0239096
-1.376001,-0.02357239
-1.375001,-0.02326585
-1.374001,-0.02292864
-1.373001,-0.02259144
-1.372001,-0.02228489
-1.371001,-0.02194769
-1.370001,-0.02164114
-1.369001,-0.02130394
-1.368001,-0.02099739
-1.367001,-0.02069084
-1.366001,-0.02038429
-1.365001,-0.02007774
-1.364001,-0.0197712
-1.363001,-0.01946465
-1.362001,-0.0191581
-1.361001,-0.01885155
-1.360001,-0.01857566
-1.359001,-0.01826911
-1.358001,-0.01799322
-1.357001,-0.01771732
-1.356001,-0.01741077
-1.355001,-0.01713488
-1.354001,-0.01685899
-1.353001,-0.01658309
-1.352001,-0.0163072
-1.351001,-0.01603131
-1.350001,-0.01587908
-1.349001,-0.01563078
-1.348001,-0.01536715
-1.347001,-0.01510965
-1.346001,-0.01486747
-1.345001,-0.01461304
-1.344001,-0.01436473
-1.343001,-0.01412869
-1.342001,-0.01388345
-1.341001,-0.01364435
-1.340001,-0.0134175
-1.339001,-0.01318146
-1.338001,-0.01295768
-1.337001,-0.01274003
-1.336001,-0.01251625
-1.335001,-0.01230167
-1.334001,-0.01209321
-1.333001,-0.01188169
-1.332001,-0.01167324
-1.331001,-0.01147092
-1.330001,-0.01126553
-1.329001,-0.01106934
-1.328001,-0.01087928
-1.327001,-0.01068616
-1.326001,-0.01049916
-1.325001,-0.01031523
-1.324001,-0.0101313
-1.323001,-0.009959636
-1.322001,-0.009787968
-1.321001,-0.009610171
-1.320001,-0.009450765
-1.319001,-0.009291361
-1.318001,-0.009125825
-1.317001,-0.008975616
-1.316001,-0.008825407
-1.315001,-0.008672133
-1.314001,-0.008528056
-1.313001,-0.008387043
-1.312001,-0.008246032
-1.311001,-0.00811115
-1.310001,-0.0079824
-1.309001,-0.007850585
-1.308001,-0.007727965
-1.307001,-0.007611477
-1.306001,-0.007485792
-1.305001,-0.007369304
-1.304001,-0.007258946
-1.303001,-0.007139392
-1.302001,-0.007038231
-1.301001,-0.006934005
-1.300001,-0.006823647
-1.299001,-0.006728617
-1.298001,-0.006630522
-1.297001,-0.006535492
-1.296001,-0.006443528
-1.295001,-0.006348498
-1.294001,-0.006262664
-1.293001,-0.00617683
-1.292001,-0.006090997
-1.291001,-0.00601436
-1.290001,-0.005934658
-1.289001,-0.005851889
-1.288001,-0.005784449
-1.287001,-0.005710877
-1.286001,-0.005637306
-1.285001,-0.0055668
-1.284001,-0.005499359
-1.283001,-0.005431918
-1.282001,-0.005370609
-1.281001,-0.00531543
-1.280001,-0.005251055
-1.279001,-0.005192811
-1.278001,-0.005134566
-1.277001,-0.005073257
-1.276001,-0.005021143
-1.275001,-0.004965965
-1.274001,-0.004916917
-1.273001,-0.004867869
-1.272001,-0.004818822
-1.271001,-0.004766709
-1.270001,-0.004723792
-1.269001,-0.00467781
-1.268001,-0.004631828
-1.267001,-0.00458891
-1.266001,-0.004545994
-1.265001,-0.004503077
-1.264001,-0.004463226
-1.263001,-0.00442644
-1.262001,-0.004386589
-1.261001,-0.004352869
-1.260001,-0.004313017
-1.259001,-0.004273166
-1.258001,-0.004242511
-1.257001,-0.004205726
-1.256001,-0.004172005
-1.255001,-0.00414135
-1.254001,-0.00410763
-1.253001,-0.004073909
-1.252001,-0.00404632
-1.251001,-0.0040126
-1.250001,-0.003981945
-1.249001,-0.003954356
-1.248001,-0.003923701
-1.247001,-0.003896111
-1.246001,-0.003871588
-1.245001,-0.003840933
-1.244001,-0.003816409
-1.243001,-0.003794951
-1.242001,-0.003764296
-1.241001,-0.003739772
-1.240001,-0.003718314
-1.239001,-0.003690724
-1.238001,-0.003669266
-1.237001,-0.003647808
-1.236001,-0.003620218
-1.235001,-0.003601825
-1.234001,-0.003580367
-1.233001,-0.003552777
-1.232001,-0.00353745
-1.231001,-0.003515992
-1.230001,-0.003491468
-1.229001,-0.003473075
-1.228001,-0.003451617
-1.227001,-0.003430158
-1.226001,-0.003414831
-1.225001,-0.003396438
-1.224001,-0.003371914
-1.223001,-0.003356587
-1.222001,-0.003338194
-1.221001,-0.003316735
-1.220001,-0.003304473
-1.219001,-0.003283015
-1.218001,-0.003267688
-1.217001,-0.00325236
-1.216001,-0.003230902
-1.215001,-0.003212509
-1.214001,-0.003200247
-1.213001,-0.003181854
-1.212001,-0.003166527
-1.211001,-0.003151199
-1.210001,-0.003132806
-1.209001,-0.003117479
-1.208001,-0.003105217
-1.207001,-0.003083759
-1.206001,-0.003071497
-1.205001,-0.003059235
-1.204001,-0.003040842
-1.203001,-0.00302858
-1.202001,-0.003016318
-1.201001,-0.003000991
-1.200001,-0.002985663
-1.199001,-0.002973401
-1.198001,-0.002955008
-1.197001,-0.002942747
-1.196001,-0.002930485
-1.195001,-0.002915157
-1.194001,-0.002902895
-1.193001,-0.002890633
-1.192001,-0.002875306
-1.191001,-0.002863044
-1.190001,-0.002850782
-1.189001,-0.00283852
-1.188001,-0.002823193
-1.187001,-0.002813996
-1.186001,-0.002801734
-1.185001,-0.002783341
-1.184001,-0.00277721
-1.183001,-0.002761883
-1.182001,-0.002749621
-1.181001,-0.00274349
-1.180001,-0.002725097
-1.179001,-0.002712835
-1.178001,-0.002703639
-1.177001,-0.002688312
-1.176001,-0.002679115
-1.175001,-0.002669919
-1.174001,-0.002654591
-1.173001,-0.00264846
-1.172001,-0.002633133
-1.171001,-0.002620871
-1.170001,-0.002611674
-1.169001,-0.002602478
-1.168001,-0.002587151
-1.167001,-0.00258102
-1.166001,-0.002568757
-1.165001,-0.00255343
-1.164001,-0.002550365
-1.163001,-0.002538103
-1.162001,-0.002522775
-1.161001,-0.002516645
-1.160001,-0.002504382
-1.159001,-0.00249212
-1.158001,-0.00248599
-1.157001,-0.002476793
-1.156001,-0.002461466
-1.155001,-0.002455335
-1.154001,-0.002443073
-1.153001,-0.002433876
-1.152001,-0.002427745
-1.151001,-0.002418549
-1.150001,-0.002406287
-1.149001,-0.002403222
-1.148001,-0.002384829
-1.147001,-0.002381763
-1.146001,-0.002372567
-1.145001,-0.002360305
-1.144001,-0.002354174
-1.143001,-0.002348043
-1.142001,-0.002332716
-1.141001,-0.00232965
-1.140001,-0.002320454
-1.139001,-0.002308191
-1.138001,-0.002305126
-1.137001,-0.002292864
-1.136001,-0.002280602
-1.135001,-0.002277537
-1.134001,-0.00226834
-1.133001,-0.002259144
-1.132001,-0.002256078
-1.131001,-0.002243817
-1.130001,-0.002237685
-1.129001,-0.002231555
-1.128001,-0.002219293
-1.127001,-0.002213162
-1.126001,-0.002207031
-1.125001,-0.002197834
-1.124001,-0.002191703
-1.123001,-0.002182507
-1.122001,-0.00217331
-1.121001,-0.002167179
-1.120001,-0.002157983
-1.119001,-0.002148786
-1.118001,-0.002142655
-1.117001,-0.002136525
-1.116001,-0.002124263
-1.115001,-0.002121197
-1.114001,-0.002112001
-1.113001,-0.002096673
-1.112001,-0.002096673
-1.111001,-0.002084411
-1.110001,-0.002075215
-1.109001,-0.002072149
-1.108001,-0.002062953
-1.107001,-0.002050691
-1.106001,-0.002047626
-1.105001,-0.002038429
-1.104001,-0.002026167
-1.103001,-0.002023102
-1.102001,-0.002016971
-1.101001,-0.002001643
-1.100001,-0.001998578
-1.099001,-0.001989381
-1.098001,-0.00197712
-1.097001,-0.001974054
-1.096001,-0.001964858
-1.095001,-0.001958727
-1.094001,-0.00194953
-1.093001,-0.001940334
-1.092001,-0.001931137
-1.091001,-0.001928072
-1.090001,-0.00191581
-1.089001,-0.001909679
-1.088001,-0.001903548
-1.087001,-0.001891286
-1.086001,-0.001885155
-1.085001,-0.001875959
-1.084001,-0.001866762
-1.083001,-0.001860631
-1.082001,-0.001851435
-1.081001,-0.001842238
-1.080001,-0.001836107
-1.079001,-0.001826911
-1.078001,-0.001817714
-1.077001,-0.001811583
-1.076001,-0.001805453
-1.075001,-0.001790125
-1.074001,-0.001790125
-1.073001,-0.001777863
-1.072001,-0.001771732
-1.071001,-0.001765601
-1.070001,-0.001753339
-1.069001,-0.001747208
-1.068001,-0.001741077
-1.067001,-0.001728815
-1.066001,-0.001722684
-1.065001,-0.001716554
-1.064001,-0.001704292
-1.063001,-0.001698161
-1.062001,-0.001688964
-1.061001,-0.001676702
-1.060001,-0.001670571
-1.059001,-0.00166444
-1.058001,-0.001652178
-1.057001,-0.001646047
-1.056001,-0.001636851
-1.055001,-0.001624589
-1.054001,-0.001624589
-1.053001,-0.001612327
-1.052001,-0.001600065
-1.051001,-0.001631132
-1.050001,-0.001621322
-1.049001,-0.001610593
-1.048001,-0.001607221
-1.047001,-0.001595879
-1.046001,-0.00158331
-1.045001,-0.001579632
-1.044001,-0.001567676
-1.043001,-0.00155756
-1.042001,-0.001550816
-1.041001,-0.001542233
-1.040001,-0.001529664
-1.039001,-0.001524146
-1.038001,-0.001515563
-1.037001,-0.00150514
-1.036001,-0.001494411
-1.035001,-0.001486441
-1.034001,-0.001476018
-1.033001,-0.001466209
-1.032001,-0.001456399
-1.031001,-0.001448122
-1.030001,-0.001438619
-1.029001,-0.00142973
-1.028001,-0.001419307
-1.027001,-0.001410724
-1.026001,-0.001399381
-1.025001,-0.001390798
-1.024001,-0.001381295
-1.023001,-0.00136934
-1.022001,-0.001363209
-1.021001,-0.001356464
-1.020001,-0.001339604
-1.019001,-0.001335619
-1.018001,-0.00132581
-1.017001,-0.001312628
-1.016001,-0.001307723
-1.015001,-0.001295768
-1.014001,-0.001282893
-1.013001,-0.001278295
-1.012001,-0.001266952
-1.011001,-0.001256223
-1.010001,-0.001251012
-1.009001,-0.001237217
-1.008001,-0.001227714
-1.007001,-0.001220357
-1.006001,-0.001206869
-1.005001,-0.001198899
-1.004001,-0.001190009
-1.003001,-0.001178053
-1.002001,-0.001171003
-1.001001,-0.00116058
-1.000001,-0.001150158
-0.9990008,-0.001140041
-0.9980009,-0.001132071
-0.9970009,-0.001122262
-0.9960009,-0.00111
-0.9950009,-0.001102643
-0.9940009,-0.001092526
-0.9930009,-0.001080878
-0.9920009,-0.001074747
-0.9910009,-0.001062178
-0.9900008,-0.001051142
-0.9890009,-0.001044705
-0.9880009,-0.001031217
-0.9870009,-0.001021101
-0.9860009,-0.001015276
-0.9850008,-0.001002401
-0.9840009,-0.0009935113
-0.9830009,-0.0009852345
-0.9820009,-0.0009705202
-0.9810008,-0.0009634696
-0.9800009,-0.0009530469
-0.9790009,-0.0009410915
-0.9780009,-0.0009334278
-0.9770009,-0.0009214724
-0.9760008,-0.0009113564
-0.9750009,-0.0009030796
-0.9740009,-0.000889898
-0.9730009,-0.0008800884
-0.9720009,-0.0008705854
-0.9710009,-0.0008586301
-0.9700009,-0.000848514
-0.9690009,-0.0008380913
-0.9680009,-0.0008249097
-0.9670008,-0.0008175526
-0.9660009,-0.0008068234
-0.9650009,-0.0007951746
-0.9640009,-0.0007832192
-0.9630009,-0.0007740227
-0.9620008,-0.0007617608
-0.9610009,-0.0007516447
-0.9600009,-0.0007415286
-0.9590009,-0.0007286536
-0.9580009,-0.0007185375
-0.9570009,-0.0007081148
-0.9560009,-0.0006949333
-0.9550009,-0.0006845106
-0.9540009,-0.0006731683
-0.9530008,-0.000661213
-0.9520009,-0.0006507903
-0.9510009,-0.0006400611
-0.9500009,-0.0006268796
-0.9490009,-0.0006161503
-0.9480008,-0.0006060342
-0.9470009,-0.000591933
-0.9460009,-0.0005833497
-0.9450009,-0.0005717009
-0.9440009,-0.0005585193
-0.9430009,-0.0005490163
-0.9420009,-0.0005370609
-0.9410009,-0.0005244924
-0.9400009,-0.0005140697
-0.9390008,-0.000503034
-0.9380009,-0.0004913852
-0.9370009,-0.0004797364
-0.9360009,-0.0004693137
-0.9350009,-0.0004576649
-0.9340008,-0.0004469357
-0.9330009,-0.0004359
-0.9320009,-0.0004239446
-0.9310009,-0.0004138285
-0.9300008,-0.0004018731
-0.9290009,-0.0003920636
-0.9280009,-0.0003813344
-0.9270009,-0.0003696856
-0.9260009,-0.0003601825
-0.9250008,-0.000350373
-0.9240009,-0.000337498
-0.9230009,-0.0003310605
-0.9220009,-0.0003181854
-0.9210009,-0.0003080693
-0.9200009,-0.0003007122
-0.9190009,-0.0002905961
-0.9180009,-0.00028048
-0.9170009,-0.0002728163
-0.9160008,-0.0002630067
-0.9150009,-0.0002535038
-0.9140009,-0.0002482924
-0.9130009,-0.0002387894
-0.9120009,-0.0002308192
-0.9110008,-0.0002249948
-0.9100009,-0.0002154918
-0.9090009,-0.0002087477
-0.9080009,-0.0002020036
-0.9070009,-0.0001952596
-0.9060009,-0.0001897417
-0.9050009,-0.0001823845
-0.9040009,-0.0001756405
-0.9030009,-0.0001707357
-0.9020008,-0.0001652178
-0.9010009,-0.0001593934
-0.9000009,-0.0001529559
-0.8990009,-0.0001489708
-0.8980009,-0.0001434529
-0.8970008,-0.0001404899
-0.8960009,-0.0001377616
-0.8950009,-0.0001317533
-0.8940009,-0.0001270018
-0.8930008,-0.0001247027
-0.8920009,-0.0001173455
-0.8910009,-0.0001128699
-0.8900009,-0.000111705
-0.8890009,-0.0001032749
-0.8880008,-0.0001020488
-0.8870009,-9.784904E-05
-0.8860009,-9.076777E-05
-0.8850009,-8.923503E-05
-0.8840009,-8.325734E-05
-0.8830009,-7.795405E-05
-0.8820009,-7.553232E-05
-0.8810009,-6.927874E-05
-0.8800009,-6.560016E-05
-0.8790008,-6.136979E-05
-0.8780009,-5.453377E-05
-0.8770009,-5.097781E-05
-0.8760009,-4.564387E-05
-0.8750009,-4.000338E-05
-0.8740008,-3.509861E-05
-0.8730009,-3.000991E-05
-0.8720009,-2.39096E-05
-0.8710009,-1.771732E-05
-0.8700009,-1.170898E-05
-0.8690009,-5.179498E-06
-0.8680009,1.533909E-06
-0.8670009,6.316061E-06
-0.8660009,1.459286E-05
-0.8650008,2.152085E-05
-0.8640009,2.851016E-05
-0.8630009,3.638844E-05
-0.8620009,4.396019E-05
-0.8610009,5.180782E-05
-0.8600008,6.207719E-05
-0.8590009,7.026202E-05
-0.8580009,7.890669E-05
-0.8570009,9.061684E-05
-0.8560008,9.849513E-05
-0.8550009,0.0001095002
-0.8540009,0.00012213
-0.8530009,0.0001312038
-0.8520009,0.0001455196
-0.8510008,0.000157383
-0.8500009,0.0001685107
-0.8490009,0.0001836849
-0.8480009,0.0001969278
-0.8470009,0.0002106918
-0.8460009,0.0002279505
-0.8450009,0.000241132
-0.8440009,0.0002579002
-0.8430009,0.0002753122
-0.8420008,0.0002946045
-0.8410009,0.0003123844
-0.8400009,0.0003316969
-0.8390009,0.0003497833
-0.8380009,0.0003694023
-0.8370008,0.0003908607
-0.8360009,0.0004107864
-0.8350009,0.0004319382
-0.8340009,0.000455849
-0.8330009,0.0004757746
-0.8320009,0.0004993788
-0.8310009,0.0005235961
-0.8300009,0.0005468938
-0.8290009,0.0005723373
-0.8280008,0.000599007
-0.8270009,0.0006226112
-0.8260009,0.000649894
-0.8250009,0.0006771768
-0.8240009,0.0007038465
-0.8230008,0.0007323555
-0.8220009,0.0007602514
-0.8210009,0.0007878407
-0.8200009,0.0008188021
-0.8190009,0.00085007
-0.8180009,0.0008791921
-0.8170009,0.0009110731
-0.8160009,0.0009405018
-0.8150009,0.0009711566
-0.8140008,0.001003038
-0.8130009,0.001034306
-0.8120009,0.0010668
-0.8110009,0.001098681
-0.8100009,0.001130868
-0.8090008,0.001163669
-0.8080009,0.00119555
-0.8070009,0.001229883
-0.8060009,0.001262071
-0.8050008,0.001294872
-0.8040009,0.001329818
-0.8030009,0.001361699
-0.8020009,0.001395726
-0.8010009,0.001429446
-0.8000008,0.001392354
-0.8009992,0.00129763
-0.8019992,0.001215475
-0.8029991,0.001140065
-0.8039991,0.0010668
-0.8049992,0.0009975198
-0.8059992,0.0009313053
-0.8069991,0.0008678499
-0.8079991,0.0008065402
-0.8089992,0.0007479895
-0.8099992,0.0006909714
-0.8109992,0.0006357929
-0.8119991,0.0005824534
-0.8129991,0.0005315664
-0.8139992,0.0004812925
-0.8149992,0.0004343906
-0.8159992,0.0003877952
-0.8169991,0.0003408933
-0.8179991,0.0002982832
-0.8189992,0.0002538336
-0.8199992,0.0002109169
-0.8209991,0.0001738245
-0.8219991,0.0001339733
-0.8229992,9.504164E-05
-0.8239992,5.668194E-05
-0.8249992,1.983484E-05
-0.8259991,-1.489708E-05
-0.8269991,-4.659417E-05
-0.8279992,-8.126477E-05
-0.8289992,-0.0001130538
-0.8299991,-0.000142881
-0.8309991,-0.0001742715
-0.8319992,-0.0002033936
-0.8329992,-0.0002309829
-0.8339992,-0.0002597985
-0.8349991,-0.0002867134
-0.8359991,-0.0003086824
-0.8369992,-0.0003353521
-0.8379992,-0.000359876
-0.8389992,-0.0003834802
-0.8399991,-0.0004076975
-0.8409991,-0.0004306886
-0.8419992,-0.000452147
-0.8429992,-0.0004757512
-0.8439991,-0.0004956769
-0.8449991,-0.0005156025
-0.8459992,-0.0005370609
-0.8469992,-0.0005560669
-0.8479992,-0.0005744598
-0.8489991,-0.0005943854
-0.8499991,-0.0006112456
-0.8509992,-0.0006296384
-0.8519992,-0.0006477248
-0.8529992,-0.0006627457
-0.8539991,-0.0006799124
-0.8549991,-0.000696466
-0.8559992,-0.0007111803
-0.8569992,-0.0007274274
-0.8579991,-0.0007427548
-0.8589991,-0.0007559364
-0.8599992,-0.0007703441
-0.8609992,-0.0007841389
-0.8619992,-0.0007967073
-0.8629991,-0.000810502
-0.8639991,-0.0008249097
-0.8649992,-0.0008371716
-0.8659992,-0.000848514
-0.8669991,-0.0008607759
-0.8679991,-0.0008733444
-0.8689992,-0.000883767
-0.8699992,-0.0008963355
-0.8709992,-0.0009070646
-0.8719991,-0.0009181004
-0.8729991,-0.0009297492
-0.8739992,-0.0009389457
-0.8749992,-0.000950288
-0.8759992,-0.0009604041
-0.8769991,-0.0009699071
-0.8779991,-0.0009800232
-0.8789992,-0.0009901392
-0.8799992,-0.0009984161
-0.8809991,-0.001009145
-0.8819991,-0.001017422
-0.8829992,-0.001026312
-0.8839992,-0.001037348
-0.8849992,-0.001044398
-0.8859991,-0.001052675
-0.8869991,-0.001062485
-0.8879992,-0.001069842
-0.8889992,-0.001078425
-0.8899992,-0.001088235
-0.8909991,-0.001094366
-0.8919991,-0.001104175
-0.8929992,-0.001113985
-0.8939992,-0.00111797
-0.8949991,-0.001129619
-0.8959991,-0.001136976
-0.8969992,-0.00114372
-0.8979992,-0.00115353
-0.8989992,-0.001159967
-0.8999991,-0.001167018
-0.9009991,-0.001175601
-0.9019992,-0.001184797
-0.9029992,-0.001190928
-0.9039991,-0.001199205
-0.9049991,-0.001207789
-0.9059991,-0.001213306
-0.9069992,-0.001222196
-0.9079992,-0.00123078
-0.9089991,-0.001237217
-0.9099991,-0.001245801
-0.9109992,-0.001252851
-0.9119992,-0.001259902
-0.9129992,-0.001268792
-0.9139991,-0.001274923
-0.9149991,-0.00128228
-0.9159992,-0.001291476
-0.9169992,-0.00129822
-0.9179991,-0.001305271
-0.9189991,-0.001313548
-0.9199992,-0.001318759
-0.9209992,-0.001328569
-0.9219992,-0.001335926
-0.9229991,-0.00134083
-0.9239991,-0.001351253
-0.9249992,-0.001357997
-0.9259992,-0.001364128
-0.9269992,-0.001374244
-0.9279991,-0.001380069
-0.9289991,-0.001387426
-0.9299992,-0.001396929
-0.9309992,-0.001402447
-0.9319991,-0.001410417
-0.9329991,-0.001419613
-0.9339992,-0.001426051
-0.9349992,-0.001433715
-0.9359992,-0.001440459
-0.9369991,-0.001448736
-0.9379991,-0.00145548
-0.9389992,-0.001463143
-0.9399992,-0.001471727
-0.9409992,-0.001478777
-0.9419991,-0.001486134
-0.9429991,-0.001494105
-0.9439992,-0.001500542
-0.9449992,-0.001509126
-0.9459991,-0.001516176
-0.9469991,-0.001522614
-0.9479992,-0.00153181
-0.9489992,-0.001538861
-0.9499992,-0.001546218
-0.9509991,-0.001555108
-0.9519991,-0.001561239
-0.9529992,-0.001569209
-0.9539992,-0.001577486
-0.9549991,-0.001583617
-0.9559991,-0.001591894
-0.9569992,-0.00160017
-0.9579992,-0.001605995
-0.9589992,-0.001615191
-0.9599991,-0.001623468
-0.9609991,-0.001629599
-0.9619992,-0.001637263
-0.9629992,-0.001646459
-0.9639992,-0.00165351
-0.9649991,-0.001660867
-0.9659991,-0.001670063
-0.9669992,-0.001677421
-0.9679992,-0.001684165
-0.9689991,-0.001693668
-0.9699991,-0.001700412
-0.9709992,-0.001707769
-0.9719992,-0.001717885
-0.9729992,-0.001725242
-0.9739991,-0.00173168
-0.9749991,-0.001742715
-0.9759992,-0.001749459
-0.9769992,-0.00175651
-0.9779992,-0.001767546
-0.9789991,-0.00177429
-0.9799991,-0.00178226
-0.9809992,-0.00179115
-0.9819992,-0.001798814
-0.9829991,-0.00180801
-0.9839991,-0.001817207
-0.9849992,-0.00182487
-0.9859992,-0.001835293
-0.9869992,-0.001844183
-0.9879991,-0.001852153
-0.9889991,-0.001862269
-0.9899992,-0.001871772
-0.9909992,-0.00187821
-0.9919991,-0.001888632
-0.9929991,-0.001899668
-0.9939992,-0.001907945
-0.9949992,-0.001919594
-0.9959992,-0.00192971
-0.9969991,-0.001935228
-0.9979991,-0.001949635
-0.9989992,-0.001958832
-0.9999992,-0.001967415
-1.000999,-0.001982436
-1.001999,-0.001989793
-1.002999,-0.001999909
-1.003999,-0.002014623
-1.004999,-0.002022594
-1.005999,-0.002033936
-1.006999,-0.00204865
-1.007999,-0.002057847
-1.008999,-0.002070415
-1.009999,-0.002082984
-1.010999,-0.002096472
-1.011999,-0.002107508
-1.012999,-0.002123142
-1.013999,-0.002132951
-1.014999,-0.002147972
-1.015999,-0.00216146
-1.016999,-0.002173416
-1.017999,-0.002189663
-1.018999,-0.00220407
-1.019999,-0.002218171
-1.020999,-0.002234725
-1.021999,-0.002247293
-1.022999,-0.002263541
-1.023999,-0.002280707
-1.024999,-0.002294502
-1.025999,-0.002311669
-1.026999,-0.002328836
-1.027999,-0.002343243
-1.028999,-0.00235949
-1.029999,-0.002378803
-1.030999,-0.00239413
-1.031999,-0.002410684
-1.032999,-0.002431222
-1.033999,-0.002445937
-1.034999,-0.002461264
-1.035999,-0.002484562
-1.036999,-0.002497744
-1.037999,-0.002517363
-1.038999,-0.002538821
-1.039999,-0.00255047
-1.040999,-0.002571928
-1.041999,-0.002591241
-1.042999,-0.002606875
-1.043999,-0.002627414
-1.044999,-0.00264458
-1.045999,-0.002660521
-1.046999,-0.002680753
-1.047999,-0.002696387
-1.048999,-0.002714473
-1.049999,-0.002732253
-1.050999,-0.002746354
-1.051999,-0.00276628
-1.052999,-0.002782527
-1.053999,-0.002796935
-1.054999,-0.002815634
-1.055999,-0.002831268
-1.056999,-0.002845676
-1.057999,-0.00286039
-1.058999,-0.002876944
-1.059999,-0.002887673
-1.060999,-0.002904533
-1.061999,-0.002918328
-1.062999,-0.002927831
-1.063999,-0.002942545
-1.064999,-0.002955114
-1.065999,-0.002964003
-1.066999,-0.002979024
-1.067999,-0.002987608
-1.068999,-0.002996498
-1.069999,-0.003008147
-1.070999,-0.002982598
-1.071999,-0.002985663
-1.072999,-0.002997925
-1.073999,-0.003004056
-1.074999,-0.003010187
-1.075999,-0.003019383
-1.076999,-0.003025514
-1.077999,-0.00302858
-1.078999,-0.003037777
-1.079999,-0.003040842
-1.080999,-0.003043907
-1.081999,-0.003050038
-1.082999,-0.003053104
-1.083999,-0.003056169
-1.084999,-0.003059235
-1.085999,-0.003059235
-1.086999,-0.003059235
-1.087999,-0.003065366
-1.088999,-0.0030623
-1.089999,-0.0030623
-1.090999,-0.003065366
-1.091999,-0.003059235
-1.092999,-0.0030623
-1.093999,-0.0030623
-1.094999,-0.003056169
-1.095999,-0.003056169
-1.096999,-0.003056169
-1.097999,-0.003046973
-1.098999,-0.003050038
-1.099999,-0.003046973
-1.100999,-0.003034711
-1.101999,-0.003034711
-1.102999,-0.003031645
-1.103999,-0.003022449
-1.104999,-0.003022449
-1.105999,-0.003019383
-1.106999,-0.003013253
-1.107999,-0.003013253
-1.108999,-0.003007122
-1.109999,-0.003000991
-1.110999,-0.003000991
-1.111999,-0.00299486
-1.112999,-0.002991794
-1.113999,-0.002991794
-1.114999,-0.002985663
-1.115999,-0.002985663
-1.116999,-0.002985663
-1.117999,-0.002979532
-1.118999,-0.002979532
-1.119999,-0.002982598
-1.120999,-0.002976467
-1.121999,-0.002979532
-1.122999,-0.002979532
-1.123999,-0.002973401
-1.124999,-0.002979532
-1.125999,-0.002979532
-1.126999,-0.002979532
-1.127999,-0.002979532
-1.128999,-0.002982598
-1.129999,-0.002982598
-1.130999,-0.002988729
-1.131999,-0.002988729
-1.132999,-0.002991794
-1.133999,-0.00299486
-1.134999,-0.002997925
-1.135999,-0.002997925
-1.136999,-0.003004056
-1.137999,-0.003004056
-1.138999,-0.003010187
-1.139999,-0.003016318
-1.140999,-0.003016318
-1.141999,-0.003022449
-1.142999,-0.00302858
-1.143999,-0.003031645
-1.144999,-0.003037777
-1.145999,-0.003043907
-1.146999,-0.003043907
-1.147999,-0.003056169
-1.148999,-0.0030623
-1.149999,-0.003059235
-1.150999,-0.003074562
-1.151999,-0.003074562
-1.152999,-0.003080693
-1.153999,-0.003092955
-1.154999,-0.003092955
-1.155999,-0.003105217
-1.156999,-0.003111348
-1.157999,-0.003114413
-1.158999,-0.003126675
-1.159999,-0.003132806
-1.160999,-0.003138937
-1.161999,-0.003151199
-1.162999,-0.003154265
-1.163999,-0.003163461
-1.164999,-0.003175723
-1.165999,-0.003181854
-1.166999,-0.003187985
-1.167999,-0.003200247
-1.168999,-0.003206378
-1.169999,-0.003215575
-1.170999,-0.003227836
-1.171999,-0.003230902
-1.172999,-0.003243164
-1.173999,-0.003255426
-1.174999,-0.003261557
-1.175999,-0.003273819
-1.176999,-0.003286081
-1.177999,-0.003289146
-1.178999,-0.003301408
-1.179999,-0.00331367
-1.180999,-0.003319801
-1.181999,-0.003332063
-1.182999,-0.00334739
-1.183999,-0.00334739
-1.184999,-0.003368848
-1.185999,-0.003378045
-1.186999,-0.003384176
-1.187999,-0.003399503
-1.188999,-0.0034087
-1.189999,-0.003414831
-1.190999,-0.003433224
-1.191999,-0.00344242
-1.192999,-0.003451617
-1.193999,-0.003466944
-1.194999,-0.003473075
-1.195999,-0.003485337
-1.196999,-0.003500664
-1.197999,-0.003506796
-1.198999,-0.003522123
-1.199999,-0.003534385
-1.200999,-0.003543581
-1.201999,-0.003555843
-1.202999,-0.00357117
-1.203999,-0.003580367
-1.204999,-0.003592629
-1.205999,-0.003607956
-1.206999,-0.003614087
-1.207999,-0.00363248
-1.208999,-0.003644742
-1.209999,-0.003650873
-1.210999,-0.003669266
-1.211999,-0.003681528
-1.212999,-0.003690724
-1.213999,-0.003709117
-1.214999,-0.003721379
-1.215999,-0.003730575
-1.216999,-0.003748968
-1.217999,-0.00376123
-1.218999,-0.003770427
-1.219999,-0.003794951
-1.220999,-0.003804147
-1.221999,-0.003813344
-1.222999,-0.003831736
-1.223999,-0.003843998
-1.224999,-0.003862391
-1.225999,-0.003877719
-1.226999,-0.00388998
-1.227999,-0.003905308
-1.228999,-0.003923701
-1.229999,-0.003939028
-1.230999,-0.003954356
-1.231999,-0.003972749
-1.232999,-0.003988076
-1.233999,-0.004003403
-1.234999,-0.004024862
-1.235999,-0.004043255
-1.236999,-0.004058582
-1.237999,-0.00408004
-1.238999,-0.004098434
-1.239999,-0.004113761
-1.240999,-0.004138284
-1.241999,-0.004156678
-1.242999,-0.004172005
-1.243999,-0.004199594
-1.244999,-0.004214922
-1.245999,-0.00423638
-1.246999,-0.00426397
-1.247999,-0.004282362
-1.248999,-0.004306886
-1.249999,-0.004334475
-1.250999,-0.004352869
-1.251999,-0.004380458
-1.252999,-0.004411113
-1.253999,-0.004429505
-1.254999,-0.004457095
-1.255999,-0.00448775
-1.256999,-0.004512274
-1.257999,-0.004542928
-1.258999,-0.004576649
-1.259999,-0.004601172
-1.260999,-0.004641024
-1.261999,-0.004671679
-1.262999,-0.004702333
-1.263999,-0.004742185
-1.264999,-0.004775905
-1.265999,-0.004809625
-1.266999,-0.004855608
-1.267999,-0.004889328
-1.268999,-0.004929179
-1.269999,-0.004975162
-1.270999,-0.005015012
-1.271999,-0.00505793
-1.272999,-0.005110043
-1.273999,-0.005152959
-1.274999,-0.005198942
-1.275999,-0.00525412
-1.276999,-0.005300103
-1.277999,-0.005358347
-1.278999,-0.005413526
-1.279999,-0.005468704
-1.280999,-0.005530014
-1.281999,-0.005588258
-1.282999,-0.005649568
-1.283999,-0.005720073
-1.284999,-0.005784449
-1.285999,-0.005851889
-1.286999,-0.005928526
-1.287999,-0.005999033
-1.288999,-0.00607567
-1.289999,-0.006155372
-1.290999,-0.00623814
-1.291999,-0.006317842
-1.292999,-0.006406742
-1.293999,-0.006501772
-1.294999,-0.006587605
-1.295999,-0.006685701
-1.296999,-0.006786862
-1.297999,-0.006884957
-1.298999,-0.006992249
-1.299999,-0.00709954
-1.300999,-0.007209898
-1.301999,-0.007329452
-1.302999,-0.007442875
-1.303999,-0.007565494
-1.304999,-0.007694244
-1.305999,-0.007819929
-1.306999,-0.007954811
-1.307999,-0.008095822
-1.308999,-0.008230704
-1.309999,-0.008377847
-1.310999,-0.008531122
-1.311999,-0.008678264
-1.312999,-0.008840735
-1.313999,-0.009003206
-1.314999,-0.009165676
-1.315999,-0.009340408
-1.316999,-0.009518206
-1.317999,-0.009692939
-1.318999,-0.009879934
-1.319999,-0.01006386
-1.320999,-0.01025699
-1.321999,-0.01045931
-1.322999,-0.0106647
-1.323999,-0.01087008
-1.324999,-0.01108467
-1.325999,-0.01130538
-1.326999,-0.01151997
-1.327999,-0.01174988
-1.328999,-0.01198286
-1.329999,-0.01221277
-1.330999,-0.012458
-1.331999,-0.01270937
-1.332999,-0.01294848
-1.333999,-0.01320598
-1.334999,-0.01346042
-1.335999,-0.01371792
-1.336999,-0.01398768
-1.337999,-0.01425438
-1.338999,-0.01453027
-1.339999,-0.01480616
-1.340999,-0.01508512
-1.341999,-0.01537328
-1.342999,-0.0156645
-1.343999,-0.01594652
-1.344999,-0.01624081
-1.345999,-0.0165351
-1.346999,-0.01683245
-1.347999,-0.017139
-1.348999,-0.01744248
-1.349999,-0.01774903
-1.350999,-0.01806477
-1.351999,-0.01837439
-1.352999,-0.01869013
-1.353999,-0.01900894
-1.354999,-0.01932469
-1.355999,-0.01964656
-1.356999,-0.01997457
-1.357999,-0.02029644
-1.358999,-0.02061832
-1.359999,-0.02095246
-1.360999,-0.02128046
-1.361999,-0.02160847
-1.362999,-0.02194567
-1.363999,-0.02227674
-1.364999,-0.02261395
-1.365999,-0.02294809
-1.366999,-0.02328222
-1.367999,-0.02362249
-1.368999,-0.02396889
-1.369999,-0.02430609
-1.370999,-0.02465556
-1.371999,-0.02500809
-1.372999,-0.02535142
-1.373999,-0.02570395
-1.374999,-0.02605955
-1.375999,-0.02639675
-1.376999,-0.02676767
-1.377999,-0.02712021
-1.378999,-0.0274758
-1.379999,-0.02784366
-1.380999,-0.02819619
-1.381999,-0.02855179
-1.382999,-0.02891658
-1.383999,-0.02926604
-1.384999,-0.0296247
-1.385999,-0.0299895
-1.386999,-0.03033896
-1.387999,-0.03083759
-1.388999,-0.03120545
-1.389999,-0.03154265
-1.390999,-0.03191051
-1.391999,-0.03230902
-1.392999,-0.03267688
-1.393999,-0.03307539
-1.394999,-0.03344325
-1.395999,-0.0338111
-1.396999,-0.03420962
-1.397999,-0.03457748
-1.398999,-0.03494534
-1.399999,-0.03531319
-1.400999,-0.03571171
-1.401999,-0.03607956
-1.402999,-0.03647808
-1.403999,-0.03684593
-1.404999,-0.03724445
-1.405999,-0.03764296
-1.406999,-0.03801082
-1.407999,-0.03837867
-1.408999,-0.03877719
-1.409999,-0.0391757
-1.410999,-0.03957421
-1.411999,-0.03997273
-1.412999,-0.04034058
-1.413999,-0.0407391
-1.414999,-0.04113761
-1.415999,-0.04150547
-1.416999,-0.04190398
-1.417999,-0.04230249
-1.418999,-0.04270101
-1.419999,-0.04306886
-1.420999,-0.04346738
-1.421999,-0.04386589
-1.422999,-0.04423375
-1.423999,-0.04463226
-1.424999,-0.04503077
-1.425999,-0.04539863
-1.426999,-0.04579714
-1.427999,-0.04619566
-1.428999,-0.04656351
-1.429999,-0.04696203
-1.430999,-0.04736054
-1.431999,-0.04775905
-1.432999,-0.04815757
-1.433999,-0.04855608
-1.434999,-0.04895459
-1.435999,-0.04938376
-1.436999,-0.04975162
-1.437999,-0.05018078
-1.438999,-0.0505793
-1.439999,-0.05097781
-1.440999,-0.05137632
-1.441999,-0.05180549
-1.442999,-0.052204
-1.443999,-0.05260251
-1.444999,-0.05300103
-1.445999,-0.05339954
-1.446999,-0.05379805
-1.447999,-0.05422722
-1.448999,-0.05462573
-1.449999,-0.05502424
-1.450999,-0.05545342
-1.451999,-0.05582127
-1.452999,-0.05625044
-1.453999,-0.05667961
-1.454999,-0.05704746
-1.455999,-0.05744598
-1.456999,-0.05787515
-1.457999,-0.058243
-1.458999,-0.05867217
-1.459999,-0.05910134
-1.460999,-0.05946919
-1.461999,-0.05989837
-1.462999,-0.06029687
-1.463999,-0.06069539
-1.464999,-0.0610939
-1.465999,-0.06152307
-1.466999,-0.06192158
-1.467999,-0.06232009
-1.468999,-0.06274926
-1.469999,-0.06314778
-1.470999,-0.06357694
-1.471999,-0.06400611
-1.472999,-0.06440463
-1.473999,-0.06483379
-1.474999,-0.0652323
-1.475999,-0.06563082
-1.476999,-0.06605998
-1.477999,-0.06648915
-1.478999,-0.06688767
-1.479999,-0.06731683
-1.480999,-0.067746
-1.481999,-0.06814452
-1.482999,-0.06857368
-1.483999,-0.06900284
-1.484999,-0.06940136
-1.485999,-0.06986118
-1.486999,-0.0702597
-1.487999,-0.07065821
-1.488999,-0.07111803
-1.489999,-0.07151654
-1.490999,-0.07191505
-1.491999,-0.07234422
-1.492999,-0.07274274
-1.493999,-0.07317191
-1.494999,-0.07360107
-1.495999,-0.07403024
-1.496999,-0.07442875
-1.497999,-0.07485792
-1.498999,-0.07528709
-1.499999,-0.0754097
-1.499001,-0.07498054
-1.498001,-0.07455137
-1.497001,-0.07415286
-1.496001,-0.0737237
-1.495001,-0.07326387
-1.494001,-0.07286536
-1.493001,-0.07240553
-1.492001,-0.07194571
-1.491001,-0.07151654
-1.490001,-0.07105672
-1.489001,-0.07062756
-1.488001,-0.07019839
-1.487001,-0.06973856
-1.486001,-0.06927874
-1.485001,-0.06884957
-1.484001,-0.0684204
-1.483001,-0.06796058
-1.482001,-0.06753141
-1.481001,-0.06707159
-1.480001,-0.06667308
-1.479001,-0.06621326
-1.478001,-0.06575344
-1.477001,-0.06532427
-1.476001,-0.06486445
-1.475001,-0.06443528
-1.474001,-0.06400611
-1.473001,-0.06354629
-1.472001,-0.06311712
-1.471001,-0.06268796
-1.470001,-0.06225879
-1.469001,-0.06179896
-1.468001,-0.0613698
-1.467001,-0.06090998
-1.466001,-0.0604808
-1.465001,-0.06005164
-1.464001,-0.05962247
-1.463001,-0.0591933
-1.462001,-0.05876414
-1.461001,-0.05833497
-1.460001,-0.0579058
-1.459001,-0.05744598
-1.458001,-0.05701681
-1.457001,-0.0566183
-1.456001,-0.05618913
-1.455001,-0.05572931
-1.454001,-0.05530014
-1.453001,-0.05487097
-1.452001,-0.05444181
-1.451001,-0.05401264
-1.450001,-0.05358347
-1.449001,-0.0531543
-1.448001,-0.05275579
-1.447001,-0.05229596
-1.446001,-0.0518668
-1.445001,-0.05143763
-1.444001,-0.05100846
-1.443001,-0.0505793
-1.442001,-0.05018078
-1.441001,-0.04975162
-1.440001,-0.0493531
-1.439001,-0.04892394
-1.438001,-0.04849477
-1.437001,-0.0480656
-1.436001,-0.04766709
-1.435001,-0.04723792
-1.434001,-0.04683941
-1.433001,-0.04641024
-1.432001,-0.04601173
-1.431001,-0.04558256
-1.430001,-0.04518405
-1.429001,-0.04475488
-1.428001,-0.04432571
-1.427001,-0.0439272
-1.426001,-0.04352869
-1.425001,-0.04313017
-1.424001,-0.04273166
-1.423001,-0.04230249
-1.422001,-0.04190398
-1.421001,-0.04150547
-1.420001,-0.0410763
-1.419001,-0.04067779
-1.418001,-0.04024862
-1.417001,-0.03985011
-1.416001,-0.0394516
-1.415001,-0.03905308
-1.414001,-0.03868522
-1.413001,-0.03828671
-1.412001,-0.0378882
-1.411001,-0.03748969
-1.410001,-0.03709117
-1.409001,-0.03669266
-1.408001,-0.0363248
-1.407001,-0.03592629
-1.406001,-0.03552778
-1.405001,-0.03515992
-1.404001,-0.03476141
-1.403001,-0.03439355
-1.402001,-0.03399504
-1.401001,-0.03359652
-1.400001,-0.03322866
-1.399001,-0.03286081
-1.398001,-0.0324623
-1.397001,-0.03209443
-1.396001,-0.03172658
-1.395001,-0.03132806
-1.394001,-0.03096021
-1.393001,-0.03059235
-1.392001,-0.03022449
-1.391001,-0.02985664
-1.390001,-0.02948878
-1.389001,-0.02912092
-1.388001,-0.02875306
-1.387001,-0.02841586
-1.386001,-0.028048
-1.385001,-0.02768014
-1.384001,-0.02734294
-1.383001,-0.02697508
-1.382001,-0.02663788
-1.381001,-0.02627002
-1.380001,-0.02590216
-1.379001,-0.02556496
-1.378001,-0.02522776
-1.377001,-0.02489055
-1.376001,-0.02455335
-1.375001,-0.02421615
-1.374001,-0.02384829
-1.373001,-0.02354174
-1.372001,-0.02320454
-1.371001,-0.02286733
-1.370001,-0.02256078
-1.369001,-0.02222358
-1.368001,-0.02191703
-1.367001,-0.02157983
-1.366001,-0.02127328
-1.365001,-0.02096673
-1.364001,-0.02062953
-1.363001,-0.02032298
-1.362001,-0.02001643
-1.361001,-0.01970989
-1.360001,-0.01937268
-1.359001,-0.01909679
-1.358001,-0.01879024
-1.357001,-0.01851435
-1.356001,-0.0182078
-1.355001,-0.01790125
-1.354001,-0.01762536
-1.353001,-0.01734946
-1.352001,-0.01707357
-1.351001,-0.01676702
-1.350001,-0.01649113
-1.349001,-0.01621523
-1.348001,-0.01605995
-1.347001,-0.01579938
-1.346001,-0.01553268
-1.345001,-0.01527825
-1.344001,-0.01502075
-1.343001,-0.01476018
-1.342001,-0.01451494
-1.341001,-0.01426664
-1.340001,-0.01401834
-1.339001,-0.01378229
-1.338001,-0.01354319
-1.337001,-0.01330101
-1.336001,-0.01307723
-1.335001,-0.01285345
-1.334001,-0.01262048
-1.333001,-0.01240283
-1.332001,-0.01218824
-1.331001,-0.01196446
-1.330001,-0.01176214
-1.329001,-0.01155062
-1.328001,-0.01135137
-1.327001,-0.01114904
-1.326001,-0.01094979
-1.325001,-0.01075973
-1.324001,-0.01057273
-1.323001,-0.01038267
-1.322001,-0.01020487
-1.321001,-0.01002401
-1.320001,-0.009846213
-1.319001,-0.009680677
-1.318001,-0.009512075
-1.317001,-0.009343474
-1.316001,-0.009187134
-1.315001,-0.009030795
-1.314001,-0.00887139
-1.313001,-0.008724246
-1.312001,-0.008577104
-1.311001,-0.00842996
-1.310001,-0.008288948
-1.309001,-0.008147935
-1.308001,-0.008009989
-1.307001,-0.007881239
-1.306001,-0.007752489
-1.305001,-0.007626804
-1.304001,-0.007504185
-1.303001,-0.007384631
-1.302001,-0.007268142
-1.301001,-0.007154719
-1.300001,-0.007041297
-1.299001,-0.006930939
-1.298001,-0.006832844
-1.297001,-0.006725552
-1.296001,-0.006624391
-1.295001,-0.006532426
-1.294001,-0.006431265
-1.293001,-0.006339301
-1.292001,-0.006247337
-1.291001,-0.006158438
-1.290001,-0.00607567
-1.289001,-0.005995967
-1.288001,-0.005910133
-1.287001,-0.005833496
-1.286001,-0.005759925
-1.285001,-0.005683288
-1.284001,-0.005609716
-1.283001,-0.005542276
-1.282001,-0.005468704
-1.281001,-0.005401264
-1.280001,-0.005339954
-1.279001,-0.005272513
-1.278001,-0.005208138
-1.277001,-0.005149893
-1.276001,-0.005088584
-1.275001,-0.005033405
-1.274001,-0.004978227
-1.273001,-0.004919983
-1.272001,-0.004870935
-1.271001,-0.004815756
-1.270001,-0.004763643
-1.269001,-0.004717661
-1.268001,-0.004668613
-1.267001,-0.004625696
-1.266001,-0.004579714
-1.265001,-0.004530666
-1.264001,-0.004490815
-1.263001,-0.004450964
-1.262001,-0.004404982
-1.261001,-0.004368196
-1.260001,-0.00433141
-1.259001,-0.004285428
-1.258001,-0.004251707
-1.257001,-0.004214922
-1.256001,-0.004178136
-1.255001,-0.004144416
-1.254001,-0.004110695
-1.253001,-0.004073909
-1.252001,-0.004043255
-1.251001,-0.0040126
-1.250001,-0.003975814
-1.249001,-0.00395129
-1.248001,-0.003914505
-1.247001,-0.00388998
-1.246001,-0.003862391
-1.245001,-0.003831736
-1.244001,-0.003804147
-1.243001,-0.003779623
-1.242001,-0.003748968
-1.241001,-0.003724444
-1.240001,-0.003699921
-1.239001,-0.003672331
-1.238001,-0.003647808
-1.237001,-0.003626349
-1.236001,-0.003601825
-1.235001,-0.003574236
-1.234001,-0.003555843
-1.233001,-0.003531319
-1.232001,-0.003506796
-1.231001,-0.003488402
-1.230001,-0.003463879
-1.229001,-0.00344242
-1.228001,-0.003424027
-1.227001,-0.003402569
-1.226001,-0.003378045
-1.225001,-0.003359652
-1.224001,-0.003341259
-1.223001,-0.003319801
-1.222001,-0.003301408
-1.221001,-0.003286081
-1.220001,-0.003258491
-1.219001,-0.003246229
-1.218001,-0.003227836
-1.217001,-0.003206378
-1.216001,-0.003187985
-1.215001,-0.003172658
-1.214001,-0.003154265
-1.213001,-0.003135872
-1.212001,-0.003120545
-1.211001,-0.003105217
-1.210001,-0.003086824
-1.209001,-0.003071497
-1.208001,-0.003053104
-1.207001,-0.003040842
-1.206001,-0.003025514
-1.205001,-0.003010187
-1.204001,-0.00299486
-1.203001,-0.002976467
-1.202001,-0.002964205
-1.201001,-0.002951943
-1.200001,-0.00293355
-1.199001,-0.002921288
-1.198001,-0.002909026
-1.197001,-0.002890633
-1.196001,-0.002875306
-1.195001,-0.00286611
-1.194001,-0.002850782
-1.193001,-0.00283852
-1.192001,-0.002826258
-1.191001,-0.002810931
-1.190001,-0.002798669
-1.189001,-0.002786407
-1.188001,-0.00277108
-1.187001,-0.002758818
-1.186001,-0.002746556
-1.185001,-0.002731228
-1.184001,-0.002722032
-1.183001,-0.00270977
-1.182001,-0.002697508
-1.181001,-0.002685246
-1.180001,-0.002676049
-1.179001,-0.002657657
-1.178001,-0.002651526
-1.177001,-0.002639264
-1.176001,-0.002627002
-1.175001,-0.002617805
-1.174001,-0.002602478
-1.173001,-0.002590216
-1.172001,-0.00258102
-1.171001,-0.002568757
-1.170001,-0.002556496
-1.169001,-0.002550365
-1.168001,-0.002538103
-1.167001,-0.002522775
-1.166001,-0.002516645
-1.165001,-0.002501317
-1.164001,-0.002489055
-1.163001,-0.002482924
-1.162001,-0.002467597
-1.161001,-0.0024584
-1.160001,-0.002449204
-1.159001,-0.002436942
-1.158001,-0.002427745
-1.157001,-0.002421614
-1.156001,-0.002403222
-1.155001,-0.002400156
-1.154001,-0.002387894
-1.153001,-0.002372567
-1.152001,-0.002369501
-1.151001,-0.002357239
-1.150001,-0.002344977
-1.149001,-0.002341912
-1.148001,-0.00232965
-1.147001,-0.002320454
-1.146001,-0.002314323
-1.145001,-0.002298995
-1.144001,-0.00229593
-1.143001,-0.002286733
-1.142001,-0.002274471
-1.141001,-0.00226834
-1.140001,-0.002259144
-1.139001,-0.002246882
-1.138001,-0.002240751
-1.137001,-0.00223462
-1.136001,-0.002219293
-1.135001,-0.002216227
-1.134001,-0.002207031
-1.133001,-0.002194769
-1.132001,-0.002188638
-1.131001,-0.002179441
-1.130001,-0.002167179
-1.129001,-0.002164114
-1.128001,-0.002154917
-1.127001,-0.002142655
-1.126001,-0.00213959
-1.125001,-0.002127328
-1.124001,-0.002118132
-1.123001,-0.002112001
-1.122001,-0.002102804
-1.121001,-0.002096673
-1.120001,-0.002087477
-1.119001,-0.002075215
-1.118001,-0.002072149
-1.117001,-0.002062953
-1.116001,-0.002053756
-1.115001,-0.002047626
-1.114001,-0.002038429
-1.113001,-0.002029233
-1.112001,-0.002023102
-1.111001,-0.002016971
-1.110001,-0.002004709
-1.109001,-0.002001643
-1.108001,-0.001989381
-1.107001,-0.00198325
-1.106001,-0.001980185
-1.105001,-0.001967923
-1.104001,-0.001961792
-1.103001,-0.001955661
-1.102001,-0.001943399
-1.101001,-0.001937268
-1.100001,-0.001931137
-1.099001,-0.001918875
-1.098001,-0.00191581
-1.097001,-0.001906613
-1.096001,-0.001894351
-1.095001,-0.001891286
-1.094001,-0.00188209
-1.093001,-0.001872893
-1.092001,-0.001866762
-1.091001,-0.001857566
-1.090001,-0.001848369
-1.089001,-0.001842238
-1.088001,-0.001836107
-1.087001,-0.001826911
-1.086001,-0.001817714
-1.085001,-0.001814649
-1.084001,-0.001802387
-1.083001,-0.001796256
-1.082001,-0.001790125
-1.081001,-0.001777863
-1.080001,-0.001771732
-1.079001,-0.001765601
-1.078001,-0.001756405
-1.077001,-0.001753339
-1.076001,-0.001741077
-1.075001,-0.001734946
-1.074001,-0.001728815
-1.073001,-0.001716554
-1.072001,-0.001710422
-1.071001,-0.001704292
-1.070001,-0.001695095
-1.069001,-0.001685899
-1.068001,-0.001676702
-1.067001,-0.001670571
-1.066001,-0.00166444
-1.065001,-0.001652178
-1.064001,-0.001646047
-1.063001,-0.001636851
-1.062001,-0.00163072
-1.061001,-0.001624589
-1.060001,-0.001612327
-1.059001,-0.001606196
-1.058001,-0.001634197
-1.057001,-0.001624388
-1.056001,-0.001617337
-1.055001,-0.001609673
-1.054001,-0.001601396
-1.053001,-0.001594959
-1.052001,-0.001583004
-1.051001,-0.00157534
-1.050001,-0.001567676
-1.049001,-0.001557254
-1.048001,-0.001551736
-1.047001,-0.001542233
-1.046001,-0.001531197
-1.045001,-0.001525373
-1.044001,-0.00151587
-1.043001,-0.001506673
-1.042001,-0.001498703
-1.041001,-0.00148828
-1.040001,-0.001479084
-1.039001,-0.001473566
-1.038001,-0.00146253
-1.037001,-0.001450268
-1.036001,-0.00144659
-1.035001,-0.001434328
-1.034001,-0.001425438
-1.033001,-0.001419307
-1.032001,-0.001407658
-1.031001,-0.001398155
-1.030001,-0.001391411
-1.029001,-0.001381908
-1.028001,-0.001370259
-1.027001,-0.001365354
-1.026001,-0.001355238
-1.025001,-0.001341444
-1.024001,-0.001335313
-1.023001,-0.001325503
-1.022001,-0.001314467
-1.021001,-0.001307723
-1.020001,-0.001295155
-1.019001,-0.001286878
-1.018001,-0.001279521
-1.017001,-0.001265726
-1.016001,-0.001260515
-1.015001,-0.001250399
-1.014001,-0.001236911
-1.013001,-0.001231393
-1.012001,-0.001220357
-1.011001,-0.001210854
-1.010001,-0.001204417
-1.009001,-0.001191848
-1.008001,-0.001179893
-1.007001,-0.001175908
-1.006001,-0.001162419
-1.005001,-0.00115353
-1.004001,-0.001145866
-1.003001,-0.00113391
-1.002001,-0.001123794
-1.001001,-0.001116744
-1.000001,-0.001105095
-0.9990011,-0.001095285
-0.9980011,-0.001085782
-0.9970011,-0.001076279
-0.9960011,-0.001063711
-0.9950011,-0.00105758
-0.9940011,-0.001047157
-0.9930011,-0.001034895
-0.9920011,-0.001028151
-0.9910011,-0.001017729
-0.9900011,-0.001007919
-0.9890011,-0.0009981095
-0.9880011,-0.0009879934
-0.9870011,-0.000978797
-0.9860011,-0.0009680677
-0.9850011,-0.0009564189
-0.9840011,-0.0009493683
-0.9830011,-0.0009361868
-0.9820011,-0.0009257642
-0.9810011,-0.0009187135
-0.9800011,-0.0009058384
-0.9790011,-0.0008954158
-0.9780011,-0.0008877521
-0.9770011,-0.0008761032
-0.9760011,-0.0008632282
-0.9750011,-0.0008561776
-0.9740011,-0.0008448354
-0.9730011,-0.0008322669
-0.9720011,-0.0008209246
-0.9710011,-0.0008132609
-0.9700011,-0.0008013055
-0.9690011,-0.0007890436
-0.9680011,-0.0007789275
-0.9670011,-0.0007688114
-0.9660011,-0.0007562429
-0.9650011,-0.0007464333
-0.9640011,-0.0007341714
-0.9630011,-0.0007240553
-0.9620011,-0.0007124065
-0.9610011,-0.0007007577
-0.9600011,-0.0006906416
-0.9590011,-0.00067746
-0.9580011,-0.0006685701
-0.9570011,-0.0006566148
-0.9560011,-0.0006434331
-0.9550011,-0.0006339302
-0.9540011,-0.0006201355
-0.9530011,-0.0006078735
-0.9520011,-0.0005989837
-0.9510011,-0.0005845759
-0.9500011,-0.0005738467
-0.9490011,-0.0005652634
-0.9480011,-0.0005493228
-0.9470011,-0.000538287
-0.9460011,-0.0005297037
-0.9450011,-0.0005128436
-0.9440011,-0.0005042602
-0.9430011,-0.0004926114
-0.9420011,-0.0004766709
-0.9410011,-0.0004674745
-0.9400011,-0.0004539863
-0.9390011,-0.0004423375
-0.9380011,-0.0004325279
-0.9370011,-0.0004178136
-0.9360011,-0.0004067779
-0.9350011,-0.0003969684
-0.9340011,-0.0003825606
-0.9330011,-0.0003730576
-0.9320011,-0.0003601825
-0.9310011,-0.0003482272
-0.9300011,-0.0003378045
-0.9290011,-0.0003255426
-0.9280011,-0.0003129741
-0.9270011,-0.0003025515
-0.9260011,-0.0002927419
-0.9250011,-0.0002798669
-0.9240011,-0.0002691377
-0.9230011,-0.0002611674
-0.9220011,-0.0002464531
-0.9210011,-0.000236337
-0.9200011,-0.0002283668
-0.9190011,-0.0002148787
-0.9180011,-0.0002087477
-0.9170011,-0.0002004709
-0.9160011,-0.0001872893
-0.9150011,-0.0001805453
-0.9140011,-0.0001716554
-0.9130011,-0.0001609262
-0.9120011,-0.0001554083
-0.9110011,-0.000146825
-0.9100011,-0.0001370154
-0.9090011,-0.000131191
-0.9080011,-0.000124672
-0.9070011,-0.00011943
-0.9060011,-0.0001144026
-0.9050011,-0.0001049303
-0.9040011,-0.0001003014
-0.9030011,-9.410914E-05
-0.9020011,-8.601627E-05
-0.9010011,-8.270555E-05
-0.9000011,-7.675852E-05
-0.8990011,-7.047428E-05
-0.8980011,-6.670374E-05
-0.8970011,-6.155372E-05
-0.8960011,-5.603585E-05
-0.8950011,-5.229596E-05
-0.8940011,-4.852542E-05
-0.8930011,-4.193463E-05
-0.8920011,-3.994207E-05
-0.8910011,-3.500664E-05
-0.8900011,-2.893699E-05
-0.8890011,-2.639264E-05
-0.8880011,-2.271406E-05
-0.8870011,-1.731881E-05
-0.8860011,-1.557148E-05
-0.8850011,-1.063606E-05
-0.8840011,-4.780985E-06
-0.8830011,-2.727112E-06
-0.8820011,2.790757E-06
-0.8810011,7.143742E-06
-0.8800011,9.841367E-06
-0.8790011,1.584971E-05
-0.8780011,2.08771E-05
-0.8770011,2.415717E-05
-0.8760011,3.179022E-05
-0.8750011,3.445719E-05
-0.8740011,3.767595E-05
-0.8730011,4.533965E-05
-0.8720011,4.923281E-05
-0.8710011,5.447479E-05
-0.8700011,6.238374E-05
-0.8690011,6.646083E-05
-0.8680011,7.332751E-05
-0.8670011,8.05927E-05
-0.8660011,8.497635E-05
-0.8650011,9.368231E-05
-0.8640011,0.0001009168
-0.8630011,0.0001079981
-0.8620011,0.0001165508
-0.8610011,0.0001240612
-0.8600011,0.0001321541
-0.8590011,0.0001419637
-0.8580011,0.0001512827
-0.8570011,0.0001602033
-0.8560011,0.0001712084
-0.8550011,0.0001811405
-0.8540011,0.0001914405
-0.8530011,0.0002037638
-0.8520011,0.0002152287
-0.8510011,0.0002274906
-0.8500011,0.0002415305
-0.8490011,0.0002536699
-0.8480011,0.0002676485
-0.8470011,0.0002836196
-0.8460011,0.000300429
-0.8450011,0.0003160629
-0.8440011,0.0003335362
-0.8430011,0.0003488636
-0.8420011,0.0003672565
-0.8410011,0.0003862625
-0.8400011,0.0004034292
-0.8390011,0.0004248876
-0.8380011,0.0004454263
-0.8370011,0.0004638192
-0.8360011,0.0004883431
-0.8350011,0.0005091884
-0.8340011,0.0005297271
-0.8330011,0.0005557837
-0.8320011,0.0005781617
-0.8310011,0.0006017659
-0.8300011,0.0006293553
-0.8290011,0.0006526529
-0.8280011,0.0006799357
-0.8270011,0.0007078316
-0.8260011,0.0007335817
-0.8250011,0.0007623972
-0.8240011,0.0007915193
-0.8230011,0.0008191086
-0.8220011,0.0008488438
-0.8210011,0.0008794987
-0.8200011,0.0009092339
-0.8190011,0.0009429542
-0.8180011,0.0009748352
-0.8170011,0.00100641
-0.8160011,0.001037678
-0.8150011,0.001072317
-0.8140011,0.001103892
-0.8130011,0.001137612
-0.8120011,0.001172559
-0.8110011,0.001205053
-0.8100011,0.001239693
-0.8090011,0.001275559
-0.8080011,0.001308973
-0.8070011,0.001344532
-0.8060011,0.001380398
-0.8050011,0.001414732
-0.8040011,0.001450905
-0.8030011,0.001486771
-0.8020011,0.001521104
-0.8010011,0.001558196
