EXPID. 1139
[电化学]: CV : -0.8 >> -0.8 >> -1.5 >> -0.8(V) @ 0.01(V/s) X 10(Seg)
起始电位 (V),-0.8
上限电位 (V),-0.8
下限电位 (V),-1.5
终止电位 (V),-0.8
扫速 (V/s),0.01
电解液 信息:
KOH,1
-0.8,-0.08800884
-0.801,-0.07075017
-0.802,-0.06192158
-0.803,-0.05655699
-0.804,-0.05269448
-0.805,-0.049629
-0.806,-0.04714596
-0.807,-0.04496947
-0.808,-0.04288493
-0.809,-0.04083106
-0.81,-0.03896112
-0.811,-0.0372751
-0.812,-0.03571171
-0.813,-0.03420962
-0.814,-0.03276884
-0.815,-0.03135872
-0.816,-0.03004056
-0.817,-0.02875306
-0.818,-0.02752687
-0.819,-0.02639264
-0.82,-0.02525841
-0.821,-0.02418549
-0.822,-0.02317388
-0.823,-0.02222358
-0.824,-0.02133459
-0.825,-0.02047626
-0.826,-0.01964858
-0.827,-0.01888221
-0.828,-0.01814649
-0.829,-0.01744143
-0.83,-0.01679768
-0.831,-0.01618458
-0.832,-0.01560214
-0.833,-0.01517096
-0.834,-0.01465902
-0.835,-0.01415322
-0.836,-0.01369953
-0.837,-0.01324583
-0.838,-0.0128136
-0.839,-0.01240896
-0.84,-0.01201964
-0.841,-0.01163646
-0.842,-0.01127166
-0.843,-0.01091913
-0.844,-0.0105666
-0.845,-0.01022633
-0.846,-0.009901391
-0.847,-0.009573385
-0.848,-0.009257641
-0.849,-0.008960289
-0.85,-0.008659871
-0.851,-0.008377847
-0.852,-0.008114216
-0.853,-0.007856715
-0.854,-0.007617608
-0.855,-0.007393827
-0.856,-0.007176178
-0.857,-0.006979987
-0.858,-0.006786862
-0.859,-0.006599867
-0.86,-0.006434331
-0.861,-0.006271861
-0.862,-0.006112455
-0.863,-0.005971443
-0.864,-0.005833496
-0.865,-0.005698615
-0.866,-0.005579061
-0.867,-0.005459507
-0.868,-0.005343019
-0.869,-0.005241858
-0.87,-0.005146828
-0.871,-0.005045668
-0.872,-0.004959834
-0.873,-0.004877066
-0.874,-0.004797364
-0.875,-0.004720726
-0.876,-0.004653286
-0.877,-0.004582779
-0.878,-0.00452147
-0.879,-0.004466291
-0.88,-0.004404982
-0.881,-0.004355934
-0.882,-0.004306886
-0.883,-0.004260904
-0.884,-0.004217987
-0.885,-0.004181202
-0.886,-0.00414135
-0.887,-0.004110695
-0.888,-0.00408004
-0.889,-0.004052451
-0.89,-0.004030993
-0.891,-0.004006469
-0.892,-0.003988076
-0.893,-0.003972749
-0.894,-0.003954356
-0.895,-0.003945159
-0.896,-0.003935963
-0.897,-0.003923701
-0.898,-0.003914505
-0.899,-0.003914505
-0.9,-0.003911439
-0.901,-0.003911439
-0.902,-0.003911439
-0.903,-0.00391757
-0.904,-0.003920636
-0.905,-0.003932897
-0.906,-0.003932897
-0.907,-0.003945159
-0.908,-0.003957421
-0.909,-0.003963552
-0.91,-0.00397888
-0.911,-0.003994207
-0.912,-0.004003403
-0.913,-0.004024862
-0.914,-0.004043255
-0.915,-0.004055517
-0.916,-0.004076975
-0.917,-0.004098434
-0.918,-0.004113761
-0.919,-0.004138284
-0.92,-0.004162808
-0.921,-0.004187332
-0.922,-0.004211857
-0.923,-0.004233315
-0.924,-0.004260904
-0.925,-0.004285428
-0.926,-0.004306886
-0.927,-0.004337541
-0.928,-0.004362065
-0.929,-0.004386589
-0.93,-0.004417243
-0.931,-0.004444833
-0.932,-0.004469357
-0.933,-0.004500012
-0.934,-0.004527601
-0.935,-0.004552125
-0.936,-0.004585845
-0.937,-0.0046165
-0.938,-0.004641024
-0.939,-0.004671679
-0.94,-0.004702333
-0.941,-0.004726857
-0.942,-0.004763643
-0.943,-0.004794298
-0.944,-0.004815756
-0.945,-0.004855608
-0.946,-0.004883197
-0.947,-0.004904655
-0.948,-0.004944507
-0.949,-0.004969031
-0.95,-0.004993554
-0.951,-0.00503034
-0.952,-0.00505793
-0.953,-0.005082454
-0.954,-0.005116174
-0.955,-0.005137632
-0.956,-0.005165222
-0.957,-0.005195876
-0.958,-0.005223466
-0.959,-0.005244924
-0.96,-0.005275579
-0.961,-0.005303168
-0.962,-0.005324626
-0.963,-0.005352216
-0.964,-0.005376739
-0.965,-0.005398198
-0.966,-0.005428853
-0.967,-0.005447246
-0.968,-0.005468704
-0.969,-0.005496293
-0.97,-0.005520817
-0.971,-0.005536145
-0.972,-0.005563734
-0.973,-0.005585192
-0.974,-0.005600519
-0.975,-0.005625044
-0.976,-0.005646502
-0.977,-0.005661829
-0.978,-0.005686353
-0.979,-0.005701681
-0.98,-0.005717008
-0.981,-0.005738466
-0.982,-0.005753794
-0.983,-0.005766056
-0.984,-0.005787514
-0.985,-0.005799776
-0.986,-0.005812038
-0.987,-0.005827365
-0.988,-0.005845758
-0.989,-0.005851889
-0.99,-0.005867217
-0.991,-0.00588561
-0.992,-0.005888675
-0.993,-0.005900937
-0.994,-0.005916264
-0.995,-0.005928526
-0.996,-0.005940788
-0.997,-0.005946919
-0.998,-0.005959181
-0.999,-0.005968377
-1,-0.005977574
-1.001,-0.005986771
-1.002,-0.005995967
-1.003,-0.006005164
-1.004,-0.006011295
-1.005,-0.006020491
-1.006,-0.006029687
-1.007,-0.006032753
-1.008,-0.006041949
-1.009,-0.006051145
-1.01,-0.006051145
-1.011,-0.006066473
-1.012,-0.006072604
-1.013,-0.006069539
-1.014,-0.0060818
-1.015,-0.006084866
-1.016,-0.006087931
-1.017,-0.006100194
-1.018,-0.006097128
-1.019,-0.006100194
-1.02,-0.00610939
-1.021,-0.006112455
-1.022,-0.006112455
-1.023,-0.006118587
-1.024,-0.006121652
-1.025,-0.006121652
-1.026,-0.006127783
-1.027,-0.006127783
-1.028,-0.006130849
-1.029,-0.006136979
-1.03,-0.006136979
-1.031,-0.006136979
-1.032,-0.006140045
-1.033,-0.00614311
-1.034,-0.006146176
-1.035,-0.006146176
-1.036,-0.00614311
-1.037,-0.006146176
-1.038,-0.006152307
-1.039,-0.006146176
-1.04,-0.006146176
-1.041,-0.006152307
-1.042,-0.006146176
-1.043,-0.006149241
-1.044,-0.006155372
-1.045,-0.006149241
-1.046,-0.006152307
-1.047,-0.006158438
-1.048,-0.006146176
-1.049,-0.006155372
-1.05,-0.006158438
-1.051,-0.006149241
-1.052,-0.006158438
-1.053,-0.006158438
-1.054,-0.006146176
-1.055,-0.006161503
-1.056,-0.006158438
-1.057,-0.006149241
-1.058,-0.006158438
-1.059,-0.006155372
-1.06,-0.006149241
-1.061,-0.006158438
-1.062,-0.006152307
-1.063,-0.006146176
-1.064,-0.006149241
-1.065,-0.006152307
-1.066,-0.00614311
-1.067,-0.006140045
-1.068,-0.006146176
-1.069,-0.006130849
-1.07,-0.006133914
-1.071,-0.006130849
-1.072,-0.006115521
-1.073,-0.006118587
-1.074,-0.006115521
-1.075,-0.006103259
-1.076,-0.00610939
-1.077,-0.006097128
-1.078,-0.006084866
-1.079,-0.006087931
-1.08,-0.00607567
-1.081,-0.006072604
-1.082,-0.006069539
-1.083,-0.006054211
-1.084,-0.00604808
-1.085,-0.00604808
-1.086,-0.006029687
-1.087,-0.006029687
-1.088,-0.006023556
-1.089,-0.006005164
-1.09,-0.006002098
-1.091,-0.005999033
-1.092,-0.00598064
-1.093,-0.00598064
-1.094,-0.005974509
-1.095,-0.005956116
-1.096,-0.005956116
-1.097,-0.005943854
-1.098,-0.005922395
-1.099,-0.005925461
-1.1,-0.005916264
-1.101,-0.005894806
-1.102,-0.005894806
-1.103,-0.00588561
-1.104,-0.005867217
-1.105,-0.005861086
-1.106,-0.005851889
-1.107,-0.005836562
-1.108,-0.005827365
-1.109,-0.005821235
-1.11,-0.005799776
-1.111,-0.005799776
-1.112,-0.005787514
-1.113,-0.005772187
-1.114,-0.005766056
-1.115,-0.005753794
-1.116,-0.005738466
-1.117,-0.005732335
-1.118,-0.005720073
-1.119,-0.005704746
-1.12,-0.005701681
-1.121,-0.005689419
-1.122,-0.005671026
-1.123,-0.005671026
-1.124,-0.005661829
-1.125,-0.005637306
-1.126,-0.005637306
-1.127,-0.005628109
-1.128,-0.00560665
-1.129,-0.005609716
-1.13,-0.005594389
-1.131,-0.005582127
-1.132,-0.005579061
-1.133,-0.005563734
-1.134,-0.005554538
-1.135,-0.005551472
-1.136,-0.005539211
-1.137,-0.005526948
-1.138,-0.005520817
-1.139,-0.005517752
-1.14,-0.005502424
-1.141,-0.005496293
-1.142,-0.005493228
-1.143,-0.0054779
-1.144,-0.005471769
-1.145,-0.005462573
-1.146,-0.005456442
-1.147,-0.005447246
-1.148,-0.005438049
-1.149,-0.005428853
-1.15,-0.005422722
-1.151,-0.00541046
-1.152,-0.005404329
-1.153,-0.005395133
-1.154,-0.005385936
-1.155,-0.00538287
-1.156,-0.005376739
-1.157,-0.005358347
-1.158,-0.005358347
-1.159,-0.005352216
-1.16,-0.005336888
-1.161,-0.005330757
-1.162,-0.005324626
-1.163,-0.00531543
-1.164,-0.005306234
-1.165,-0.005300103
-1.166,-0.00528171
-1.167,-0.00528171
-1.168,-0.005272513
-1.169,-0.005257186
-1.17,-0.00525412
-1.171,-0.005238793
-1.172,-0.005232662
-1.173,-0.005226531
-1.174,-0.005211203
-1.175,-0.005198942
-1.176,-0.005195876
-1.177,-0.005177483
-1.178,-0.005171353
-1.179,-0.005162156
-1.18,-0.005146828
-1.181,-0.005134566
-1.182,-0.005131501
-1.183,-0.005110043
-1.184,-0.005100846
-1.185,-0.005094715
-1.186,-0.005076322
-1.187,-0.005060995
-1.188,-0.005054864
-1.189,-0.005033405
-1.19,-0.005027275
-1.191,-0.005018078
-1.192,-0.00499662
-1.193,-0.004990489
-1.194,-0.004981292
-1.195,-0.0049629
-1.196,-0.004950637
-1.197,-0.004944507
-1.198,-0.004926114
-1.199,-0.004913852
-1.2,-0.004907721
-1.201,-0.004889328
-1.202,-0.004874
-1.203,-0.004870935
-1.204,-0.004852542
-1.205,-0.00484028
-1.206,-0.004837214
-1.207,-0.004815756
-1.208,-0.004803495
-1.209,-0.004797364
-1.21,-0.004782036
-1.211,-0.00477284
-1.212,-0.004763643
-1.213,-0.004748316
-1.214,-0.004742185
-1.215,-0.004732988
-1.216,-0.004714595
-1.217,-0.00471153
-1.218,-0.004699268
-1.219,-0.004687006
-1.22,-0.00467781
-1.221,-0.004668613
-1.222,-0.004653286
-1.223,-0.00465022
-1.224,-0.004641024
-1.225,-0.004625696
-1.226,-0.004619565
-1.227,-0.0046165
-1.228,-0.004595041
-1.229,-0.004598107
-1.23,-0.00458891
-1.231,-0.004570518
-1.232,-0.004570518
-1.233,-0.004561321
-1.234,-0.004542928
-1.235,-0.004545994
-1.236,-0.004533732
-1.237,-0.00452147
-1.238,-0.004515339
-1.239,-0.004512274
-1.24,-0.004496946
-1.241,-0.004493881
-1.242,-0.00448775
-1.243,-0.004475488
-1.244,-0.004475488
-1.245,-0.004466291
-1.246,-0.004454029
-1.247,-0.004454029
-1.248,-0.004441767
-1.249,-0.004432571
-1.25,-0.00442644
-1.251,-0.004423374
-1.252,-0.004417243
-1.253,-0.004411113
-1.254,-0.004404982
-1.255,-0.004395785
-1.256,-0.004389654
-1.257,-0.004386589
-1.258,-0.004377393
-1.259,-0.004377393
-1.26,-0.004374327
-1.261,-0.004355934
-1.262,-0.004362065
-1.263,-0.004355934
-1.264,-0.004346738
-1.265,-0.004349803
-1.266,-0.004337541
-1.267,-0.004328344
-1.268,-0.00433141
-1.269,-0.004325279
-1.27,-0.004319148
-1.271,-0.004322214
-1.272,-0.004313017
-1.273,-0.004309952
-1.274,-0.004306886
-1.275,-0.004294624
-1.276,-0.004294624
-1.277,-0.004294624
-1.278,-0.004285428
-1.279,-0.004282362
-1.28,-0.004282362
-1.281,-0.004273166
-1.282,-0.004270101
-1.283,-0.004270101
-1.284,-0.00426397
-1.285,-0.004260904
-1.286,-0.00426397
-1.287,-0.004257839
-1.288,-0.004251707
-1.289,-0.004254773
-1.29,-0.004248642
-1.291,-0.004245576
-1.292,-0.004248642
-1.293,-0.004242511
-1.294,-0.004239446
-1.295,-0.00423638
-1.296,-0.00423638
-1.297,-0.004230249
-1.298,-0.00423638
-1.299,-0.004230249
-1.3,-0.004227184
-1.301,-0.004227184
-1.302,-0.004221053
-1.303,-0.004217987
-1.304,-0.004224118
-1.305,-0.004217987
-1.306,-0.004214922
-1.307,-0.004214922
-1.308,-0.004214922
-1.309,-0.004211857
-1.31,-0.004211857
-1.311,-0.004211857
-1.312,-0.004205726
-1.313,-0.004211857
-1.314,-0.004211857
-1.315,-0.004205726
-1.316,-0.004211857
-1.317,-0.004208791
-1.318,-0.004205726
-1.319,-0.004211857
-1.32,-0.004208791
-1.321,-0.004208791
-1.322,-0.004208791
-1.323,-0.004211857
-1.324,-0.004208791
-1.325,-0.004211857
-1.326,-0.004214922
-1.327,-0.004208791
-1.328,-0.004214922
-1.329,-0.004217987
-1.33,-0.004214922
-1.331,-0.004221053
-1.332,-0.004221053
-1.333,-0.004217987
-1.334,-0.004227184
-1.335,-0.004224118
-1.336,-0.004227184
-1.337,-0.004230249
-1.338,-0.004230249
-1.339,-0.00423638
-1.34,-0.004242511
-1.341,-0.004239446
-1.342,-0.004248642
-1.343,-0.004251707
-1.344,-0.004251707
-1.345,-0.004260904
-1.346,-0.004267035
-1.347,-0.004267035
-1.348,-0.004276231
-1.349,-0.004279297
-1.35,-0.004288493
-1.351,-0.00429769
-1.352,-0.00430382
-1.353,-0.004306886
-1.354,-0.004319148
-1.355,-0.004325279
-1.356,-0.004328344
-1.357,-0.004343672
-1.358,-0.004349803
-1.359,-0.004358999
-1.36,-0.004371261
-1.361,-0.004383523
-1.362,-0.004389654
-1.363,-0.004404982
-1.364,-0.004417243
-1.365,-0.004423374
-1.366,-0.004441767
-1.367,-0.004454029
-1.368,-0.004463226
-1.369,-0.004484684
-1.37,-0.004500012
-1.371,-0.004512274
-1.372,-0.004533732
-1.373,-0.004552125
-1.374,-0.004567452
-1.375,-0.004591976
-1.376,-0.004613434
-1.377,-0.004631828
-1.378,-0.004656351
-1.379,-0.004683941
-1.38,-0.004705399
-1.381,-0.004736054
-1.382,-0.004763643
-1.383,-0.004788167
-1.384,-0.004824953
-1.385,-0.004858673
-1.386,-0.004889328
-1.387,-0.004929179
-1.388,-0.004965965
-1.389,-0.005005816
-1.39,-0.005051799
-1.391,-0.005094715
-1.392,-0.005140697
-1.393,-0.005195876
-1.394,-0.005247989
-1.395,-0.005300103
-1.396,-0.005358347
-1.397,-0.005419657
-1.398,-0.005487097
-1.399,-0.005557603
-1.4,-0.005628109
-1.401,-0.005701681
-1.402,-0.005787514
-1.403,-0.005873348
-1.404,-0.005962247
-1.405,-0.006063408
-1.406,-0.006158438
-1.407,-0.006271861
-1.408,-0.006385284
-1.409,-0.006501772
-1.41,-0.006630522
-1.411,-0.006765403
-1.412,-0.006897219
-1.413,-0.007050493
-1.414,-0.007206833
-1.415,-0.007369304
-1.416,-0.00754097
-1.417,-0.007721834
-1.418,-0.007902697
-1.419,-0.008108085
-1.42,-0.008316537
-1.421,-0.008528056
-1.422,-0.008754901
-1.423,-0.008994009
-1.424,-0.009230051
-1.425,-0.009490618
-1.426,-0.009757314
-1.427,-0.01002708
-1.428,-0.0103183
-1.429,-0.01061258
-1.43,-0.01090994
-1.431,-0.01123181
-1.432,-0.01155675
-1.433,-0.01188783
-1.434,-0.01223729
-1.435,-0.01258982
-1.436,-0.01295155
-1.437,-0.0133194
-1.438,-0.01370566
-1.439,-0.01409191
-1.44,-0.01449348
-1.441,-0.01490119
-1.442,-0.01531503
-1.443,-0.01573807
-1.444,-0.01617644
-1.445,-0.01661173
-1.446,-0.01705623
-1.447,-0.01750379
-1.448,-0.01796361
-1.449,-0.01843263
-1.45,-0.01890471
-1.451,-0.01937987
-1.452,-0.01984888
-1.453,-0.0203271
-1.454,-0.02080531
-1.455,-0.02128966
-1.456,-0.02178014
-1.457,-0.02227368
-1.458,-0.02277029
-1.459,-0.0232577
-1.46,-0.02374205
-1.461,-0.02423559
-1.462,-0.02473832
-1.463,-0.02523493
-1.464,-0.0257438
-1.465,-0.02625574
-1.466,-0.02675235
-1.467,-0.02726428
-1.468,-0.02776089
-1.469,-0.02823911
-1.47,-0.02874798
-1.471,-0.02925072
-1.472,-0.02975346
-1.473,-0.03025313
-1.474,-0.03086824
-1.475,-0.03132806
-1.476,-0.0318492
-1.477,-0.03237033
-1.478,-0.03283015
-1.479,-0.03335128
-1.48,-0.03384176
-1.481,-0.03433224
-1.482,-0.03485337
-1.483,-0.03531319
-1.484,-0.03583432
-1.485,-0.0363248
-1.486,-0.03681528
-1.487,-0.03730575
-1.488,-0.03782689
-1.489,-0.03831736
-1.49,-0.03874653
-1.491,-0.03923701
-1.492,-0.03969683
-1.493,-0.04018731
-1.494,-0.04067779
-1.495,-0.04116827
-1.496,-0.04162809
-1.497,-0.04211856
-1.498,-0.04257839
-1.499,-0.04303821
-1.5,-0.04328345
-1.499,-0.04306886
-1.498,-0.04285428
-1.497,-0.04260904
-1.496,-0.04242511
-1.495,-0.04214922
-1.494,-0.04193464
-1.493,-0.04172005
-1.492,-0.04147482
-1.491,-0.04122957
-1.49,-0.04098434
-1.489,-0.0407391
-1.488,-0.04052451
-1.487,-0.04027928
-1.486,-0.04003404
-1.485,-0.0397888
-1.484,-0.03954356
-1.483,-0.03932897
-1.482,-0.03905308
-1.481,-0.0388385
-1.48,-0.03856261
-1.479,-0.03831736
-1.478,-0.03807213
-1.477,-0.03782689
-1.476,-0.03758165
-1.475,-0.03730575
-1.474,-0.03706052
-1.473,-0.03678463
-1.472,-0.03657004
-1.471,-0.03629415
-1.47,-0.03604891
-1.469,-0.03580367
-1.468,-0.03549712
-1.467,-0.03528254
-1.466,-0.0350373
-1.465,-0.03476141
-1.464,-0.03451617
-1.463,-0.03424027
-1.462,-0.03399504
-1.461,-0.03371914
-1.46,-0.03347391
-1.459,-0.03322866
-1.458,-0.03298343
-1.457,-0.03270753
-1.456,-0.03243164
-1.455,-0.0321864
-1.454,-0.03191051
-1.453,-0.03166527
-1.452,-0.03142003
-1.451,-0.03114414
-1.45,-0.0308989
-1.449,-0.030623
-1.448,-0.03037777
-1.447,-0.03010187
-1.446,-0.02985664
-1.445,-0.02958074
-1.444,-0.0293355
-1.443,-0.02909026
-1.442,-0.02881437
-1.441,-0.02853847
-1.44,-0.02832389
-1.439,-0.028048
-1.438,-0.0277721
-1.437,-0.02752687
-1.436,-0.02728163
-1.435,-0.02700574
-1.434,-0.02676049
-1.433,-0.02645395
-1.432,-0.02620871
-1.431,-0.02596347
-1.43,-0.02568758
-1.429,-0.02541168
-1.428,-0.02516645
-1.427,-0.02492121
-1.426,-0.02464531
-1.425,-0.02440007
-1.424,-0.02415484
-1.423,-0.0239096
-1.422,-0.0236337
-1.421,-0.02338847
-1.42,-0.02311257
-1.419,-0.02286733
-1.418,-0.02262209
-1.417,-0.02237686
-1.416,-0.02213162
-1.415,-0.02185572
-1.414,-0.02161049
-1.413,-0.02136525
-1.412,-0.02108935
-1.411,-0.02087477
-1.41,-0.02062953
-1.409,-0.02038429
-1.408,-0.02013905
-1.407,-0.01989382
-1.406,-0.01961792
-1.405,-0.01940334
-1.404,-0.01912744
-1.403,-0.01891286
-1.402,-0.01866762
-1.401,-0.01845304
-1.4,-0.0182078
-1.399,-0.01796256
-1.398,-0.01771732
-1.397,-0.01750274
-1.396,-0.0172575
-1.395,-0.01704292
-1.394,-0.01679768
-1.393,-0.01658309
-1.392,-0.01633785
-1.391,-0.01612327
-1.39,-0.01599557
-1.389,-0.01577792
-1.388,-0.01556334
-1.387,-0.01535795
-1.386,-0.01513417
-1.385,-0.01491959
-1.384,-0.01470807
-1.383,-0.01449042
-1.382,-0.01428197
-1.381,-0.01407351
-1.38,-0.01386506
-1.379,-0.01366274
-1.378,-0.01346655
-1.377,-0.01326729
-1.376,-0.01306804
-1.375,-0.01287491
-1.374,-0.01268179
-1.373,-0.01248866
-1.372,-0.0122986
-1.371,-0.01211161
-1.37,-0.01192768
-1.369,-0.01175294
-1.368,-0.01156901
-1.367,-0.01139122
-1.366,-0.01121955
-1.365,-0.01103869
-1.364,-0.01087315
-1.363,-0.01070455
-1.362,-0.01052982
-1.361,-0.01036428
-1.36,-0.01020487
-1.359,-0.01003934
-1.358,-0.009879934
-1.357,-0.00973279
-1.356,-0.009573385
-1.355,-0.009426242
-1.354,-0.009282164
-1.353,-0.009131956
-1.352,-0.008994009
-1.351,-0.008852997
-1.35,-0.008711984
-1.349,-0.008580169
-1.348,-0.008448353
-1.347,-0.008319603
-1.346,-0.008190853
-1.345,-0.008068234
-1.344,-0.007939483
-1.343,-0.007819929
-1.342,-0.007706506
-1.341,-0.007586952
-1.34,-0.007473529
-1.339,-0.007366238
-1.338,-0.007258946
-1.337,-0.007148589
-1.336,-0.007044362
-1.335,-0.006943201
-1.334,-0.006838975
-1.333,-0.006743945
-1.332,-0.00665198
-1.331,-0.006553885
-1.33,-0.006461921
-1.329,-0.006373021
-1.328,-0.006287188
-1.327,-0.006207486
-1.326,-0.006118587
-1.325,-0.006041949
-1.324,-0.005965312
-1.323,-0.00588561
-1.322,-0.005812038
-1.321,-0.005741532
-1.32,-0.005671026
-1.319,-0.005597454
-1.318,-0.005533079
-1.317,-0.005465638
-1.316,-0.005401264
-1.315,-0.005343019
-1.314,-0.005284776
-1.313,-0.0052204
-1.312,-0.005168287
-1.311,-0.005106977
-1.31,-0.005048733
-1.309,-0.005002751
-1.308,-0.004944507
-1.307,-0.004898524
-1.306,-0.004852542
-1.305,-0.004800429
-1.304,-0.004754446
-1.303,-0.00471153
-1.302,-0.004662482
-1.301,-0.004622631
-1.3,-0.004582779
-1.299,-0.004536797
-1.298,-0.004500012
-1.297,-0.004463226
-1.296,-0.004423374
-1.295,-0.004386589
-1.294,-0.004352869
-1.293,-0.004316083
-1.292,-0.004285428
-1.291,-0.004254773
-1.29,-0.004214922
-1.289,-0.004187332
-1.288,-0.004156678
-1.287,-0.004122957
-1.286,-0.004095368
-1.285,-0.004067779
-1.284,-0.004034058
-1.283,-0.004009534
-1.282,-0.003985011
-1.281,-0.003954356
-1.28,-0.003929832
-1.279,-0.003908373
-1.278,-0.003877719
-1.277,-0.00385626
-1.276,-0.003834802
-1.275,-0.003804147
-1.274,-0.00378882
-1.273,-0.003764296
-1.272,-0.003739772
-1.271,-0.003724444
-1.27,-0.003702986
-1.269,-0.003675397
-1.268,-0.003660069
-1.267,-0.003638611
-1.266,-0.003617153
-1.265,-0.003601825
-1.264,-0.003583432
-1.263,-0.003555843
-1.262,-0.003546647
-1.261,-0.003528254
-1.26,-0.003506796
-1.259,-0.003491468
-1.258,-0.003473075
-1.257,-0.003454682
-1.256,-0.00344242
-1.255,-0.003424027
-1.254,-0.003405634
-1.253,-0.003390307
-1.252,-0.003374979
-1.251,-0.003359652
-1.25,-0.003344325
-1.249,-0.003332063
-1.248,-0.003310604
-1.247,-0.003301408
-1.246,-0.003286081
-1.245,-0.003270753
-1.244,-0.003258491
-1.243,-0.003243164
-1.242,-0.003224771
-1.241,-0.003215575
-1.24,-0.003200247
-1.239,-0.003184919
-1.238,-0.003172658
-1.237,-0.003163461
-1.236,-0.003145068
-1.235,-0.003132806
-1.234,-0.00312361
-1.233,-0.003108283
-1.232,-0.003096021
-1.231,-0.003083759
-1.23,-0.003068431
-1.229,-0.003056169
-1.228,-0.003043907
-1.227,-0.003031645
-1.226,-0.003022449
-1.225,-0.003007122
-1.224,-0.002997925
-1.223,-0.002982598
-1.222,-0.002970336
-1.221,-0.002961139
-1.22,-0.002951943
-1.219,-0.002936616
-1.218,-0.002927419
-1.217,-0.002915157
-1.216,-0.002902895
-1.215,-0.002890633
-1.214,-0.002881437
-1.213,-0.002869175
-1.212,-0.002856913
-1.211,-0.002850782
-1.21,-0.002835455
-1.209,-0.002826258
-1.208,-0.002817062
-1.207,-0.002801734
-1.206,-0.002795603
-1.205,-0.002783341
-1.204,-0.00277108
-1.203,-0.002764949
-1.202,-0.002752687
-1.201,-0.002740425
-1.2,-0.002734293
-1.199,-0.002725097
-1.198,-0.002712835
-1.197,-0.002703639
-1.196,-0.002694442
-1.195,-0.00268218
-1.194,-0.002676049
-1.193,-0.002663787
-1.192,-0.002651526
-1.191,-0.002645395
-1.19,-0.002636198
-1.189,-0.002623936
-1.188,-0.002617805
-1.187,-0.002608609
-1.186,-0.002596347
-1.185,-0.002587151
-1.184,-0.00258102
-1.183,-0.002568757
-1.182,-0.002562626
-1.181,-0.00255343
-1.18,-0.002541168
-1.179,-0.002538103
-1.178,-0.002525841
-1.177,-0.002516645
-1.176,-0.002513579
-1.175,-0.002498251
-1.174,-0.002489055
-1.173,-0.002482924
-1.172,-0.002473728
-1.171,-0.002464531
-1.17,-0.002461466
-1.169,-0.002449204
-1.168,-0.002440007
-1.167,-0.002433876
-1.166,-0.00242468
-1.165,-0.002412418
-1.164,-0.002409352
-1.163,-0.002400156
-1.162,-0.00239096
-1.161,-0.002381763
-1.16,-0.002375632
-1.159,-0.002366436
-1.158,-0.002360305
-1.157,-0.002354174
-1.156,-0.002344977
-1.155,-0.002338846
-1.154,-0.00232965
-1.153,-0.002320454
-1.152,-0.002314323
-1.151,-0.002308191
-1.15,-0.002298995
-1.149,-0.002292864
-1.148,-0.002283668
-1.147,-0.002277537
-1.146,-0.002271406
-1.145,-0.002262209
-1.144,-0.002256078
-1.143,-0.002249948
-1.142,-0.002240751
-1.141,-0.002231555
-1.14,-0.002228489
-1.139,-0.002219293
-1.138,-0.002210096
-1.137,-0.002207031
-1.136,-0.002197834
-1.135,-0.002188638
-1.134,-0.002188638
-1.133,-0.002176376
-1.132,-0.002170245
-1.131,-0.002164114
-1.13,-0.002157983
-1.129,-0.002148786
-1.128,-0.002142655
-1.127,-0.00213959
-1.126,-0.002130394
-1.125,-0.002124263
-1.124,-0.002118132
-1.123,-0.002108935
-1.122,-0.00210587
-1.121,-0.002096673
-1.12,-0.002087477
-1.119,-0.002084411
-1.118,-0.002075215
-1.117,-0.002069084
-1.116,-0.002062953
-1.115,-0.002053756
-1.114,-0.002047626
-1.113,-0.002041495
-1.112,-0.002032298
-1.111,-0.002026167
-1.11,-0.002020036
-1.109,-0.00201084
-1.108,-0.002004709
-1.107,-0.002001643
-1.106,-0.001986316
-1.105,-0.00198325
-1.104,-0.00197712
-1.103,-0.001964858
-1.102,-0.001961792
-1.101,-0.001955661
-1.1,-0.001943399
-1.099,-0.001937268
-1.098,-0.001928072
-1.097,-0.001918875
-1.096,-0.001912744
-1.095,-0.001903548
-1.094,-0.001894351
-1.093,-0.00188822
-1.092,-0.001879024
-1.091,-0.001869828
-1.09,-0.001863697
-1.089,-0.0018545
-1.088,-0.001845304
-1.087,-0.001839173
-1.086,-0.001829976
-1.085,-0.00182078
-1.084,-0.001811583
-1.083,-0.001802387
-1.082,-0.00179319
-1.081,-0.001790125
-1.08,-0.001777863
-1.079,-0.001768667
-1.078,-0.001762536
-1.077,-0.001750274
-1.076,-0.001741077
-1.075,-0.001734946
-1.074,-0.00172575
-1.073,-0.001719619
-1.072,-0.001713488
-1.071,-0.001701226
-1.07,-0.00169203
-1.069,-0.001685899
-1.068,-0.001676702
-1.067,-0.001667506
-1.066,-0.001661375
-1.065,-0.001649113
-1.064,-0.001642982
-1.063,-0.001636851
-1.062,-0.001624589
-1.061,-0.001618458
-1.06,-0.001612327
-1.059,-0.001634197
-1.058,-0.001630212
-1.057,-0.001623468
-1.056,-0.001613659
-1.055,-0.001608141
-1.054,-0.00160109
-1.053,-0.001590974
-1.052,-0.00158331
-1.051,-0.001578405
-1.05,-0.001570129
-1.049,-0.001561545
-1.048,-0.00155756
-1.047,-0.001548977
-1.046,-0.001540393
-1.045,-0.001535489
-1.044,-0.001527518
-1.043,-0.001519242
-1.042,-0.00151587
-1.041,-0.00150698
-1.04,-0.001499622
-1.039,-0.001495024
-1.038,-0.001487361
-1.037,-0.001480617
-1.036,-0.001475405
-1.035,-0.001464676
-1.034,-0.001461917
-1.033,-0.00145456
-1.032,-0.00144567
-1.031,-0.001441378
-1.03,-0.00143586
-1.029,-0.001426357
-1.028,-0.001422066
-1.027,-0.001415935
-1.026,-0.001407658
-1.025,-0.001403979
-1.024,-0.001397849
-1.023,-0.001388959
-1.022,-0.001383134
-1.021,-0.001380682
-1.02,-0.001372098
-1.019,-0.001366581
-1.018,-0.001361676
-1.017,-0.001353706
-1.016,-0.001348494
-1.015,-0.001345122
-1.014,-0.001335313
-1.013,-0.001331634
-1.012,-0.001325197
-1.011,-0.001315694
-1.01,-0.001311708
-1.009,-0.001306497
-1.008,-0.001298833
-1.007,-0.001295768
-1.006,-0.001288717
-1.005,-0.00128136
-1.004,-0.001275842
-1.003,-0.001270938
-1.002,-0.001264193
-1.001,-0.001258063
-1,-0.001254077
-0.9990003,-0.00124672
-0.9980002,-0.001239976
-0.9970002,-0.001236604
-0.9960002,-0.001228634
-0.9950002,-0.001221583
-0.9940003,-0.001218211
-0.9930002,-0.001211467
-0.9920002,-0.001204723
-0.9910002,-0.001200125
-0.9900002,-0.001192768
-0.9890002,-0.00118633
-0.9880002,-0.001181119
-0.9870002,-0.001175908
-0.9860002,-0.001168857
-0.9850003,-0.001163646
-0.9840002,-0.001156902
-0.9830002,-0.001149851
-0.9820002,-0.00114464
-0.9810002,-0.001138815
-0.9800002,-0.001131765
-0.9790002,-0.001126247
-0.9780002,-0.001120729
-0.9770002,-0.001112759
-0.9760002,-0.001107547
-0.9750002,-0.001102029
-0.9740002,-0.001094059
-0.9730002,-0.001088848
-0.9720002,-0.001083023
-0.9710003,-0.00107536
-0.9700002,-0.001069842
-0.9690002,-0.001063711
-0.9680002,-0.001056354
-0.9670002,-0.001051756
-0.9660002,-0.001046238
-0.9650002,-0.001035815
-0.9640002,-0.001033976
-0.9630002,-0.001025392
-0.9620003,-0.001017729
-0.9610002,-0.001013437
-0.9600002,-0.001006693
-0.9590002,-0.0009984161
-0.9580002,-0.000994431
-0.9570003,-0.0009867672
-0.9560002,-0.0009781838
-0.9550002,-0.0009748118
-0.9540002,-0.0009671481
-0.9530002,-0.0009588713
-0.9520002,-0.0009545796
-0.9510002,-0.0009478356
-0.9500002,-0.0009398654
-0.9490002,-0.0009340409
-0.9480003,-0.0009269903
-0.9470002,-0.0009196331
-0.9460002,-0.0009165677
-0.9450002,-0.0009092105
-0.9440002,-0.0009003207
-0.9430002,-0.000896642
-0.9420002,-0.0008874455
-0.9410002,-0.0008807015
-0.9400002,-0.0008751836
-0.9390002,-0.0008675199
-0.9380002,-0.0008607759
-0.9370002,-0.000855258
-0.9360002,-0.000848514
-0.9350002,-0.0008408502
-0.9340003,-0.0008337997
-0.9330002,-0.0008282817
-0.9320002,-0.0008196984
-0.9310002,-0.000813874
-0.9300002,-0.0008086627
-0.9290002,-0.0007997728
-0.9280002,-0.0007945614
-0.9270002,-0.000788737
-0.9260002,-0.0007786209
-0.9250003,-0.000775862
-0.9240002,-0.0007666656
-0.9230002,-0.0007599215
-0.9220002,-0.0007540971
-0.9210002,-0.0007458202
-0.9200003,-0.0007393828
-0.9190002,-0.0007341714
-0.9180002,-0.0007258946
-0.9170002,-0.0007203768
-0.9160002,-0.0007130196
-0.9150002,-0.0007044363
-0.9140002,-0.0006989184
-0.9130002,-0.0006915613
-0.9120002,-0.0006857368
-0.9110003,-0.0006786863
-0.9100002,-0.000671329
-0.9090002,-0.0006648915
-0.9080002,-0.0006556951
-0.9070002,-0.0006507903
-0.9060002,-0.0006434331
-0.9050002,-0.0006357695
-0.9040002,-0.0006305581
-0.9030002,-0.0006219748
-0.9020002,-0.0006158438
-0.9010002,-0.0006087932
-0.9000002,-0.0006005164
-0.8990002,-0.0005953051
-0.8980002,-0.0005888676
-0.8970003,-0.0005793645
-0.8960002,-0.0005732336
-0.8950002,-0.000566183
-0.8940002,-0.0005582127
-0.8930002,-0.0005508556
-0.8920002,-0.0005459508
-0.8910002,-0.0005370609
-0.8900002,-0.0005303168
-0.8890002,-0.0005235728
-0.8880002,-0.0005143763
-0.8870002,-0.0005079389
-0.8860002,-0.0005018078
-0.8850002,-0.0004938376
-0.8840002,-0.0004874001
-0.8830003,-0.0004794298
-0.8820002,-0.0004720727
-0.8810002,-0.0004656352
-0.8800002,-0.0004585845
-0.8790002,-0.0004500012
-0.8780002,-0.0004435637
-0.8770002,-0.0004371261
-0.8760002,-0.0004279297
-0.8750002,-0.0004214922
-0.8740003,-0.0004162809
-0.8730002,-0.0004058582
-0.8720002,-0.0003997273
-0.8710002,-0.0003929832
-0.8700002,-0.0003828671
-0.8690003,-0.0003785754
-0.8680002,-0.0003702986
-0.8670002,-0.0003620218
-0.8660002,-0.0003571171
-0.8650002,-0.0003476141
-0.8640002,-0.0003405634
-0.8630002,-0.000334739
-0.8620002,-0.0003255426
-0.8610002,-0.0003178789
-0.8600003,-0.0003108283
-0.8590002,-0.0003022449
-0.8580002,-0.0002942747
-0.8570002,-0.0002878372
-0.8560002,-0.0002798669
-0.8550002,-0.0002718967
-0.8540002,-0.0002642329
-0.8530002,-0.0002559561
-0.8520002,-0.0002473728
-0.8510002,-0.0002406287
-0.8500002,-0.0002323519
-0.8490002,-0.0002243817
-0.8480002,-0.0002157983
-0.8470002,-0.0002087477
-0.8460003,-0.0001998578
-0.8450002,-0.0001925007
-0.8440002,-0.0001836107
-0.8430002,-0.0001750274
-0.8420002,-0.0001685899
-0.8410002,-0.0001597
-0.8400002,-0.0001508101
-0.8390002,-0.0001468968
-0.8380002,-0.0001361982
-0.8370003,-0.0001295155
-0.8360002,-0.0001217598
-0.8350002,-0.0001125634
-0.8340002,-0.0001045011
-0.8330002,-9.63163E-05
-0.8320003,-8.5863E-05
-0.8310002,-7.960942E-05
-0.8300002,-7.068886E-05
-0.8290002,-6.1707E-05
-0.8280002,-5.330757E-05
-0.8270002,-4.454029E-05
-0.8260002,-3.555843E-05
-0.8250002,-2.890633E-05
-0.8240002,-1.970989E-05
-0.8230003,-8.735457E-06
-0.8220002,-2.849731E-06
-0.8210002,6.959813E-06
-0.8200002,1.704525E-05
-0.8190002,2.541402E-05
-0.8180002,3.445719E-05
-0.8170002,4.405215E-05
-0.8160002,5.082687E-05
-0.8150002,6.097361E-05
-0.8140002,7.032333E-05
-0.8130002,7.755788E-05
-0.8120002,8.776593E-05
-0.8110002,9.708499E-05
-0.8100002,0.0001037064
-0.8090003,0.0001133014
-0.8080002,0.0001231416
-0.8070002,0.0001308053
-0.8060002,0.0001400631
-0.8050002,0.0001503018
-0.8040002,0.000156494
-0.8030002,0.0001663955
-0.8020002,0.0001750096
-0.8010002,0.0001835623
-0.8000003,0.000136875
-0.8009998,6.869863E-05
-0.8019998,2.118365E-05
-0.8029998,-1.560214E-05
-0.8039998,-5.165222E-05
-0.8049998,-8.264424E-05
-0.8059998,-0.0001100497
-0.8069998,-0.00013862
-0.8079998,-0.0001644313
-0.8089998,-0.000187821
-0.8099998,-0.0002125287
-0.8109998,-0.0002348454
-0.8119998,-0.0002547404
-0.8129998,-0.0002761681
-0.8139998,-0.0002960938
-0.8149998,-0.0003108283
-0.8159998,-0.0003301408
-0.8169998,-0.0003488403
-0.8179998,-0.0003647808
-0.8189998,-0.0003847064
-0.8199998,-0.0004009535
-0.8209998,-0.0004150547
-0.8219998,-0.0004325279
-0.8229998,-0.0004484684
-0.8239998,-0.0004598107
-0.8249998,-0.0004778971
-0.8259998,-0.0004910787
-0.8269998,-0.0005033406
-0.8279998,-0.0005198942
-0.8289998,-0.0005330758
-0.8299998,-0.0005441115
-0.8309998,-0.0005603586
-0.8319998,-0.0005726205
-0.8329998,-0.0005830431
-0.8339998,-0.000598064
-0.8349998,-0.0006094063
-0.8359998,-0.0006207486
-0.8369998,-0.000632704
-0.8379998,-0.0006461921
-0.8389998,-0.0006563082
-0.8399998,-0.0006676505
-0.8409998,-0.0006796059
-0.8419998,-0.0006894154
-0.8429998,-0.0007010642
-0.8439998,-0.0007139393
-0.8449998,-0.0007225226
-0.8459998,-0.000735091
-0.8469998,-0.0007452072
-0.8479998,-0.0007544036
-0.8489998,-0.0007657459
-0.8499998,-0.000775862
-0.8509998,-0.000785365
-0.8519998,-0.0007960942
-0.8529998,-0.0008068234
-0.8539998,-0.0008154067
-0.8549998,-0.0008258293
-0.8559998,-0.0008356389
-0.8569998,-0.0008448354
-0.8579998,-0.0008543384
-0.8589998,-0.000864761
-0.8599998,-0.0008730378
-0.8609998,-0.0008828474
-0.8619998,-0.0008926569
-0.8629998,-0.0009012403
-0.8639998,-0.0009095171
-0.8649998,-0.0009202462
-0.8659998,-0.0009282165
-0.8669998,-0.0009364933
-0.8679998,-0.0009472225
-0.8689998,-0.0009542731
-0.8699998,-0.0009628565
-0.8709998,-0.0009735856
-0.8719998,-0.0009815559
-0.8729998,-0.0009895262
-0.8739998,-0.0009981095
-0.8749998,-0.00100608
-0.8759998,-0.001013437
-0.8769998,-0.001024166
-0.8779998,-0.001032443
-0.8789998,-0.001037348
-0.8799998,-0.001049303
-0.8809998,-0.001056354
-0.8819998,-0.001063404
-0.8829998,-0.001073214
-0.8839998,-0.001079038
-0.8849998,-0.001086089
-0.8859998,-0.001097125
-0.8869998,-0.001102336
-0.8879998,-0.00111
-0.8889998,-0.001118277
-0.8899998,-0.001127166
-0.8909998,-0.001132684
-0.8919998,-0.001141881
-0.8929998,-0.001149544
-0.8939998,-0.001155062
-0.8949998,-0.001164259
-0.8959998,-0.001171309
-0.8969998,-0.001176214
-0.8979998,-0.001186637
-0.8989998,-0.001191541
-0.8999998,-0.001198592
-0.9009998,-0.001206869
-0.9019998,-0.001211774
-0.9029998,-0.001218824
-0.9039998,-0.001225875
-0.9049998,-0.001232619
-0.9059998,-0.001240283
-0.9069998,-0.00124672
-0.9079998,-0.001251625
-0.9089998,-0.001259595
-0.9099998,-0.00126542
-0.9109998,-0.001271857
-0.9119998,-0.001279214
-0.9129998,-0.001285039
-0.9139998,-0.001289024
-0.9149998,-0.001298833
-0.9159998,-0.001303738
-0.9169998,-0.001308643
-0.9179998,-0.001316307
-0.9189998,-0.001321825
-0.9199998,-0.001326116
-0.9209998,-0.0013347
-0.9219998,-0.001339604
-0.9229998,-0.001345735
-0.9239998,-0.001352786
-0.9249998,-0.001358304
-0.9259998,-0.001362595
-0.9269998,-0.001370259
-0.9279998,-0.001374551
-0.9289998,-0.001380375
-0.9299998,-0.001386813
-0.9309998,-0.001392637
-0.9319998,-0.001397542
-0.9329998,-0.001403979
-0.9339998,-0.001409191
-0.9349998,-0.001412869
-0.9359998,-0.001421759
-0.9369998,-0.001425744
-0.9379998,-0.001429423
-0.9389998,-0.0014377
-0.9399998,-0.001442298
-0.9409998,-0.00144659
-0.9419998,-0.001454866
-0.9429998,-0.001457932
-0.9439998,-0.00146253
-0.9449998,-0.001469887
-0.9459998,-0.001472953
-0.9469998,-0.001478164
-0.9479998,-0.001485521
-0.9489998,-0.001491039
-0.9499998,-0.001494105
-0.9509998,-0.001500236
-0.9519998,-0.001503608
-0.9529998,-0.001509432
-0.9539998,-0.001516176
-0.9549998,-0.001520468
-0.9559998,-0.001524759
-0.9569998,-0.00153273
-0.9579998,-0.001534876
-0.9589998,-0.0015407
-0.9599998,-0.001547138
-0.9609998,-0.001550509
-0.9619998,-0.001556947
-0.9629998,-0.001561852
-0.9639998,-0.001564304
-0.9649998,-0.001570435
-0.9659998,-0.001578099
-0.9669998,-0.001580551
-0.9679998,-0.001584536
-0.9689998,-0.001591894
-0.9699998,-0.001596798
-0.9709998,-0.001600477
-0.9719998,-0.001605382
-0.9729998,-0.001610286
-0.9739998,-0.001613352
-0.9749998,-0.001621629
-0.9759998,-0.001624694
-0.9769998,-0.001629292
-0.9779998,-0.001636343
-0.9789998,-0.001639715
-0.9799998,-0.0016437
-0.9809998,-0.001650138
-0.9819998,-0.001654123
-0.9829998,-0.001658721
-0.9839998,-0.001666998
-0.9849998,-0.001667918
-0.9859998,-0.001674968
-0.9869998,-0.001682325
-0.9879998,-0.001684165
-0.9889998,-0.001690296
-0.9899998,-0.00169704
-0.9909998,-0.001699185
-0.9919998,-0.001704397
-0.9929998,-0.001712061
-0.9939998,-0.001714206
-0.9949998,-0.001719111
-0.9959998,-0.001727388
-0.9969998,-0.001730147
-0.9979998,-0.001732599
-0.9989998,-0.001741489
-0.9999998,-0.001742102
-1.001,-0.001749766
-1.002,-0.00175743
-1.003,-0.001757736
-1.004,-0.001765093
-1.005,-0.001772451
-1.006,-0.001773983
-1.007,-0.001781953
-1.008,-0.001786858
-1.009,-0.00179023
-1.01,-0.001797281
-1.011,-0.001802799
-1.012,-0.001805251
-1.013,-0.001813835
-1.014,-0.001819352
-1.015,-0.001822111
-1.016,-0.001828242
-1.017,-0.0018356
-1.018,-0.001839891
-1.019,-0.001845409
-1.02,-0.00185154
-1.021,-0.001853073
-1.022,-0.001863189
-1.023,-0.001866867
-1.024,-0.00187024
-1.025,-0.001878823
-1.026,-0.001882501
-1.027,-0.001886487
-1.028,-0.001895376
-1.029,-0.001897522
-1.03,-0.001901814
-1.031,-0.001910397
-1.032,-0.001914076
-1.033,-0.001918674
-1.034,-0.001927257
-1.035,-0.001932162
-1.036,-0.001935534
-1.037,-0.001943198
-1.038,-0.001945957
-1.039,-0.001951781
-1.04,-0.001959751
-1.041,-0.001962204
-1.042,-0.001967415
-1.043,-0.001975692
-1.044,-0.001978758
-1.045,-0.001984888
-1.046,-0.001991939
-1.047,-0.001995004
-1.048,-0.002001442
-1.049,-0.002009106
-1.05,-0.002011558
-1.051,-0.002019835
-1.052,-0.002025353
-1.053,-0.002028112
-1.054,-0.002035162
-1.055,-0.002042826
-1.056,-0.002045278
-1.057,-0.002054168
-1.058,-0.002061525
-1.059,-0.002060606
-1.06,-0.002072868
-1.061,-0.00207624
-1.062,-0.002078999
-1.063,-0.002089115
-1.064,-0.002094326
-1.065,-0.002097085
-1.066,-0.002107814
-1.067,-0.002110573
-1.068,-0.002116091
-1.069,-0.002125287
-1.07,-0.002130499
-1.071,-0.002136017
-1.072,-0.002141228
-1.073,-0.002147359
-1.074,-0.002152877
-1.075,-0.002162687
-1.076,-0.002168817
-1.077,-0.002173416
-1.078,-0.002183838
-1.079,-0.00218721
-1.08,-0.002194874
-1.081,-0.002204683
-1.082,-0.002208975
-1.083,-0.002216026
-1.084,-0.002226142
-1.085,-0.002231353
-1.086,-0.00223871
-1.087,-0.0022476
-1.088,-0.002252198
-1.089,-0.002263234
-1.09,-0.002273963
-1.091,-0.002278255
-1.092,-0.002289904
-1.093,-0.002301553
-1.094,-0.002304312
-1.095,-0.0023178
-1.096,-0.002327303
-1.097,-0.002332821
-1.098,-0.002346616
-1.099,-0.002355812
-1.1,-0.002360716
-1.101,-0.002373898
-1.102,-0.00238616
-1.103,-0.00239413
-1.104,-0.002404553
-1.105,-0.002414669
-1.106,-0.002422946
-1.107,-0.002435821
-1.108,-0.002448083
-1.109,-0.002451455
-1.11,-0.002469541
-1.111,-0.002477512
-1.112,-0.002482723
-1.113,-0.002496824
-1.114,-0.00250602
-1.115,-0.002510925
-1.116,-0.002525333
-1.117,-0.00253177
-1.118,-0.002537902
-1.119,-0.002549244
-1.12,-0.002554761
-1.121,-0.00255936
-1.122,-0.002570702
-1.123,-0.002574994
-1.124,-0.002579592
-1.125,-0.002586949
-1.126,-0.002591241
-1.127,-0.002594613
-1.128,-0.00260105
-1.129,-0.002604729
-1.13,-0.002608101
-1.131,-0.002614539
-1.132,-0.002613925
-1.133,-0.002616684
-1.134,-0.002621589
-1.135,-0.00262067
-1.136,-0.002624655
-1.137,-0.002630786
-1.138,-0.00262864
-1.139,-0.002633545
-1.14,-0.002637223
-1.141,-0.002635384
-1.142,-0.002641821
-1.143,-0.002646419
-1.144,-0.002642435
-1.145,-0.002648872
-1.146,-0.002654696
-1.147,-0.002655616
-1.148,-0.002658375
-1.149,-0.002664506
-1.15,-0.002665732
-1.151,-0.002669104
-1.152,-0.002674315
-1.153,-0.002678914
-1.154,-0.002680446
-1.155,-0.002686271
-1.156,-0.002689643
-1.157,-0.002693935
-1.158,-0.002699452
-1.159,-0.002704051
-1.16,-0.002707423
-1.161,-0.00271478
-1.162,-0.002718458
-1.163,-0.002721831
-1.164,-0.002730107
-1.165,-0.002735931
-1.166,-0.002737464
-1.167,-0.002745435
-1.168,-0.002752485
-1.169,-0.002757084
-1.17,-0.002762601
-1.171,-0.002769039
-1.172,-0.002776089
-1.173,-0.00278314
-1.174,-0.002787125
-1.175,-0.002794176
-1.176,-0.002799387
-1.177,-0.002806438
-1.178,-0.002813795
-1.179,-0.002822072
-1.18,-0.002826976
-1.181,-0.002835253
-1.182,-0.002841078
-1.183,-0.00284353
-1.184,-0.002856099
-1.185,-0.002861616
-1.186,-0.002864375
-1.187,-0.002875105
-1.188,-0.002882768
-1.189,-0.002884301
-1.19,-0.002897483
-1.191,-0.002902081
-1.192,-0.002907905
-1.193,-0.002919248
-1.194,-0.00292875
-1.195,-0.002932123
-1.196,-0.002939786
-1.197,-0.002949289
-1.198,-0.002953274
-1.199,-0.00296431
-1.2,-0.00297412
-1.201,-0.002979331
-1.202,-0.002988834
-1.203,-0.002995578
-1.204,-0.002970336
-1.205,-0.002979532
-1.206,-0.002985663
-1.207,-0.002991794
-1.208,-0.003000991
-1.209,-0.003007122
-1.21,-0.003019383
-1.211,-0.003031645
-1.212,-0.003034711
-1.213,-0.003046973
-1.214,-0.003059235
-1.215,-0.0030623
-1.216,-0.003074562
-1.217,-0.003086824
-1.218,-0.003092955
-1.219,-0.003102152
-1.22,-0.003114413
-1.221,-0.003120545
-1.222,-0.003132806
-1.223,-0.003145068
-1.224,-0.003151199
-1.225,-0.003163461
-1.226,-0.003172658
-1.227,-0.003181854
-1.228,-0.003194116
-1.229,-0.003206378
-1.23,-0.003212509
-1.231,-0.003227836
-1.232,-0.003240098
-1.233,-0.003246229
-1.234,-0.003264622
-1.235,-0.003276884
-1.236,-0.003283015
-1.237,-0.003295277
-1.238,-0.003307539
-1.239,-0.003316735
-1.24,-0.003328997
-1.241,-0.003344325
-1.242,-0.003353521
-1.243,-0.003368848
-1.244,-0.003384176
-1.245,-0.003390307
-1.246,-0.003411765
-1.247,-0.003424027
-1.248,-0.003433224
-1.249,-0.003451617
-1.25,-0.003460813
-1.251,-0.003473075
-1.252,-0.003491468
-1.253,-0.003509861
-1.254,-0.003522123
-1.255,-0.003540515
-1.256,-0.003555843
-1.257,-0.00357117
-1.258,-0.003586498
-1.259,-0.003611021
-1.26,-0.003620218
-1.261,-0.003644742
-1.262,-0.003663135
-1.263,-0.003678462
-1.264,-0.003699921
-1.265,-0.003718314
-1.266,-0.003739772
-1.267,-0.003764296
-1.268,-0.003782689
-1.269,-0.003804147
-1.27,-0.003828671
-1.271,-0.003847064
-1.272,-0.003877719
-1.273,-0.003902242
-1.274,-0.003923701
-1.275,-0.003954356
-1.276,-0.003981945
-1.277,-0.004006469
-1.278,-0.004037124
-1.279,-0.004070844
-1.28,-0.004098434
-1.281,-0.004129088
-1.282,-0.004168939
-1.283,-0.004196529
-1.284,-0.004230249
-1.285,-0.004270101
-1.286,-0.00430382
-1.287,-0.004343672
-1.288,-0.004386589
-1.289,-0.00442644
-1.29,-0.004466291
-1.291,-0.004515339
-1.292,-0.004558256
-1.293,-0.004607304
-1.294,-0.004659417
-1.295,-0.004705399
-1.296,-0.004763643
-1.297,-0.004818822
-1.298,-0.004870935
-1.299,-0.004938376
-1.3,-0.005002751
-1.301,-0.00505793
-1.302,-0.005134566
-1.303,-0.005198942
-1.304,-0.005266382
-1.305,-0.00534915
-1.306,-0.005425788
-1.307,-0.005499359
-1.308,-0.005591323
-1.309,-0.005680223
-1.31,-0.005762991
-1.311,-0.005861086
-1.312,-0.005959181
-1.313,-0.006054211
-1.314,-0.006161503
-1.315,-0.006271861
-1.316,-0.006379152
-1.317,-0.006498706
-1.318,-0.00661826
-1.319,-0.006737814
-1.32,-0.006872695
-1.321,-0.007004511
-1.322,-0.007142458
-1.323,-0.007286535
-1.324,-0.007430613
-1.325,-0.007577756
-1.326,-0.007740227
-1.327,-0.007896566
-1.328,-0.008059037
-1.329,-0.00823377
-1.33,-0.008411567
-1.331,-0.008589366
-1.332,-0.008782491
-1.333,-0.008972551
-1.334,-0.009165676
-1.335,-0.009371064
-1.336,-0.009576451
-1.337,-0.009787968
-1.338,-0.01000562
-1.339,-0.01023247
-1.34,-0.01046238
-1.341,-0.01069229
-1.342,-0.01093753
-1.343,-0.0111797
-1.344,-0.011428
-1.345,-0.01168244
-1.346,-0.01193994
-1.347,-0.01220664
-1.348,-0.01247333
-1.349,-0.01274309
-1.35,-0.01302818
-1.351,-0.01330714
-1.352,-0.01359223
-1.353,-0.01388345
-1.354,-0.01416854
-1.355,-0.01446896
-1.356,-0.01477551
-1.357,-0.01507899
-1.358,-0.01539167
-1.359,-0.01570435
-1.36,-0.01601396
-1.361,-0.01633584
-1.362,-0.01666078
-1.363,-0.01698572
-1.364,-0.0173168
-1.365,-0.01765093
-1.366,-0.017982
-1.367,-0.01831614
-1.368,-0.01865641
-1.369,-0.01899668
-1.37,-0.01934001
-1.371,-0.01968948
-1.372,-0.02003894
-1.373,-0.02038534
-1.374,-0.020744
-1.375,-0.0211088
-1.376,-0.02146133
-1.377,-0.02182305
-1.378,-0.02219091
-1.379,-0.02254957
-1.38,-0.0229205
-1.381,-0.02327916
-1.382,-0.02365008
-1.383,-0.02403327
-1.384,-0.02440112
-1.385,-0.02478124
-1.386,-0.0251583
-1.387,-0.02552616
-1.388,-0.02590628
-1.389,-0.02628026
-1.39,-0.02665732
-1.391,-0.0270497
-1.392,-0.02743289
-1.393,-0.02780687
-1.394,-0.028187
-1.395,-0.02857631
-1.396,-0.02896256
-1.397,-0.02935188
-1.398,-0.02973813
-1.399,-0.03012131
-1.4,-0.030623
-1.401,-0.03102152
-1.402,-0.03142003
-1.403,-0.03181854
-1.404,-0.03221706
-1.405,-0.03261557
-1.406,-0.03301408
-1.407,-0.03341259
-1.408,-0.0338111
-1.409,-0.03420962
-1.41,-0.03460813
-1.411,-0.03500664
-1.412,-0.03543581
-1.413,-0.03580367
-1.414,-0.03620218
-1.415,-0.03660069
-1.416,-0.03702986
-1.417,-0.03742838
-1.418,-0.03785754
-1.419,-0.03825606
-1.42,-0.03865457
-1.421,-0.03905308
-1.422,-0.03948225
-1.423,-0.03988076
-1.424,-0.04030993
-1.425,-0.04070844
-1.426,-0.04110695
-1.427,-0.04153612
-1.428,-0.04193464
-1.429,-0.04233315
-1.43,-0.04276232
-1.431,-0.04316083
-1.432,-0.04358999
-1.433,-0.04398851
-1.434,-0.04441768
-1.435,-0.04481619
-1.436,-0.04524536
-1.437,-0.04564387
-1.438,-0.04604238
-1.439,-0.04647155
-1.44,-0.04687006
-1.441,-0.04726858
-1.442,-0.04769774
-1.443,-0.04809625
-1.444,-0.04852542
-1.445,-0.04895459
-1.446,-0.0493531
-1.447,-0.04975162
-1.448,-0.05018078
-1.449,-0.0505793
-1.45,-0.05097781
-1.451,-0.05140698
-1.452,-0.05180549
-1.453,-0.05223466
-1.454,-0.05266382
-1.455,-0.05306234
-1.456,-0.0534915
-1.457,-0.05389002
-1.458,-0.05431918
-1.459,-0.0547177
-1.46,-0.05511621
-1.461,-0.05554538
-1.462,-0.05594389
-1.463,-0.05637306
-1.464,-0.05677157
-1.465,-0.05720074
-1.466,-0.05759925
-1.467,-0.05802842
-1.468,-0.05842693
-1.469,-0.0588561
-1.47,-0.05928526
-1.471,-0.05965312
-1.472,-0.06008229
-1.473,-0.06051146
-1.474,-0.06087932
-1.475,-0.06133914
-1.476,-0.06173765
-1.477,-0.06213617
-1.478,-0.06256533
-1.479,-0.06296384
-1.48,-0.06336236
-1.481,-0.06376087
-1.482,-0.06419004
-1.483,-0.06458855
-1.484,-0.06498706
-1.485,-0.06541623
-1.486,-0.06581475
-1.487,-0.06624391
-1.488,-0.06664243
-1.489,-0.06704094
-1.49,-0.0674701
-1.491,-0.06789928
-1.492,-0.06829779
-1.493,-0.0686963
-1.494,-0.06912547
-1.495,-0.06949332
-1.496,-0.06989183
-1.497,-0.07032101
-1.498,-0.07075017
-1.499,-0.07114869
-1.5,-0.0712713
-1.499,-0.07087279
-1.498,-0.07041297
-1.497,-0.07001445
-1.496,-0.06958529
-1.495,-0.06912547
-1.494,-0.06872695
-1.493,-0.06826713
-1.492,-0.06783796
-1.491,-0.06740879
-1.49,-0.06697963
-1.489,-0.06655046
-1.488,-0.0661213
-1.487,-0.06569213
-1.486,-0.06526296
-1.485,-0.06483379
-1.484,-0.06437397
-1.483,-0.0639448
-1.482,-0.06354629
-1.481,-0.06308647
-1.48,-0.06268796
-1.479,-0.06225879
-1.478,-0.06182962
-1.477,-0.06140045
-1.476,-0.06097129
-1.475001,-0.06054211
-1.474,-0.06011295
-1.473,-0.05971443
-1.472,-0.05928526
-1.471,-0.0588561
-1.47,-0.05845758
-1.469,-0.05799776
-1.468,-0.05759925
-1.467,-0.05717008
-1.466,-0.05677157
-1.465,-0.05637306
-1.464,-0.05594389
-1.463,-0.05551472
-1.462,-0.05511621
-1.461,-0.05468704
-1.46,-0.05428853
-1.459,-0.05389002
-1.458,-0.0534915
-1.457,-0.05306234
-1.456,-0.05266382
-1.455,-0.05223466
-1.454,-0.05183614
-1.453,-0.05143763
-1.452,-0.05100846
-1.451,-0.05064061
-1.45,-0.05024209
-1.449,-0.04981292
-1.448,-0.04941441
-1.447,-0.0490159
-1.446,-0.04861739
-1.445,-0.04821887
-1.444,-0.04782036
-1.443,-0.04742185
-1.442,-0.04702334
-1.441,-0.04662482
-1.44,-0.04619566
-1.439,-0.0458278
-1.438,-0.04542929
-1.437,-0.04503077
-1.436,-0.04466292
-1.435,-0.0442644
-1.434,-0.04386589
-1.433,-0.04346738
-1.432,-0.04306886
-1.431,-0.04267035
-1.43,-0.04230249
-1.429,-0.04193464
-1.428,-0.04153612
-1.427,-0.04113761
-1.426,-0.04076975
-1.425,-0.04037124
-1.424,-0.04000338
-1.423,-0.03960487
-1.422,-0.03920636
-1.421,-0.0388385
-1.42,-0.03847064
-1.419,-0.03810278
-1.418,-0.03773492
-1.417,-0.03733641
-1.416,-0.0369379
-1.415,-0.03657004
-1.414,-0.03620218
-1.413,-0.03580367
-1.412,-0.03546647
-1.411,-0.03509861
-1.41,-0.0347001
-1.409,-0.03439355
-1.408,-0.03402569
-1.407,-0.03362718
-1.406,-0.03325932
-1.405,-0.03289146
-1.404,-0.0325236
-1.403,-0.0321864
-1.402,-0.03181854
-1.401,-0.03145069
-1.4,-0.03111348
-1.399,-0.03074562
-1.398,-0.03037777
-1.397,-0.03004056
-1.396,-0.0296727
-1.395,-0.0293355
-1.394,-0.0289983
-1.393,-0.02863044
-1.392,-0.02829324
-1.391,-0.02795603
-1.39,-0.02758818
-1.389,-0.02725097
-1.388,-0.02694443
-1.387,-0.02657657
-1.386,-0.02627002
-1.385,-0.02593282
-1.384,-0.02559561
-1.383,-0.02525841
-1.382,-0.02492121
-1.381,-0.024584
-1.38,-0.0242468
-1.379,-0.02394025
-1.378,-0.02360305
-1.377,-0.02326585
-1.376,-0.0229593
-1.375,-0.02262209
-1.374,-0.02231555
-1.373,-0.022009
-1.372,-0.02170245
-1.371,-0.0213959
-1.37,-0.02108935
-1.369,-0.02075215
-1.368,-0.0204456
-1.367,-0.02016971
-1.366,-0.01986316
-1.365,-0.01958727
-1.364,-0.01928072
-1.363,-0.01897417
-1.362,-0.01869828
-1.361,-0.01842238
-1.36,-0.01811584
-1.359,-0.01783994
-1.358,-0.01756405
-1.357,-0.01728815
-1.356,-0.01701226
-1.355,-0.01673637
-1.354,-0.01642982
-1.353,-0.01615393
-1.352,-0.01600783
-1.351,-0.0157442
-1.350001,-0.01548364
-1.349,-0.01523227
-1.348,-0.01497783
-1.347,-0.0147234
-1.346,-0.01447509
-1.345,-0.01423598
-1.344,-0.01399075
-1.343,-0.01375164
-1.342,-0.01351866
-1.341,-0.01327955
-1.34,-0.01305271
-1.339,-0.01282893
-1.338,-0.01259289
-1.337,-0.0123783
-1.336,-0.01216065
-1.335,-0.01193687
-1.334,-0.01172842
-1.333,-0.0115169
-1.332,-0.01130845
-1.331,-0.01110306
-1.33,-0.01090381
-1.329,-0.01070148
-1.328,-0.01050836
-1.327,-0.01031523
-1.326,-0.01012517
-1.325,-0.009944309
-1.324,-0.00976038
-1.323,-0.009582582
-1.322,-0.009410915
-1.321,-0.009233117
-1.32,-0.00906758
-1.319,-0.008911241
-1.318,-0.008745705
-1.317,-0.0085863
-1.316,-0.008433026
-1.315,-0.008282817
-1.314,-0.008132609
-1.313,-0.007991596
-1.312,-0.007850585
-1.311,-0.007706506
-1.31,-0.007577756
-1.309,-0.00744594
-1.308,-0.007311059
-1.307,-0.007191505
-1.306,-0.007062755
-1.305,-0.006943201
-1.304,-0.006832844
-1.303,-0.006716356
-1.302,-0.006599867
-1.301,-0.006495641
-1.3,-0.006388349
-1.299,-0.006284122
-1.298,-0.006189092
-1.297,-0.006090997
-1.296,-0.005995967
-1.295,-0.005907068
-1.294,-0.005812038
-1.293,-0.005726204
-1.292,-0.005646502
-1.291,-0.005557603
-1.29,-0.005480966
-1.289,-0.005407395
-1.288,-0.005330757
-1.287,-0.005257186
-1.286,-0.005189745
-1.285,-0.005116174
-1.284,-0.005051799
-1.283,-0.004990489
-1.282,-0.004926114
-1.281,-0.004864804
-1.28,-0.004803495
-1.279,-0.00474525
-1.278,-0.004690072
-1.277,-0.004637958
-1.276,-0.004582779
-1.275,-0.004533732
-1.274,-0.00448775
-1.273,-0.004435637
-1.272,-0.00439272
-1.271,-0.004346738
-1.27,-0.00429769
-1.269,-0.004257839
-1.268,-0.004214922
-1.267,-0.004172005
-1.266,-0.004135219
-1.265,-0.004095368
-1.264,-0.004055517
-1.263,-0.004024862
-1.262,-0.003985011
-1.261,-0.003948225
-1.26,-0.00391757
-1.259,-0.00388385
-1.258,-0.003850129
-1.257,-0.003825605
-1.256,-0.003791885
-1.255,-0.00376123
-1.254,-0.003736707
-1.253,-0.003702986
-1.252,-0.003675397
-1.251,-0.003650873
-1.25,-0.003623284
-1.249,-0.00359876
-1.248,-0.003574236
-1.247,-0.003546647
-1.246,-0.003522123
-1.245,-0.003500664
-1.244,-0.00347614
-1.243,-0.003454682
-1.242,-0.003433224
-1.241,-0.0034087
-1.24,-0.003387242
-1.239,-0.003368848
-1.238,-0.00334739
-1.237,-0.003325932
-1.236,-0.003307539
-1.235,-0.003286081
-1.234,-0.003267688
-1.233,-0.003249295
-1.232,-0.003230902
-1.231,-0.003209443
-1.23,-0.003191051
-1.229,-0.003175723
-1.228,-0.003154265
-1.227,-0.003135872
-1.226,-0.00312361
-1.225001,-0.003105217
-1.224,-0.003089889
-1.223,-0.003071497
-1.222,-0.003059235
-1.221,-0.003040842
-1.22,-0.003025514
-1.219,-0.003010187
-1.218,-0.00299486
-1.217,-0.002979532
-1.216,-0.002964205
-1.215,-0.002948877
-1.214,-0.002936616
-1.213,-0.002918222
-1.212,-0.002909026
-1.211,-0.002893699
-1.21,-0.002878371
-1.209,-0.00286611
-1.208,-0.002850782
-1.207,-0.002835455
-1.206,-0.002826258
-1.205,-0.002810931
-1.204,-0.002798669
-1.203,-0.002786407
-1.202,-0.00277108
-1.201,-0.002761883
-1.2,-0.002749621
-1.199,-0.002734293
-1.198,-0.002725097
-1.197,-0.002712835
-1.196,-0.002700574
-1.195,-0.002685246
-1.194,-0.002679115
-1.193,-0.002663787
-1.192,-0.002651526
-1.191,-0.002645395
-1.19,-0.002627002
-1.189,-0.002617805
-1.188,-0.002608609
-1.187,-0.002596347
-1.186,-0.002587151
-1.185,-0.002577954
-1.184,-0.002565692
-1.183,-0.00255343
-1.182,-0.002547299
-1.181,-0.002531972
-1.18,-0.002525841
-1.179,-0.002513579
-1.178,-0.002501317
-1.177,-0.002495186
-1.176,-0.00248599
-1.175,-0.002470662
-1.174,-0.002464531
-1.173,-0.002455335
-1.172,-0.002440007
-1.171,-0.002436942
-1.17,-0.002427745
-1.169,-0.002412418
-1.168,-0.002409352
-1.167,-0.002400156
-1.166,-0.002387894
-1.165,-0.002381763
-1.164,-0.002372567
-1.163,-0.002360305
-1.162,-0.002354174
-1.161,-0.002348043
-1.16,-0.002335781
-1.159,-0.00232965
-1.158,-0.002320454
-1.157,-0.002305126
-1.156,-0.002302061
-1.155,-0.002292864
-1.154,-0.002283668
-1.153,-0.002277537
-1.152,-0.002265275
-1.151,-0.002259144
-1.15,-0.002253013
-1.149,-0.002243817
-1.148,-0.002231555
-1.147,-0.002228489
-1.146,-0.002219293
-1.145,-0.002207031
-1.144,-0.0022009
-1.143,-0.002191703
-1.142,-0.002185572
-1.141,-0.002179441
-1.14,-0.002167179
-1.139,-0.002161048
-1.138,-0.002157983
-1.137,-0.002142655
-1.136,-0.00213959
-1.135,-0.002133459
-1.134,-0.002121197
-1.133,-0.002118132
-1.132,-0.002108935
-1.131,-0.002096673
-1.13,-0.002093608
-1.129,-0.002084411
-1.128,-0.002075215
-1.127,-0.002069084
-1.126,-0.002059887
-1.125,-0.002053756
-1.124,-0.00204456
-1.123,-0.002038429
-1.122,-0.002029233
-1.121,-0.002023102
-1.12,-0.002016971
-1.119,-0.002007774
-1.118,-0.002001643
-1.117,-0.001995512
-1.116,-0.00198325
-1.115,-0.001980185
-1.114,-0.001974054
-1.113,-0.001961792
-1.112,-0.001955661
-1.111,-0.00194953
-1.11,-0.001940334
-1.109,-0.001931137
-1.108,-0.001925006
-1.107,-0.00191581
-1.106,-0.001906613
-1.105,-0.001900482
-1.104,-0.001891286
-1.103,-0.00188209
-1.102,-0.001879024
-1.101,-0.001866762
-1.100001,-0.001857566
-1.099,-0.0018545
-1.098,-0.001842238
-1.097,-0.001833042
-1.096,-0.001826911
-1.095,-0.001814649
-1.094,-0.001805453
-1.093,-0.001799321
-1.092,-0.001790125
-1.091,-0.001780929
-1.09,-0.001771732
-1.089,-0.001762536
-1.088,-0.001753339
-1.087,-0.001747208
-1.086,-0.001734946
-1.085,-0.00172575
-1.084,-0.001716554
-1.083,-0.001707357
-1.082,-0.001698161
-1.081,-0.001688964
-1.08,-0.001679768
-1.079,-0.001670571
-1.078,-0.001661375
-1.077,-0.001652178
-1.076,-0.001642982
-1.075,-0.001633785
-1.074,-0.001624589
-1.073,-0.001615393
-1.072,-0.001606196
-1.071,-0.001597
-1.07,-0.001620709
-1.069,-0.001612432
-1.068,-0.001603542
-1.067,-0.001593733
-1.066,-0.001585456
-1.065,-0.001576873
-1.064,-0.00156645
-1.063,-0.001557254
-1.062,-0.001548057
-1.061,-0.001540087
-1.06,-0.001528745
-1.059,-0.001521387
-1.058,-0.001513724
-1.057,-0.001502075
-1.056,-0.001494411
-1.055,-0.001487667
-1.054,-0.001475405
-1.053,-0.0014705
-1.052,-0.001461304
-1.051,-0.001451495
-1.05,-0.00144475
-1.049,-0.001434634
-1.048,-0.001426971
-1.047,-0.001421759
-1.046,-0.001410417
-1.045,-0.001404899
-1.044,-0.001396316
-1.043,-0.001386506
-1.042,-0.001380988
-1.041,-0.001374857
-1.04,-0.001364128
-1.039,-0.00136045
-1.038,-0.001353399
-1.037,-0.001342976
-1.036,-0.001336845
-1.035,-0.001331327
-1.034,-0.001322131
-1.033,-0.001317226
-1.032,-0.001310789
-1.031,-0.001302819
-1.03,-0.001297607
-1.029,-0.001289943
-1.028,-0.00128228
-1.027,-0.001277988
-1.026,-0.001270938
-1.025,-0.001263274
-1.024,-0.001256223
-1.023,-0.001249786
-1.022,-0.001242429
-1.021,-0.001236911
-1.02,-0.00122986
-1.019,-0.001223729
-1.018,-0.001218211
-1.017,-0.001211161
-1.016,-0.001203803
-1.015,-0.001199205
-1.014,-0.001192155
-1.013,-0.00118633
-1.012,-0.001178973
-1.011,-0.001174068
-1.01,-0.001167018
-1.009,-0.001160274
-1.008,-0.001156288
-1.007,-0.001147092
-1.006,-0.001142494
-1.005,-0.001137896
-1.004,-0.001127473
-1.003,-0.001124101
-1.002,-0.001119196
-1.001,-0.001110306
-1,-0.001106934
-0.9990004,-0.001100803
-0.9980004,-0.001092833
-0.9970005,-0.001088848
-0.9960005,-0.00108241
-0.9950004,-0.00107444
-0.9940004,-0.001071988
-0.9930004,-0.001064017
-0.9920005,-0.001056354
-0.9910004,-0.001054208
-0.9900004,-0.001047464
-0.9890004,-0.001041333
-0.9880005,-0.001037348
-0.9870005,-0.001029684
-0.9860004,-0.001023247
-0.9850004,-0.001019261
-0.9840004,-0.001011291
-0.9830005,-0.001006693
-0.9820005,-0.001002401
-0.9810004,-0.000994431
-0.9800004,-0.000988913
-0.9790004,-0.0009840083
-0.9780005,-0.0009769576
-0.9770004,-0.0009714398
-0.9760004,-0.0009653088
-0.9750004,-0.0009591779
-0.9740005,-0.0009512077
-0.9730005,-0.0009469159
-0.9720004,-0.0009395588
-0.9710004,-0.0009334278
-0.9700004,-0.0009297492
-0.9690005,-0.0009220855
-0.9680004,-0.0009150349
-0.9670004,-0.000912276
-0.9660004,-0.0009012403
-0.9650005,-0.0008978682
-0.9640005,-0.0008920438
-0.9630004,-0.0008856063
-0.9620004,-0.0008797819
-0.9610004,-0.0008733444
-0.9600005,-0.0008650676
-0.9590005,-0.0008610824
-0.9580004,-0.0008543384
-0.9570004,-0.0008475943
-0.9560004,-0.0008420764
-0.9550005,-0.0008353324
-0.9540004,-0.0008298145
-0.9530004,-0.0008242966
-0.9520004,-0.0008175526
-0.9510005,-0.0008092758
-0.9500005,-0.0008052906
-0.9490004,-0.0007982401
-0.9480004,-0.0007911894
-0.9470004,-0.0007859781
-0.9460005,-0.0007804602
-0.9450005,-0.00077249
-0.9440004,-0.0007672787
-0.9430004,-0.0007617608
-0.9420004,-0.000753484
-0.9410005,-0.000747353
-0.9400004,-0.0007427548
-0.9390004,-0.0007353976
-0.9380004,-0.0007280405
-0.9370005,-0.0007246684
-0.9360005,-0.0007157786
-0.9350004,-0.0007099541
-0.9340004,-0.0007065821
-0.9330004,-0.000696466
-0.9320005,-0.0006918678
-0.9310004,-0.0006878827
-0.9300004,-0.0006783796
-0.9290004,-0.0006747011
-0.9280005,-0.0006691832
-0.9270005,-0.0006596802
-0.9260004,-0.0006553886
-0.9250004,-0.0006501772
-0.9240004,-0.0006412873
-0.9230005,-0.0006373022
-0.9220005,-0.0006314777
-0.9210004,-0.0006225879
-0.9200004,-0.0006182962
-0.9190004,-0.0006124718
-0.9180005,-0.000604195
-0.9170004,-0.0005995968
-0.9160004,-0.000594692
-0.9150004,-0.0005861087
-0.9140005,-0.0005821235
-0.9130005,-0.000575686
-0.9120004,-0.0005680223
-0.9110004,-0.0005637306
-0.9100004,-0.0005563734
-0.9090005,-0.0005490163
-0.9080005,-0.0005450312
-0.9070004,-0.000537674
-0.9060004,-0.0005300103
-0.9050004,-0.000525412
-0.9040005,-0.0005189746
-0.9030004,-0.0005119239
-0.9020004,-0.000505793
-0.9010004,-0.0005002751
-0.9000005,-0.0004923049
-0.8990005,-0.0004883197
-0.8980004,-0.000480656
-0.8970004,-0.0004732989
-0.8960004,-0.0004674745
-0.8950005,-0.0004591976
-0.8940005,-0.0004524536
-0.8930004,-0.0004478553
-0.8920004,-0.000439272
-0.8910004,-0.000433141
-0.8900005,-0.0004270101
-0.8890004,-0.0004196529
-0.8880004,-0.0004129088
-0.8870004,-0.0004058582
-0.8860005,-0.0003994207
-0.8850005,-0.0003926767
-0.8840004,-0.0003862391
-0.8830004,-0.0003773492
-0.8820004,-0.0003721379
-0.8810005,-0.0003647808
-0.8800004,-0.0003561974
-0.8790004,-0.0003506796
-0.8780004,-0.000344242
-0.8770005,-0.0003353521
-0.8760005,-0.0003304474
-0.8750004,-0.0003221706
-0.8740004,-0.0003142003
-0.8730004,-0.0003083759
-0.8720005,-0.0003022449
-0.8710005,-0.0002924354
-0.8700004,-0.0002856913
-0.8690004,-0.0002792538
-0.8680004,-0.0002703639
-0.8670005,-0.0002630067
-0.8660004,-0.0002577954
-0.8650004,-0.0002482924
-0.8640004,-0.0002400156
-0.8630005,-0.0002332716
-0.8620005,-0.0002237686
-0.8610004,-0.0002179441
-0.8600004,-0.0002093608
-0.8590004,-0.000201084
-0.8580005,-0.0001946465
-0.8570005,-0.0001845304
-0.8560004,-0.0001783994
-0.8550004,-0.0001704292
-0.8540004,-0.0001603131
-0.8530005,-0.0001538755
-0.8520004,-0.0001455988
-0.8510004,-0.000137639
-0.8500004,-0.0001319985
-0.8490005,-0.0001232312
-0.8480005,-0.0001129925
-0.8470004,-0.0001053901
-0.8460004,-9.754248E-05
-0.8450004,-8.779425E-05
-0.8440005,-7.85365E-05
-0.8430004,-7.108737E-05
-0.8420004,-6.140045E-05
-0.8410004,-5.171352E-05
-0.8400005,-4.484684E-05
-0.8390005,-3.549712E-05
-0.8380004,-2.473728E-05
-0.8370004,-1.618458E-05
-0.8360004,-6.620275E-06
-0.8350005,1.932421E-06
-0.8340005,1.13128E-05
-0.8330004,2.084645E-05
-0.8320004,3.068665E-05
-0.8310004,3.884083E-05
-0.8300005,4.8773E-05
-0.8290004,5.83373E-05
-0.8280004,6.774833E-05
-0.8270004,7.691413E-05
-0.8260005,8.709152E-05
-0.8250005,9.637994E-05
-0.8240004,0.0001061282
-0.8230004,0.0001158151
-0.8220004,0.000124797
-0.8210005,0.0001348211
-0.8200005,0.0001449985
-0.8190004,0.0001555744
-0.8180004,0.0001657825
-0.8170004,0.0001746111
-0.8160005,0.0001836236
-0.8150004,0.0001946593
-0.8140004,0.0002039784
-0.8130004,0.0002130216
-0.8120005,0.0002235975
-0.8110005,0.0002336216
-0.8100004,0.000242818
-0.8090004,0.0002530261
-0.8080004,0.0002624065
-0.8070005,0.0002703154
-0.8060004,0.0002821482
-0.8050004,0.0002939915
-0.8040004,0.0003022683
-0.8030005,0.0003129975
-0.8020005,0.0003212743
-0.8010004,0.0003307773
-0.8000004,0.0002801968
-0.8009996,0.0002047859
-0.8019996,0.0001517531
-0.8029996,0.0001100625
-0.8039996,6.990468E-05
-0.8049996,2.961373E-05
-0.8059996,-7.958582E-07
-0.8069996,-3.4087E-05
-0.8079996,-6.250402E-05
-0.8089996,-8.880586E-05
-0.8099996,-0.0001167631
-0.8109996,-0.0001416241
-0.8119996,-0.0001644007
-0.8129996,-0.0001880049
-0.8139996,-0.0002115171
-0.8149996,-0.0002318719
-0.8159996,-0.0002528092
-0.8169996,-0.000273869
-0.8179996,-0.0002918328
-0.8189996,-0.000308989
-0.8199996,-0.000327995
-0.8209996,-0.0003448552
-0.8219996,-0.0003629415
-0.8229996,-0.0003794951
-0.8239996,-0.0003951291
-0.8249996,-0.0004119892
-0.8259996,-0.0004282363
-0.8269996,-0.0004423375
-0.8279996,-0.0004588911
-0.8289996,-0.0004736054
-0.8299996,-0.0004870935
-0.8309996,-0.0005018078
-0.8319996,-0.0005162156
-0.8329996,-0.0005287841
-0.8339996,-0.0005431919
-0.8349996,-0.0005572931
-0.8359996,-0.0005686354
-0.8369996,-0.0005818169
-0.8379996,-0.0005962247
-0.8389996,-0.0006060342
-0.8399996,-0.0006189093
-0.8409996,-0.0006320909
-0.8419996,-0.0006422069
-0.8429996,-0.0006553886
-0.8439996,-0.0006664242
-0.8449996,-0.0006771535
-0.8459996,-0.0006894154
-0.8469996,-0.0007010642
-0.8479996,-0.0007102606
-0.8489996,-0.000722216
-0.8499996,-0.0007332518
-0.8509996,-0.0007424483
-0.8519996,-0.0007553233
-0.8529996,-0.0007651328
-0.8539996,-0.0007743293
-0.8549996,-0.0007865912
-0.8559996,-0.000794868
-0.8569996,-0.0008046775
-0.8579996,-0.0008163264
-0.8589996,-0.0008255228
-0.8599996,-0.0008350258
-0.8609996,-0.0008463681
-0.8619996,-0.0008549515
-0.8629996,-0.0008629217
-0.8639996,-0.0008751836
-0.8649996,-0.0008834605
-0.8659996,-0.0008917373
-0.8669996,-0.0009009338
-0.8679996,-0.0009131957
-0.8689996,-0.0009199397
-0.8699996,-0.0009303623
-0.8709996,-0.0009389457
-0.8719996,-0.0009469159
-0.8729996,-0.000957032
-0.8739996,-0.0009650023
-0.8749996,-0.0009732791
-0.8759996,-0.0009830886
-0.8769996,-0.0009913654
-0.8779996,-0.0009990291
-0.8789996,-0.001008226
-0.8799996,-0.001017116
-0.8809996,-0.001024473
-0.8819996,-0.001034282
-0.8829996,-0.001041946
-0.8839996,-0.00104869
-0.8849996,-0.0010585
-0.8859996,-0.001064324
-0.8869996,-0.001073827
-0.8879996,-0.001082717
-0.8889996,-0.001088541
-0.8899996,-0.001097431
-0.8909996,-0.001104788
-0.8919996,-0.001111839
-0.8929996,-0.001121035
-0.8939996,-0.001129006
-0.8949996,-0.001134217
-0.8959996,-0.0011428
-0.8969996,-0.001151384
-0.8979996,-0.001157821
-0.8989996,-0.001165485
-0.8999996,-0.001171616
-0.9009996,-0.001178053
-0.9019996,-0.001188476
-0.9029996,-0.001194607
-0.9039996,-0.001200431
-0.9049996,-0.001208708
-0.9059996,-0.001215146
-0.9069996,-0.001221583
-0.9079996,-0.001229553
-0.9089996,-0.001236604
-0.9099996,-0.001241815
-0.9109996,-0.001249173
-0.9119996,-0.001255917
-0.9129996,-0.001262048
-0.9139996,-0.001268179
-0.9149996,-0.001277375
-0.9159996,-0.001281973
-0.9169996,-0.001289637
-0.9179996,-0.001295461
-0.9189996,-0.001298833
-0.9199996,-0.001307417
-0.9209996,-0.001314774
-0.9219996,-0.001319372
-0.9229996,-0.001327036
-0.9239996,-0.001333473
-0.9249996,-0.001337459
-0.9259996,-0.001346962
-0.9269996,-0.001351253
-0.9279996,-0.001356464
-0.9289996,-0.001365048
-0.9299996,-0.001369953
-0.9309996,-0.001374551
-0.9319996,-0.001381908
-0.9329996,-0.001388345
-0.9339996,-0.001392944
-0.9349996,-0.001400301
-0.9359996,-0.001404899
-0.9369996,-0.001409804
-0.9379996,-0.001418081
-0.9389996,-0.001422679
-0.9399996,-0.001426357
-0.9409996,-0.001436167
-0.9419996,-0.001439232
-0.9429996,-0.00144567
-0.9439996,-0.001452414
-0.9449996,-0.001459465
-0.9459996,-0.001461917
-0.9469996,-0.001468048
-0.9479996,-0.001475405
-0.9489996,-0.001477551
-0.9499996,-0.001485521
-0.9509996,-0.001491652
-0.9519996,-0.001494411
-0.9529996,-0.001500849
-0.9539996,-0.001506673
-0.9549996,-0.001511578
-0.9559996,-0.001518935
-0.9569996,-0.001522307
-0.9579996,-0.001528745
-0.9589996,-0.001534876
-0.9599996,-0.001538554
-0.9609996,-0.001544379
-0.9619996,-0.001550816
-0.9629996,-0.001553575
-0.9639996,-0.001562772
-0.9649996,-0.001568289
-0.9659996,-0.001571048
-0.9669996,-0.001577486
-0.9679996,-0.001583617
-0.9689996,-0.001587602
-0.9699996,-0.001594653
-0.9709996,-0.00160017
-0.9719996,-0.001604462
-0.9729996,-0.0016109
-0.9739996,-0.001616417
-0.9749996,-0.001621016
-0.9759996,-0.001626227
-0.9769996,-0.001632358
-0.9779996,-0.001639102
-0.9789996,-0.001641861
-0.9799996,-0.001649525
-0.9809996,-0.001654736
-0.9819996,-0.001657495
-0.9829996,-0.001667918
-0.9839996,-0.00167037
-0.9849996,-0.001676808
-0.9859996,-0.001684778
-0.9869996,-0.00168723
-0.9879996,-0.001694587
-0.9889996,-0.001701331
-0.9899996,-0.001703477
-0.9909996,-0.001712674
-0.9919996,-0.001718498
-0.9929996,-0.00172095
-0.9939996,-0.001728614
-0.9949996,-0.001735665
-0.9959996,-0.001740263
-0.9969996,-0.001746087
-0.9979996,-0.001752831
-0.9989996,-0.001756203
-0.9999996,-0.001763561
-1.001,-0.001773064
-1.002,-0.001773677
-1.003,-0.00178318
-1.004,-0.001790537
-1.005,-0.001792989
-1.006,-0.001800653
-1.007,-0.00180801
-1.008,-0.001809543
-1.009,-0.001819046
-1.01,-0.00182579
-1.011,-0.001830388
-1.012,-0.001837439
-1.013,-0.001845409
-1.014,-0.001847248
-1.015,-0.001855832
-1.016,-0.001862269
-1.017,-0.001865335
-1.018,-0.00187729
-1.019,-0.001881275
-1.02,-0.001886487
-1.021,-0.001894457
-1.022,-0.001899361
-1.023,-0.001904879
-1.024,-0.001913769
-1.025,-0.001918981
-1.026,-0.001925112
-1.027,-0.001932469
-1.028,-0.001938293
-1.029,-0.001942278
-1.03,-0.001952394
-1.031,-0.001957606
-1.032,-0.001962204
-1.033,-0.001970787
-1.034,-0.001976612
-1.035,-0.001983049
-1.036,-0.001994391
-1.037,-0.001995618
-1.038,-0.002004201
-1.039,-0.002010945
-1.04,-0.002012171
-1.041,-0.002020754
-1.042,-0.002029951
-1.043,-0.002033936
-1.044,-0.002042213
-1.045,-0.002049877
-1.046,-0.002053862
-1.047,-0.002061219
-1.048,-0.002069802
-1.049,-0.002074094
-1.05,-0.002081144
-1.051,-0.002090341
-1.052,-0.002095552
-1.053,-0.002101377
-1.054,-0.002109654
-1.055,-0.002117317
-1.056,-0.002122528
-1.057,-0.002129886
-1.058,-0.002140002
-1.059,-0.00214368
-1.06,-0.00215349
-1.061,-0.00216146
-1.062,-0.002163299
-1.063,-0.002175561
-1.064,-0.002180466
-1.065,-0.002186597
-1.066,-0.002196407
-1.067,-0.002201005
-1.068,-0.002208362
-1.069,-0.002219091
-1.07,-0.002224916
-1.071,-0.00223166
-1.072,-0.002243615
-1.073,-0.002248213
-1.074,-0.002254344
-1.075,-0.002268139
-1.076,-0.002274577
-1.077,-0.002281627
-1.078,-0.002294196
-1.079,-0.002299713
-1.08,-0.002307377
-1.081,-0.002321478
-1.082,-0.002326383
-1.083,-0.002336806
-1.084,-0.002349068
-1.085,-0.002356425
-1.086,-0.002368687
-1.087,-0.002381255
-1.088,-0.002387386
-1.089,-0.002400261
-1.09,-0.002414363
-1.091,-0.002418961
-1.092,-0.002434901
-1.093,-0.00244655
-1.094,-0.002452068
-1.095,-0.002468008
-1.096,-0.002480577
-1.097,-0.002487934
-1.098,-0.002505101
-1.099,-0.002515523
-1.1,-0.002524107
-1.101,-0.002540354
-1.102,-0.002550163
-1.103,-0.00255936
-1.104,-0.002574381
-1.105,-0.002586029
-1.106,-0.002592774
-1.107,-0.002606262
-1.108,-0.002614539
-1.109,-0.002623122
-1.11,-0.002638143
-1.111,-0.002644887
-1.112,-0.002649178
-1.113,-0.002664812
-1.114,-0.002669717
-1.115,-0.002674929
-1.116,-0.002685351
-1.117,-0.002689643
-1.118,-0.002693628
-1.119,-0.002701598
-1.12,-0.002699452
-1.121,-0.002707116
-1.122,-0.00271386
-1.123,-0.002712327
-1.124,-0.002714473
-1.125,-0.002721831
-1.126,-0.002718458
-1.127,-0.002721831
-1.128,-0.002724896
-1.129,-0.002722444
-1.13,-0.00272275
-1.131,-0.002725815
-1.132,-0.002722137
-1.133,-0.002726735
-1.134,-0.002728574
-1.135,-0.002724896
-1.136,-0.002723976
-1.137,-0.002729494
-1.138,-0.002725815
-1.139,-0.002728574
-1.14,-0.00273072
-1.141,-0.002729801
-1.142,-0.002728268
-1.143,-0.002732866
-1.144,-0.002732866
-1.145,-0.002734092
-1.146,-0.00273869
-1.147,-0.00274145
-1.148,-0.002740836
-1.149,-0.002745741
-1.15,-0.002749113
-1.151,-0.002750033
-1.152,-0.002755857
-1.153,-0.002755244
-1.154,-0.002763828
-1.155,-0.002768119
-1.156,-0.002768426
-1.157,-0.002773944
-1.158,-0.002781607
-1.159,-0.00278222
-1.16,-0.002790497
-1.161,-0.002796935
-1.162,-0.002798468
-1.163,-0.002804292
-1.164,-0.002812262
-1.165,-0.002816554
-1.166,-0.002821765
-1.167,-0.002830655
-1.168,-0.00283556
-1.169,-0.002841078
-1.17,-0.002849661
-1.171,-0.002855485
-1.172,-0.002861616
-1.173,-0.002871733
-1.174,-0.00287725
-1.175,-0.002883075
-1.176,-0.002889819
-1.177,-0.002898402
-1.178,-0.00290484
-1.179,-0.002914036
-1.18,-0.002924765
-1.181,-0.002926298
-1.182,-0.002936721
-1.183,-0.002945917
-1.184,-0.002948983
-1.185,-0.002961551
-1.186,-0.002970441
-1.187,-0.002975652
-1.188,-0.002987608
-1.189,-0.002995578
-1.19,-0.003001709
-1.191,-0.002976467
-1.192,-0.002982598
-1.193,-0.002991794
-1.194,-0.003004056
-1.195,-0.003013253
-1.196,-0.003019383
-1.197,-0.003034711
-1.198,-0.003040842
-1.199,-0.003053104
-1.2,-0.003065366
-1.201,-0.003071497
-1.202,-0.003083759
-1.203,-0.003096021
-1.204,-0.003105217
-1.205,-0.003111348
-1.206,-0.003129741
-1.207,-0.003138937
-1.208,-0.003145068
-1.209,-0.003163461
-1.21,-0.003175723
-1.211,-0.003178789
-1.212,-0.003197182
-1.213,-0.003206378
-1.214,-0.003215575
-1.215,-0.003233967
-1.216,-0.003240098
-1.217,-0.003255426
-1.218,-0.003270753
-1.219,-0.00327995
-1.22,-0.003295277
-1.221,-0.003310604
-1.222,-0.003316735
-1.223,-0.003335128
-1.224,-0.00334739
-1.225,-0.003356587
-1.226,-0.003371914
-1.227,-0.003390307
-1.228,-0.003399503
-1.229,-0.003417896
-1.23,-0.003436289
-1.231,-0.003445486
-1.232,-0.003457748
-1.233,-0.00347614
-1.234,-0.003485337
-1.235,-0.00350373
-1.236,-0.003525188
-1.237,-0.003534385
-1.238,-0.003552777
-1.239,-0.003574236
-1.24,-0.003586498
-1.241,-0.003604891
-1.242,-0.003623284
-1.243,-0.003638611
-1.244,-0.003660069
-1.245,-0.003681528
-1.246,-0.003696855
-1.247,-0.003718314
-1.248,-0.003739772
-1.249,-0.00376123
-1.25,-0.003785754
-1.251,-0.003804147
-1.252,-0.003825605
-1.253,-0.003853195
-1.254,-0.003874653
-1.255,-0.003899177
-1.256,-0.003926767
-1.257,-0.00395129
-1.258,-0.003975814
-1.259,-0.004006469
-1.26,-0.004034058
-1.261,-0.004064713
-1.262,-0.004098434
-1.263,-0.004129088
-1.264,-0.004159743
-1.265,-0.004193463
-1.266,-0.004230249
-1.267,-0.00426397
-1.268,-0.004300755
-1.269,-0.004340607
-1.27,-0.004377393
-1.271,-0.004417243
-1.272,-0.00446016
-1.273,-0.004503077
-1.274,-0.004552125
-1.275,-0.004601172
-1.276,-0.004644089
-1.277,-0.004699268
-1.278,-0.004751381
-1.279,-0.004800429
-1.28,-0.004861739
-1.281,-0.004923048
-1.282,-0.004978227
-1.283,-0.005042602
-1.284,-0.005106977
-1.285,-0.005168287
-1.286,-0.005241858
-1.287,-0.005318495
-1.288,-0.005385936
-1.289,-0.005468704
-1.29,-0.005551472
-1.291,-0.005628109
-1.292,-0.005717008
-1.293,-0.005812038
-1.294,-0.005897872
-1.295,-0.005999033
-1.296,-0.006103259
-1.297,-0.006198289
-1.298,-0.006311711
-1.299,-0.006422069
-1.3,-0.006532426
-1.301,-0.006655046
-1.302,-0.006780731
-1.303,-0.006906416
-1.304,-0.007035166
-1.305,-0.007176178
-1.306,-0.007311059
-1.307,-0.007455137
-1.308,-0.007611477
-1.309,-0.00775862
-1.31,-0.007918024
-1.311,-0.008083561
-1.312,-0.008246032
-1.313,-0.008420764
-1.314,-0.008595496
-1.315,-0.008779425
-1.316,-0.008969485
-1.317,-0.00915648
-1.318,-0.009355736
-1.319,-0.009561123
-1.32,-0.009766511
-1.321,-0.009981094
-1.322,-0.01019874
-1.323,-0.01041946
-1.324,-0.01065244
-1.325,-0.01088235
-1.326,-0.01111532
-1.327,-0.01136056
-1.328,-0.01160887
-1.329,-0.01186024
-1.33,-0.01211467
-1.331,-0.01237524
-1.332,-0.01263887
-1.333,-0.01290863
-1.334,-0.01318452
-1.335,-0.01346042
-1.336,-0.01373938
-1.337,-0.0140306
-1.338,-0.01432182
-1.339,-0.0146161
-1.34,-0.01491346
-1.341,-0.01521694
-1.342,-0.01551429
-1.343,-0.01583004
-1.344,-0.01613965
-1.345,-0.0164462
-1.346,-0.01677114
-1.347,-0.01708382
-1.348,-0.01740569
-1.349,-0.01773677
-1.35,-0.01806171
-1.351,-0.01839278
-1.352,-0.01873305
-1.353,-0.01907332
-1.354,-0.01941665
-1.355,-0.01976612
-1.356,-0.02010025
-1.357,-0.02044358
-1.358,-0.02079918
-1.359,-0.02114558
-1.36,-0.02151344
-1.361,-0.0218721
-1.362,-0.02221544
-1.363,-0.02257716
-1.364,-0.02293582
-1.365,-0.02328835
-1.366,-0.02365928
-1.367,-0.02402407
-1.368,-0.02438273
-1.369,-0.02476898
-1.37,-0.02514297
-1.371,-0.02551083
-1.372,-0.02588788
-1.373,-0.02626494
-1.374,-0.02663586
-1.375,-0.02701598
-1.376,-0.02739304
-1.377,-0.02777928
-1.378,-0.02815941
-1.379,-0.02854259
-1.38,-0.02892884
-1.381,-0.02931509
-1.382,-0.02970441
-1.383,-0.03009372
-1.384,-0.03047998
-1.385,-0.03099086
-1.386,-0.03135872
-1.387,-0.03175723
-1.388,-0.03215575
-1.389,-0.03255426
-1.39,-0.03295277
-1.391,-0.03335128
-1.392,-0.0337498
-1.393,-0.03414831
-1.394,-0.03457748
-1.395,-0.03494534
-1.396,-0.0353745
-1.397,-0.03577302
-1.398,-0.03617153
-1.399,-0.03657004
-1.4,-0.03699921
-1.401,-0.03739772
-1.402,-0.03779623
-1.403,-0.0382254
-1.404,-0.03862391
-1.405,-0.03902243
-1.406,-0.0394516
-1.407,-0.03985011
-1.408,-0.04027928
-1.409,-0.04067779
-1.41,-0.0410763
-1.411,-0.04150547
-1.412,-0.04193464
-1.413,-0.04233315
-1.414,-0.04273166
-1.415,-0.04319149
-1.416,-0.04358999
-1.417,-0.04398851
-1.418,-0.04441768
-1.419,-0.04481619
-1.42,-0.04524536
-1.421,-0.04567453
-1.422,-0.04607304
-1.423,-0.04647155
-1.424,-0.04693137
-1.425,-0.04732988
-1.426,-0.04775905
-1.427,-0.04818822
-1.428,-0.04858673
-1.429,-0.0490159
-1.43,-0.04944507
-1.431,-0.04984358
-1.432,-0.05027274
-1.433,-0.05070192
-1.434,-0.05110043
-1.435,-0.05156025
-1.436,-0.05195877
-1.437,-0.05238793
-1.438,-0.0528171
-1.439,-0.05324627
-1.44,-0.05364478
-1.441,-0.05407395
-1.442,-0.05450311
-1.443,-0.05493228
-1.444,-0.05533079
-1.445,-0.05575996
-1.446,-0.05618913
-1.447,-0.0566183
-1.448,-0.05701681
-1.449,-0.05744598
-1.45,-0.05787515
-1.451,-0.05827365
-1.452,-0.05870283
-1.453,-0.05913199
-1.454,-0.0595305
-1.455,-0.05999033
-1.456,-0.0604195
-1.457,-0.06081801
-1.458,-0.06127783
-1.459,-0.06167634
-1.46,-0.06210551
-1.461,-0.06253468
-1.462,-0.06296384
-1.463,-0.06336236
-1.464,-0.06382218
-1.465,-0.06425135
-1.466,-0.06464987
-1.467,-0.06507903
-1.468,-0.06553885
-1.469,-0.06593736
-1.47,-0.06639718
-1.471,-0.0667957
-1.472,-0.06722487
-1.473,-0.06765404
-1.474,-0.0680832
-1.475,-0.06851237
-1.476,-0.06894153
-1.477,-0.06937071
-1.478,-0.06976922
-1.479,-0.07022905
-1.48,-0.07065821
-1.481,-0.07105672
-1.482,-0.07151654
-1.483,-0.07194571
-1.484,-0.07237487
-1.485,-0.07280405
-1.486,-0.07326387
-1.487,-0.07366238
-1.488,-0.07409155
-1.489,-0.07452071
-1.49,-0.07498054
-1.491,-0.0754097
-1.492,-0.07577756
-1.493,-0.07623739
-1.494,-0.07669721
-1.495,-0.07706507
-1.496,-0.07752489
-1.497,-0.07795405
-1.498,-0.07835257
-1.499,-0.07881239
-1.5,-0.07893501
-1.499001,-0.07850584
-1.498001,-0.07810733
-1.497001,-0.07767817
-1.496001,-0.07721835
-1.495001,-0.07681983
-1.494001,-0.07636001
-1.493001,-0.07590018
-1.492001,-0.07550167
-1.491001,-0.0750725
-1.490001,-0.07458203
-1.489001,-0.07415286
-1.488001,-0.07369304
-1.487001,-0.07323321
-1.486001,-0.0728347
-1.485001,-0.07234422
-1.484001,-0.0718844
-1.483001,-0.07148589
-1.482001,-0.07099541
-1.481001,-0.07056624
-1.480001,-0.07016773
-1.479001,-0.06967726
-1.478001,-0.06921744
-1.477001,-0.06878826
-1.476001,-0.0683591
-1.475001,-0.06789928
-1.474001,-0.0674701
-1.473001,-0.06701028
-1.472001,-0.06655046
-1.471001,-0.06615195
-1.470001,-0.06572279
-1.469001,-0.06526296
-1.468001,-0.06486445
-1.467001,-0.06440463
-1.466001,-0.06397545
-1.465001,-0.06351563
-1.464001,-0.06311712
-1.463001,-0.0626573
-1.462001,-0.06222813
-1.461001,-0.06179896
-1.460001,-0.0613698
-1.459001,-0.06094063
-1.458001,-0.06051146
-1.457001,-0.06005164
-1.456001,-0.05965312
-1.455001,-0.05922396
-1.454001,-0.05879479
-1.453001,-0.05839628
-1.452001,-0.05796711
-1.451001,-0.05750729
-1.450001,-0.05710877
-1.449001,-0.05667961
-1.448001,-0.05625044
-1.447001,-0.05582127
-1.446001,-0.05536145
-1.445001,-0.05496293
-1.444001,-0.05456442
-1.443001,-0.0541046
-1.442001,-0.05370609
-1.441001,-0.05327692
-1.440001,-0.05287841
-1.439001,-0.05244924
-1.438001,-0.05202007
-1.437001,-0.05159091
-1.436001,-0.05119239
-1.435001,-0.05076323
-1.434001,-0.05033405
-1.433001,-0.04993555
-1.432001,-0.04950638
-1.431001,-0.04907721
-1.430001,-0.0486787
-1.429001,-0.04824953
-1.428001,-0.04785102
-1.427001,-0.04745251
-1.426001,-0.04702334
-1.425001,-0.04662482
-1.424001,-0.04622631
-1.423001,-0.04579714
-1.422001,-0.04539863
-1.421001,-0.04500012
-1.420001,-0.0446016
-1.419001,-0.04417244
-1.418001,-0.04377393
-1.417001,-0.04337541
-1.416001,-0.04300755
-1.415001,-0.04257839
-1.414001,-0.04217988
-1.413001,-0.04178136
-1.412001,-0.04138285
-1.411001,-0.04101499
-1.410001,-0.04061648
-1.409001,-0.04021796
-1.408001,-0.03981945
-1.407001,-0.03939028
-1.406001,-0.03902243
-1.405001,-0.03862391
-1.404001,-0.03825606
-1.403001,-0.03785754
-1.402001,-0.03745903
-1.401001,-0.03706052
-1.400001,-0.03669266
-1.399001,-0.0363248
-1.398001,-0.03589563
-1.397001,-0.03555843
-1.396001,-0.03515992
-1.395001,-0.03476141
-1.394001,-0.03439355
-1.393001,-0.03402569
-1.392001,-0.03362718
-1.391001,-0.03325932
-1.390001,-0.03289146
-1.389001,-0.03249295
-1.388001,-0.03212509
-1.387001,-0.03175723
-1.386001,-0.03138937
-1.385001,-0.03105217
-1.384001,-0.03068431
-1.383001,-0.03031646
-1.382001,-0.0299486
-1.381001,-0.02958074
-1.380001,-0.02921288
-1.379001,-0.02884503
-1.378001,-0.02850782
-1.377001,-0.02813996
-1.376001,-0.0277721
-1.375001,-0.0274349
-1.374001,-0.02706704
-1.373001,-0.02672984
-1.372001,-0.02639264
-1.371001,-0.02605543
-1.370001,-0.02568758
-1.369001,-0.02535038
-1.368001,-0.02501317
-1.367001,-0.02467597
-1.366001,-0.02433877
-1.365001,-0.02400156
-1.364001,-0.0236337
-1.363001,-0.02332716
-1.362001,-0.0229593
-1.361001,-0.02265275
-1.360001,-0.0223462
-1.359001,-0.022009
-1.358001,-0.02170245
-1.357001,-0.02136525
-1.356001,-0.0210587
-1.355001,-0.0207215
-1.354001,-0.02041495
-1.353001,-0.0201084
-1.352001,-0.01980185
-1.351001,-0.0194953
-1.350001,-0.01918875
-1.349001,-0.01888221
-1.348001,-0.01857566
-1.347001,-0.01826911
-1.346001,-0.01796256
-1.345001,-0.01768667
-1.344001,-0.01741077
-1.343001,-0.01713488
-1.342001,-0.01682833
-1.341001,-0.01652178
-1.340001,-0.01624589
-1.339001,-0.01597
-1.338001,-0.01579018
-1.337001,-0.01552349
-1.336001,-0.01525986
-1.335001,-0.01499009
-1.334001,-0.01474179
-1.333001,-0.01449348
-1.332001,-0.01423905
-1.331001,-0.01399075
-1.330001,-0.01374551
-1.329001,-0.01348801
-1.328001,-0.01324583
-1.327001,-0.01300673
-1.326001,-0.01276762
-1.325001,-0.01253464
-1.324001,-0.01230167
-1.323001,-0.01207175
-1.322001,-0.0118541
-1.321001,-0.01162419
-1.320001,-0.01140348
-1.319001,-0.01119503
-1.318001,-0.01097738
-1.317001,-0.01076892
-1.316001,-0.01056967
-1.315001,-0.01037041
-1.314001,-0.01017729
-1.313001,-0.009987226
-1.312001,-0.009794099
-1.311001,-0.009607106
-1.310001,-0.009429308
-1.309001,-0.00925151
-1.308001,-0.009082908
-1.307001,-0.008911241
-1.306001,-0.008739574
-1.305001,-0.008580169
-1.304001,-0.008417699
-1.303001,-0.008255227
-1.302001,-0.008105019
-1.301001,-0.007957876
-1.300001,-0.007807667
-1.299001,-0.007663589
-1.298001,-0.007525643
-1.297001,-0.007387696
-1.296001,-0.007252815
-1.295001,-0.007120999
-1.294001,-0.006995314
-1.293001,-0.006869629
-1.292001,-0.006750076
-1.291001,-0.006630522
-1.290001,-0.006517099
-1.289001,-0.006406742
-1.288001,-0.006293319
-1.287001,-0.006189092
-1.286001,-0.006087931
-1.285001,-0.005983705
-1.284001,-0.005891741
-1.283001,-0.00579671
-1.282001,-0.005707812
-1.281001,-0.005618913
-1.280001,-0.005530014
-1.279001,-0.005447246
-1.278001,-0.005367543
-1.277001,-0.005287841
-1.276001,-0.005214269
-1.275001,-0.005140697
-1.274001,-0.00506406
-1.273001,-0.00499662
-1.272001,-0.004932245
-1.271001,-0.004864804
-1.270001,-0.004800429
-1.269001,-0.004739119
-1.268001,-0.004671679
-1.267001,-0.004622631
-1.266001,-0.004570518
-1.265001,-0.004506143
-1.264001,-0.00446016
-1.263001,-0.004414178
-1.262001,-0.004355934
-1.261001,-0.004309952
-1.260001,-0.00426397
-1.259001,-0.004214922
-1.258001,-0.00417507
-1.257001,-0.004132153
-1.256001,-0.004089237
-1.255001,-0.00404632
-1.254001,-0.004006469
-1.253001,-0.003969683
-1.252001,-0.003929832
-1.251001,-0.003896111
-1.250001,-0.003862391
-1.249001,-0.00382254
-1.248001,-0.003791885
-1.247001,-0.003758165
-1.246001,-0.00372751
-1.245001,-0.003696855
-1.244001,-0.003669266
-1.243001,-0.003635545
-1.242001,-0.003607956
-1.241001,-0.003580367
-1.240001,-0.003549712
-1.239001,-0.003525188
-1.238001,-0.003497599
-1.237001,-0.003473075
-1.236001,-0.003454682
-1.235001,-0.003420962
-1.234001,-0.003402569
-1.233001,-0.003378045
-1.232001,-0.003350456
-1.231001,-0.003332063
-1.230001,-0.003310604
-1.229001,-0.003283015
-1.228001,-0.003264622
-1.227001,-0.003243164
-1.226001,-0.003221706
-1.225001,-0.003203312
-1.224001,-0.003181854
-1.223001,-0.003163461
-1.222001,-0.003145068
-1.221001,-0.003126675
-1.220001,-0.003108283
-1.219001,-0.003089889
-1.218001,-0.003071497
-1.217001,-0.003053104
-1.216001,-0.003040842
-1.215001,-0.003022449
-1.214001,-0.003004056
-1.213001,-0.002988729
-1.212001,-0.002970336
-1.211001,-0.002955008
-1.210001,-0.002939681
-1.209001,-0.002924354
-1.208001,-0.002905961
-1.207001,-0.002893699
-1.206001,-0.002878371
-1.205001,-0.002859978
-1.204001,-0.002844651
-1.203001,-0.00283852
-1.202001,-0.002813996
-1.201001,-0.002807865
-1.200001,-0.002792538
-1.199001,-0.00277721
-1.198001,-0.002764949
-1.197001,-0.002749621
-1.196001,-0.002734293
-1.195001,-0.002725097
-1.194001,-0.00270977
-1.193001,-0.002697508
-1.192001,-0.002685246
-1.191001,-0.002669919
-1.190001,-0.002657657
-1.189001,-0.002645395
-1.188001,-0.002633133
-1.187001,-0.002620871
-1.186001,-0.002611674
-1.185001,-0.002596347
-1.184001,-0.00258102
-1.183001,-0.002577954
-1.182001,-0.002559561
-1.181001,-0.002550365
-1.180001,-0.002541168
-1.179001,-0.002525841
-1.178001,-0.002516645
-1.177001,-0.002504382
-1.176001,-0.00249212
-1.175001,-0.002482924
-1.174001,-0.002473728
-1.173001,-0.0024584
-1.172001,-0.002452269
-1.171001,-0.002440007
-1.170001,-0.002427745
-1.169001,-0.002421614
-1.168001,-0.002412418
-1.167001,-0.002400156
-1.166001,-0.002394025
-1.165001,-0.002381763
-1.164001,-0.002369501
-1.163001,-0.00236337
-1.162001,-0.002351108
-1.161001,-0.002341912
-1.160001,-0.002338846
-1.159001,-0.002323519
-1.158001,-0.002311257
-1.157001,-0.002311257
-1.156001,-0.002292864
-1.155001,-0.002286733
-1.154001,-0.002283668
-1.153001,-0.00226834
-1.152001,-0.002262209
-1.151001,-0.002253013
-1.150001,-0.002240751
-1.149001,-0.00223462
-1.148001,-0.002225423
-1.147001,-0.002213162
-1.146001,-0.002207031
-1.145001,-0.002194769
-1.144001,-0.002185572
-1.143001,-0.002179441
-1.142001,-0.002170245
-1.141001,-0.002157983
-1.140001,-0.002151852
-1.139001,-0.002145721
-1.138001,-0.002133459
-1.137001,-0.002127328
-1.136001,-0.002118132
-1.135001,-0.002108935
-1.134001,-0.002102804
-1.133001,-0.002093608
-1.132001,-0.002081346
-1.131001,-0.002075215
-1.130001,-0.002066019
-1.129001,-0.002056822
-1.128001,-0.002050691
-1.127001,-0.002041495
-1.126001,-0.002029233
-1.125001,-0.002026167
-1.124001,-0.002016971
-1.123001,-0.002007774
-1.122001,-0.002004709
-1.121001,-0.001992447
-1.120001,-0.001986316
-1.119001,-0.001980185
-1.118001,-0.001964858
-1.117001,-0.001958727
-1.116001,-0.001955661
-1.115001,-0.001940334
-1.114001,-0.001937268
-1.113001,-0.001928072
-1.112001,-0.00191581
-1.111001,-0.001909679
-1.110001,-0.001903548
-1.109001,-0.001891286
-1.108001,-0.00188209
-1.107001,-0.00188209
-1.106001,-0.001866762
-1.105001,-0.001860631
-1.104001,-0.0018545
-1.103001,-0.001839173
-1.102001,-0.001833042
-1.101001,-0.001826911
-1.100001,-0.001814649
-1.099001,-0.001808518
-1.098001,-0.001799321
-1.097001,-0.00178706
-1.096001,-0.001780929
-1.095001,-0.001771732
-1.094001,-0.001762536
-1.093001,-0.001753339
-1.092001,-0.001744143
-1.091001,-0.001731881
-1.090001,-0.001722684
-1.089001,-0.001716554
-1.088001,-0.001707357
-1.087001,-0.001698161
-1.086001,-0.001685899
-1.085001,-0.001676702
-1.084001,-0.001667506
-1.083001,-0.001661375
-1.082001,-0.001649113
-1.081001,-0.001639916
-1.080001,-0.00163072
-1.079001,-0.001624589
-1.078001,-0.001612327
-1.077001,-0.001638182
-1.076001,-0.001627453
-1.075001,-0.001616724
-1.074001,-0.001610286
-1.073001,-0.001597718
-1.072001,-0.001591894
-1.071001,-0.001582084
-1.070001,-0.001568596
-1.069001,-0.001564304
-1.068001,-0.001550509
-1.067001,-0.001543152
-1.066001,-0.001536715
-1.065001,-0.001524453
-1.064001,-0.00151495
-1.063001,-0.00150698
-1.062001,-0.001495331
-1.061001,-0.001487054
-1.060001,-0.001479697
-1.059001,-0.001470194
-1.058001,-0.001459771
-1.057001,-0.001451801
-1.056001,-0.001441992
-1.055001,-0.001430343
-1.054001,-0.001423599
-1.053001,-0.001414402
-1.052001,-0.001403366
-1.051001,-0.001396316
-1.050001,-0.001387119
-1.049001,-0.001377003
-1.048001,-0.00136934
-1.047001,-0.001361369
-1.046001,-0.001351866
-1.045001,-0.001342976
-1.044001,-0.001336539
-1.043001,-0.001323357
-1.042001,-0.001317226
-1.041001,-0.001309869
-1.040001,-0.001298527
-1.039001,-0.001293009
-1.038001,-0.001284426
-1.037001,-0.001274923
-1.036001,-0.001269098
-1.035001,-0.001259289
-1.034001,-0.001251318
-1.033001,-0.001245494
-1.032001,-0.001235684
-1.031001,-0.001228021
-1.030001,-0.001222196
-1.029001,-0.001214533
-1.028001,-0.001204417
-1.027001,-0.001199818
-1.026001,-0.00118817
-1.025001,-0.001182958
-1.024001,-0.00117744
-1.023001,-0.001168244
-1.022001,-0.001159661
-1.021001,-0.001157515
-1.020001,-0.001144946
-1.019001,-0.001140348
-1.018001,-0.001135137
-1.017001,-0.001125634
-1.016001,-0.001120729
-1.015001,-0.001114904
-1.014001,-0.001104175
-1.013001,-0.001100497
-1.012001,-0.001094366
-1.011001,-0.001085169
-1.010001,-0.001080264
-1.009001,-0.001073214
-1.008001,-0.001066163
-1.007001,-0.0010585
-1.006001,-0.001054514
-1.005001,-0.001045011
-1.004001,-0.0010398
-1.003001,-0.001035508
-1.002001,-0.001025699
-1.001001,-0.001020181
-1.000001,-0.001015889
-0.9990007,-0.001007613
-0.9980007,-0.001003014
-0.9970006,-0.0009971899
-0.9960006,-0.0009886065
-0.9950007,-0.0009818624
-0.9940007,-0.0009791035
-0.9930006,-0.0009702136
-0.9920006,-0.0009653088
-0.9910007,-0.0009604041
-0.9900007,-0.0009521273
-0.9890007,-0.000947529
-0.9880006,-0.0009404784
-0.9870006,-0.0009334278
-0.9860007,-0.0009291361
-0.9850007,-0.0009220855
-0.9840007,-0.0009147284
-0.9830006,-0.0009116629
-0.9820006,-0.0009033861
-0.9810007,-0.0008972551
-0.9800007,-0.0008923503
-0.9790006,-0.0008859128
-0.9780006,-0.0008782492
-0.9770007,-0.0008724247
-0.9760007,-0.0008675199
-0.9750007,-0.0008601628
-0.9740006,-0.0008555645
-0.9730006,-0.0008500467
-0.9720007,-0.0008402371
-0.9710007,-0.0008377847
-0.9700007,-0.0008310407
-0.9690006,-0.0008224574
-0.9680007,-0.0008178591
-0.9670007,-0.0008120347
-0.9660007,-0.0008031448
-0.9650006,-0.0007994662
-0.9640006,-0.0007930287
-0.9630007,-0.0007859781
-0.9620007,-0.0007798471
-0.9610007,-0.0007755554
-0.9600006,-0.0007666656
-0.9590006,-0.0007614543
-0.9580007,-0.0007574691
-0.9570007,-0.0007479661
-0.9560006,-0.0007445941
-0.9550006,-0.0007393828
-0.9540007,-0.000731106
-0.9530007,-0.0007262012
-0.9520007,-0.0007209898
-0.9510006,-0.0007127131
-0.9500006,-0.0007078083
-0.9490007,-0.0007019839
-0.9480007,-0.0006937071
-0.9470007,-0.0006903351
-0.9460006,-0.000683591
-0.9450006,-0.0006753142
-0.9440007,-0.0006719421
-0.9430007,-0.0006651981
-0.9420006,-0.0006587606
-0.9410006,-0.0006547754
-0.9400007,-0.0006452725
-0.9390007,-0.0006397546
-0.9380007,-0.0006357695
-0.9370006,-0.000626573
-0.9360006,-0.0006228944
-0.9350007,-0.0006173765
-0.9340007,-0.0006087932
-0.9330007,-0.0006051146
-0.9320006,-0.0005986771
-0.9310006,-0.0005910134
-0.9300007,-0.0005882545
-0.9290007,-0.00058243
-0.9280006,-0.0005738467
-0.9270006,-0.0005701681
-0.9260007,-0.0005643437
-0.9250007,-0.0005575996
-0.9240007,-0.0005526949
-0.9230006,-0.000547177
-0.9220006,-0.0005379805
-0.9210007,-0.0005349151
-0.9200007,-0.0005293972
-0.9190007,-0.0005226531
-0.9180006,-0.0005168287
-0.9170007,-0.0005122305
-0.9160007,-0.0005048733
-0.9150007,-0.0004999685
-0.9140006,-0.0004944507
-0.9130006,-0.0004861739
-0.9120007,-0.0004815757
-0.9110007,-0.0004769774
-0.9100007,-0.0004696203
-0.9090006,-0.0004631828
-0.9080006,-0.0004576649
-0.9070007,-0.0004524536
-0.9060007,-0.0004450964
-0.9050006,-0.0004404982
-0.9040006,-0.0004328345
-0.9030007,-0.0004279297
-0.9020007,-0.0004214922
-0.9010007,-0.0004135219
-0.9000006,-0.0004083106
-0.8990006,-0.0004021796
-0.8980007,-0.0003951291
-0.8970007,-0.0003911439
-0.8960007,-0.0003837868
-0.8950006,-0.0003761231
-0.8940006,-0.0003715248
-0.8930007,-0.0003647808
-0.8920007,-0.000356504
-0.8910006,-0.0003519058
-0.8900006,-0.0003445486
-0.8890007,-0.0003368849
-0.8880007,-0.0003338194
-0.8870007,-0.0003258491
-0.8860006,-0.0003172658
-0.8850006,-0.0003142003
-0.8840007,-0.0003050039
-0.8830007,-0.0002982598
-0.8820007,-0.0002927419
-0.8810006,-0.0002853848
-0.8800007,-0.0002777211
-0.8790007,-0.0002722032
-0.8780007,-0.0002617805
-0.8770006,-0.0002584085
-0.8760006,-0.0002513579
-0.8750007,-0.0002421615
-0.8740007,-0.0002369501
-0.8730007,-0.0002305126
-0.8720006,-0.00022009
-0.8710006,-0.0002151852
-0.8700007,-0.0002081346
-0.8690007,-0.0001986316
-0.8680006,-0.0001934203
-0.8670006,-0.0001857566
-0.8660007,-0.0001756405
-0.8650007,-0.0001698161
-0.8640007,-0.000163072
-0.8630006,-0.0001526494
-0.8620006,-0.0001462119
-0.8610007,-0.0001391612
-0.8600007,-0.0001314774
-0.8590007,-0.0001261741
-0.8580006,-0.0001190009
-0.8570006,-0.0001071681
-0.8560007,-0.0001030297
-0.8550007,-9.423176E-05
-0.8540006,-8.405436E-05
-0.8530006,-7.85365E-05
-0.8520007,-6.860433E-05
-0.8510007,-5.928526E-05
-0.8500007,-5.303168E-05
-0.8490006,-4.294624E-05
-0.8480006,-3.448551E-05
-0.8470007,-2.718966E-05
-0.8460007,-1.688964E-05
-0.8450007,-8.244981E-06
-0.8440006,-1.827616E-07
-0.8430007,9.688092E-06
-0.8420007,1.70759E-05
-0.8410007,2.578188E-05
-0.8400006,3.715482E-05
-0.8390006,4.46959E-05
-0.8380007,5.432152E-05
-0.8370007,6.538791E-05
-0.8360007,7.384864E-05
-0.8350006,8.197217E-05
-0.8340006,9.377428E-05
-0.8330007,0.0001014993
-0.8320007,0.0001113088
-0.8310006,0.0001228044
-0.8300006,0.0001308973
-0.8290007,0.0001400631
-0.8280007,0.0001517732
-0.8270007,0.0001601113
-0.8260006,0.0001690625
-0.8250006,0.0001811712
-0.8240007,0.0001903676
-0.8230007,0.0001991962
-0.8220007,0.0002115195
-0.8210006,0.0002200415
-0.8200006,0.0002299124
-0.8190007,0.0002432779
-0.8180007,0.0002519838
-0.8170006,0.0002623452
-0.8160006,0.0002726759
-0.8150007,0.0002819643
-0.8140007,0.0002915592
-0.8130007,0.0003062534
-0.8120006,0.0003163695
-0.8110006,0.0003249529
-0.8100007,0.000335682
-0.8090007,0.0003461047
-0.8080007,0.0003540749
-0.8070006,0.0003651107
-0.8060006,0.0003752268
-0.8050007,0.000383197
-0.8040007,0.0003957655
-0.8030006,0.0004046554
-0.8020006,0.0004135453
-0.8010007,0.0004251941
-0.8000007,0.0003690958
-0.8009993,0.0002893933
-0.8019994,0.0002348276
-0.8029994,0.0001870061
-0.8039994,0.0001440894
-0.8049994,0.0001079167
-0.8059993,6.704327E-05
-0.8069994,3.3231E-05
-0.8079994,5.580346E-06
-0.8089994,-2.792538E-05
-0.8099993,-5.468704E-05
-0.8109994,-7.899632E-05
-0.8119994,-0.0001079958
-0.8129994,-0.0001327342
-0.8139994,-0.0001544072
-0.8149993,-0.000180801
-0.8159994,-0.0002011864
-0.8169994,-0.0002213573
-0.8179994,-0.0002443178
-0.8189994,-0.0002652244
-0.8199994,-0.0002840158
-0.8209994,-0.0003019384
-0.8219994,-0.0003181854
-0.8229994,-0.0003362718
-0.8239993,-0.0003543581
-0.8249994,-0.0003706052
-0.8259994,-0.0003877719
-0.8269994,-0.0004043255
-0.8279994,-0.0004205726
-0.8289993,-0.0004355934
-0.8299994,-0.0004518405
-0.8309994,-0.0004644089
-0.8319994,-0.0004812691
-0.8329993,-0.0004972096
-0.8339994,-0.000509165
-0.8349994,-0.0005238793
-0.8359994,-0.0005389001
-0.8369994,-0.0005496293
-0.8379993,-0.0005643437
-0.8389994,-0.0005775253
-0.8399994,-0.0005894807
-0.8409994,-0.0006020491
-0.8419994,-0.0006158438
-0.8429993,-0.000626573
-0.8439994,-0.0006385284
-0.8449994,-0.0006514034
-0.8459994,-0.0006624392
-0.8469993,-0.000674088
-0.8479994,-0.0006863499
-0.8489994,-0.0006970791
-0.8499994,-0.0007081148
-0.8509994,-0.000718844
-0.8519993,-0.0007304929
-0.8529994,-0.0007409155
-0.8539994,-0.0007522578
-0.8549994,-0.0007626804
-0.8559994,-0.0007703441
-0.8569994,-0.0007832192
-0.8579994,-0.0007927222
-0.8589994,-0.0008013055
-0.8599994,-0.0008147936
-0.8609993,-0.0008227639
-0.8619994,-0.0008331866
-0.8629994,-0.0008445288
-0.8639994,-0.0008537253
-0.8649994,-0.0008607759
-0.8659993,-0.0008730378
-0.8669994,-0.000881008
-0.8679994,-0.0008889784
-0.8689994,-0.0009009338
-0.8699993,-0.000908904
-0.8709994,-0.0009187135
-0.8719994,-0.0009288296
-0.8729994,-0.0009358802
-0.8739994,-0.0009463029
-0.8749993,-0.0009551927
-0.8759994,-0.0009628565
-0.8769994,-0.000972666
-0.8779994,-0.0009818624
-0.8789994,-0.0009895262
-0.8799993,-0.0009981095
-0.8809994,-0.001008532
-0.8819994,-0.001015583
-0.8829994,-0.001023247
-0.8839993,-0.001034282
-0.8849994,-0.001039494
-0.8859994,-0.00104869
-0.8869994,-0.001059419
-0.8879994,-0.001064017
-0.8889993,-0.001074747
-0.8899994,-0.00108333
-0.8909994,-0.001088541
-0.8919994,-0.001098351
-0.8929994,-0.001106015
-0.8939994,-0.001112145
-0.8949994,-0.001119809
-0.8959994,-0.001129312
-0.8969994,-0.001136363
-0.8979993,-0.00114372
-0.8989994,-0.001152303
-0.8999994,-0.001159047
-0.9009994,-0.001163339
-0.9019994,-0.001174375
-0.9029993,-0.001181732
-0.9039994,-0.001188476
-0.9049994,-0.00119614
-0.9059994,-0.00120319
-0.9069993,-0.001209015
-0.9079994,-0.001218211
-0.9089994,-0.001224649
-0.9099994,-0.001230167
-0.9109994,-0.001239057
-0.9119993,-0.001243348
-0.9129994,-0.001251625
-0.9139994,-0.001260515
-0.9149994,-0.001264193
-0.9159994,-0.001273696
-0.9169993,-0.001280134
-0.9179994,-0.001285039
-0.9189994,-0.001293316
-0.9199994,-0.00129914
-0.9209993,-0.001304351
-0.9219994,-0.001312935
-0.9229994,-0.001319372
-0.9239994,-0.001324277
-0.9249994,-0.00133286
-0.9259993,-0.001338991
-0.9269994,-0.00134359
-0.9279994,-0.001352479
-0.9289994,-0.001358304
-0.9299994,-0.001362289
-0.9309993,-0.001370566
-0.9319994,-0.00137639
-0.9329994,-0.001381601
-0.9339994,-0.001388959
-0.9349993,-0.001396622
-0.9359994,-0.001399381
-0.9369994,-0.001408884
-0.9379994,-0.001415015
-0.9389994,-0.001417468
-0.9399993,-0.001428197
-0.9409994,-0.001432182
-0.9419994,-0.001437087
-0.9429994,-0.00144567
-0.9439994,-0.001449042
-0.9449994,-0.001455173
-0.9459994,-0.001464063
-0.9469994,-0.001466515
-0.9479994,-0.001473872
-0.9489993,-0.00148123
-0.9499994,-0.001485521
-0.9509994,-0.001491959
-0.9519994,-0.001497783
-0.9529994,-0.00150514
-0.9539993,-0.001509432
-0.9549994,-0.001518015
-0.9559994,-0.001522001
-0.9569994,-0.001528132
-0.9579993,-0.001534569
-0.9589994,-0.001537941
-0.9599994,-0.001544685
-0.9609994,-0.001552655
-0.9619994,-0.001556334
-0.9629993,-0.001564917
-0.9639994,-0.001571355
-0.9649994,-0.001575033
-0.9659994,-0.001581778
-0.9669994,-0.001589441
-0.9679993,-0.00159312
-0.9689994,-0.001599251
-0.9699994,-0.001607528
-0.9709994,-0.001611513
-0.9719993,-0.001618257
-0.9729994,-0.001625921
-0.9739994,-0.001629599
-0.9749994,-0.001635423
-0.9759994,-0.001643394
-0.9769993,-0.001650138
-0.9779994,-0.001655962
-0.9789994,-0.001663013
-0.9799994,-0.001666385
-0.9809994,-0.001673129
-0.9819994,-0.001680486
-0.9829994,-0.001686311
-0.9839994,-0.001691215
-0.9849994,-0.001700718
-0.9859993,-0.001704397
-0.9869994,-0.001710834
-0.9879994,-0.001719111
-0.9889994,-0.001724629
-0.9899994,-0.00173168
-0.9909993,-0.001740876
-0.9919994,-0.001744861
-0.9929994,-0.001748846
-0.9939994,-0.001760495
-0.9949993,-0.001762028
-0.9959994,-0.001771837
-0.9969994,-0.001779501
-0.9979994,-0.00178318
-0.9989994,-0.001790843
-0.9999993,-0.001797281
-1.000999,-0.001803718
-1.001999,-0.001812302
-1.002999,-0.001818739
-1.003999,-0.001823951
-1.004999,-0.001833147
-1.005999,-0.001839891
-1.006999,-0.001845102
-1.007999,-0.001853686
-1.008999,-0.001859204
-1.009999,-0.001864722
-1.010999,-0.001876677
-1.011999,-0.001881275
-1.012999,-0.001885873
-1.013999,-0.001897829
-1.014999,-0.001902734
-1.015999,-0.001908251
-1.016999,-0.001921127
-1.017999,-0.001925112
-1.018999,-0.001930629
-1.019999,-0.001941972
-1.020999,-0.001947796
-1.021999,-0.00195362
-1.022999,-0.001962817
-1.023999,-0.001968335
-1.024999,-0.001975385
-1.025999,-0.001986421
-1.026999,-0.001990406
-1.027999,-0.001997457
-1.028999,-0.002008799
-1.029999,-0.002012478
-1.030999,-0.002022287
-1.031999,-0.002030871
-1.032999,-0.002035469
-1.033999,-0.002044359
-1.034999,-0.002052942
-1.035999,-0.002058767
-1.036999,-0.002067043
-1.037999,-0.002075013
-1.038999,-0.002080532
-1.039999,-0.002087889
-1.040999,-0.002098618
-1.041999,-0.002104136
-1.042999,-0.002111186
-1.043999,-0.002123755
-1.044999,-0.002125287
-1.045999,-0.002136017
-1.046999,-0.00214552
-1.047999,-0.002150424
-1.048999,-0.002159621
-1.049999,-0.002168817
-1.050999,-0.002171883
-1.051999,-0.002184451
-1.052999,-0.002192728
-1.053999,-0.002197939
-1.054999,-0.002207136
-1.055999,-0.002214799
-1.056999,-0.00222185
-1.057999,-0.002234419
-1.058999,-0.002241163
-1.059999,-0.002246374
-1.060999,-0.002257716
-1.061999,-0.002264767
-1.062999,-0.002272431
-1.063999,-0.002281627
-1.064999,-0.002291743
-1.065999,-0.002298181
-1.066999,-0.002307683
-1.067999,-0.00231688
-1.068999,-0.002324544
-1.069999,-0.002333127
-1.070999,-0.002344163
-1.071999,-0.002351827
-1.072999,-0.002361943
-1.073999,-0.002372672
-1.074999,-0.002381868
-1.075999,-0.002391065
-1.076999,-0.0024021
-1.077999,-0.002411297
-1.078999,-0.002421106
-1.079999,-0.002431836
-1.080999,-0.002443485
-1.081999,-0.002453907
-1.082999,-0.00246525
-1.083999,-0.002475979
-1.084999,-0.002486095
-1.085999,-0.00249989
-1.086999,-0.002510006
-1.087999,-0.002520122
-1.088999,-0.002535449
-1.089999,-0.002546178
-1.090999,-0.002555068
-1.091999,-0.002569476
-1.092999,-0.002579899
-1.093999,-0.00259308
-1.094999,-0.002607181
-1.095999,-0.002614845
-1.096999,-0.002626187
-1.097999,-0.002643354
-1.098999,-0.002649485
-1.099999,-0.00266328
-1.100999,-0.002676768
-1.101999,-0.002681979
-1.102999,-0.002696387
-1.103999,-0.00270589
-1.104999,-0.002710488
-1.105999,-0.002723976
-1.106999,-0.002733479
-1.107999,-0.002737771
-1.108999,-0.002746048
-1.109999,-0.002752792
-1.110999,-0.002760455
-1.111999,-0.002762908
-1.112999,-0.002773331
-1.113999,-0.002776703
-1.114999,-0.002776703
-1.115999,-0.002786512
-1.116999,-0.002784673
-1.117999,-0.002789884
-1.118999,-0.002795402
-1.119999,-0.002792643
-1.120999,-0.002797854
-1.121999,-0.0028
-1.122999,-0.002794789
-1.123999,-0.002801839
-1.124999,-0.002801839
-1.125999,-0.002798161
-1.126999,-0.002804292
-1.127999,-0.002802146
-1.128999,-0.002797854
-1.129999,-0.002802146
-1.130999,-0.002800613
-1.131999,-0.002797548
-1.132999,-0.002801226
-1.133999,-0.002799694
-1.134999,-0.002798468
-1.135999,-0.002799387
-1.136999,-0.002798468
-1.137999,-0.002796935
-1.138999,-0.002800307
-1.139999,-0.002801226
-1.140999,-0.002799387
-1.141999,-0.002802146
-1.142999,-0.002805825
-1.143999,-0.002800613
-1.144999,-0.002808584
-1.145999,-0.00280981
-1.146999,-0.00280889
-1.147999,-0.00281778
-1.148999,-0.002815634
-1.149999,-0.00281778
-1.150999,-0.002825444
-1.151999,-0.002822991
-1.152999,-0.002828816
-1.153999,-0.002833721
-1.154999,-0.00283556
-1.155999,-0.00284261
-1.156999,-0.002849048
-1.157999,-0.002849661
-1.158999,-0.002855179
-1.159999,-0.002861616
-1.160999,-0.002866215
-1.161999,-0.002872039
-1.162999,-0.00287909
-1.163999,-0.002881849
-1.164999,-0.002890738
-1.165999,-0.00289595
-1.166999,-0.002899628
-1.167999,-0.002910358
-1.168999,-0.002918021
-1.169999,-0.00292078
-1.170999,-0.002931509
-1.171999,-0.002938254
-1.172999,-0.002941932
-1.173999,-0.002952968
-1.174999,-0.002961244
-1.175999,-0.002963697
-1.176999,-0.002974426
-1.177999,-0.002984542
-1.178999,-0.002987914
-1.179999,-0.002998644
-1.180999,-0.002973401
-1.181999,-0.002976467
-1.182999,-0.002985663
-1.183999,-0.002997925
-1.184999,-0.003004056
-1.185999,-0.003010187
-1.186999,-0.003022449
-1.187999,-0.003031645
-1.188999,-0.003037777
-1.189999,-0.003046973
-1.190999,-0.003059235
-1.191999,-0.0030623
-1.192999,-0.003077628
-1.193999,-0.003089889
-1.194999,-0.003092955
-1.195999,-0.003108283
-1.196999,-0.003117479
-1.197999,-0.003126675
-1.198999,-0.003138937
-1.199999,-0.003148134
-1.200999,-0.003160396
-1.201999,-0.003172658
-1.202999,-0.003181854
-1.203999,-0.003197182
-1.204999,-0.003209443
-1.205999,-0.00321864
-1.206999,-0.003230902
-1.207999,-0.003243164
-1.208999,-0.003255426
-1.209999,-0.003267688
-1.210999,-0.003283015
-1.211999,-0.003295277
-1.212999,-0.003304473
-1.213999,-0.003319801
-1.214999,-0.003335128
-1.215999,-0.003344325
-1.216999,-0.003362718
-1.217999,-0.003371914
-1.218999,-0.003387242
-1.219999,-0.003405634
-1.220999,-0.003414831
-1.221999,-0.003430158
-1.222999,-0.003448551
-1.223999,-0.003457748
-1.224999,-0.003479206
-1.225999,-0.003491468
-1.226999,-0.00350373
-1.227999,-0.003528254
-1.228999,-0.003543581
-1.229999,-0.003555843
-1.230999,-0.003580367
-1.231999,-0.003592629
-1.232999,-0.003604891
-1.233999,-0.003629415
-1.234999,-0.003647808
-1.235999,-0.0036662
-1.236999,-0.003687659
-1.237999,-0.003702986
-1.238999,-0.003721379
-1.239999,-0.003745903
-1.240999,-0.003764296
-1.241999,-0.003785754
-1.242999,-0.003813344
-1.243999,-0.003831736
-1.244999,-0.00385626
-1.245999,-0.003880784
-1.246999,-0.003905308
-1.247999,-0.003926767
-1.248999,-0.003957421
-1.249999,-0.003985011
-1.250999,-0.004009534
-1.251999,-0.004043255
-1.252999,-0.004070844
-1.253999,-0.004098434
-1.254999,-0.004135219
-1.255999,-0.004165874
-1.256999,-0.004196529
-1.257999,-0.00423638
-1.258999,-0.004270101
-1.259999,-0.00430382
-1.260999,-0.004343672
-1.261999,-0.004380458
-1.262999,-0.004423374
-1.263999,-0.004469357
-1.264999,-0.004509208
-1.265999,-0.004552125
-1.266999,-0.004607304
-1.267999,-0.00465022
-1.268999,-0.004702333
-1.269999,-0.004757512
-1.270999,-0.004809625
-1.271999,-0.004864804
-1.272999,-0.004923048
-1.273999,-0.004978227
-1.274999,-0.005039536
-1.275999,-0.005113108
-1.276999,-0.005174418
-1.277999,-0.005241858
-1.278999,-0.005318495
-1.279999,-0.005385936
-1.280999,-0.005465638
-1.281999,-0.005548407
-1.282999,-0.005628109
-1.283999,-0.005713942
-1.284999,-0.005805907
-1.285999,-0.005891741
-1.286999,-0.005989837
-1.287999,-0.006094063
-1.288999,-0.006192158
-1.289999,-0.006296384
-1.290999,-0.006409807
-1.291999,-0.006520165
-1.292999,-0.006636653
-1.293999,-0.006762337
-1.294999,-0.006881891
-1.295999,-0.007010642
-1.296999,-0.007154719
-1.297999,-0.007286535
-1.298999,-0.007430613
-1.299999,-0.007583887
-1.300999,-0.007724899
-1.301999,-0.00788737
-1.302999,-0.008052906
-1.303999,-0.008212311
-1.304999,-0.008380912
-1.305999,-0.008561776
-1.306999,-0.008733443
-1.307999,-0.008920438
-1.308999,-0.009113563
-1.309999,-0.009306688
-1.310999,-0.009502879
-1.311999,-0.009711332
-1.312999,-0.009916719
-1.313999,-0.01013437
-1.314999,-0.01035508
-1.315999,-0.01057886
-1.316999,-0.01080264
-1.317999,-0.01104175
-1.318999,-0.01127473
-1.319999,-0.01151077
-1.320999,-0.01176521
-1.321999,-0.01201351
-1.322999,-0.01226488
-1.323999,-0.01253464
-1.324999,-0.01279214
-1.325999,-0.01306497
-1.326999,-0.01334086
-1.327999,-0.01360756
-1.328999,-0.01388652
-1.329999,-0.01417468
-1.330999,-0.01446283
-1.331999,-0.01476018
-1.332999,-0.0150606
-1.333999,-0.01536102
-1.334999,-0.0156645
-1.335999,-0.01597718
-1.336999,-0.01628373
-1.337999,-0.01659641
-1.338999,-0.01691828
-1.339999,-0.01723403
-1.340999,-0.01754977
-1.341999,-0.01787471
-1.342999,-0.01819659
-1.343999,-0.01852153
-1.344999,-0.01885873
-1.345999,-0.01919287
-1.346999,-0.01952701
-1.347999,-0.01987341
-1.348999,-0.02021061
-1.349999,-0.02056007
-1.350999,-0.0209126
-1.351999,-0.02125594
-1.352999,-0.02160847
-1.353999,-0.021961
-1.354999,-0.02231046
-1.355999,-0.02266913
-1.356999,-0.02303085
-1.357999,-0.02339258
-1.358999,-0.02375431
-1.359999,-0.02412216
-1.360999,-0.02449002
-1.361999,-0.02485481
-1.362999,-0.02522574
-1.363999,-0.02559666
-1.364999,-0.02596452
-1.365999,-0.02634464
-1.366999,-0.02672476
-1.367999,-0.02708955
-1.368999,-0.02746967
-1.369999,-0.02784673
-1.370999,-0.02821152
-1.371999,-0.02860083
-1.372999,-0.02899322
-1.373999,-0.0293764
-1.374999,-0.02977492
-1.375999,-0.03016116
-1.376999,-0.03065366
-1.377999,-0.03105217
-1.378999,-0.03142003
-1.379999,-0.03181854
-1.380999,-0.03221706
-1.381999,-0.03261557
-1.382999,-0.03301408
-1.383999,-0.03341259
-1.384999,-0.0338111
-1.385999,-0.03420962
-1.386999,-0.03463879
-1.387999,-0.0350373
-1.388999,-0.03543581
-1.389999,-0.03583432
-1.390999,-0.03626349
-1.391999,-0.03663135
-1.392999,-0.03702986
-1.393999,-0.03745903
-1.394999,-0.03785754
-1.395999,-0.03828671
-1.396999,-0.03868522
-1.397999,-0.03908373
-1.398999,-0.03948225
-1.399999,-0.03991142
-1.400999,-0.04030993
-1.401999,-0.0407391
-1.402999,-0.04116827
-1.403999,-0.04153612
-1.404999,-0.04196529
-1.405999,-0.04239446
-1.406999,-0.04279297
-1.407999,-0.04322214
-1.408999,-0.04365131
-1.409999,-0.04404982
-1.410999,-0.04444833
-1.411999,-0.04484684
-1.412999,-0.04527601
-1.413999,-0.04570518
-1.414999,-0.04613435
-1.415999,-0.04656351
-1.416999,-0.04696203
-1.417999,-0.04736054
-1.418999,-0.04775905
-1.419999,-0.04821887
-1.420999,-0.04864804
-1.421999,-0.04904656
-1.422999,-0.04950638
-1.423999,-0.04990489
-1.424999,-0.0503034
-1.425999,-0.05076323
-1.426999,-0.05116174
-1.427999,-0.05159091
-1.428999,-0.05205073
-1.429999,-0.05244924
-1.430999,-0.05284775
-1.431999,-0.05330757
-1.432999,-0.05373674
-1.433999,-0.05413526
-1.434999,-0.05459508
-1.435999,-0.05499359
-1.436999,-0.05542276
-1.437999,-0.05585193
-1.438999,-0.0562811
-1.439999,-0.05671026
-1.440999,-0.05713943
-1.441999,-0.0575686
-1.442999,-0.05799776
-1.443999,-0.05839628
-1.444999,-0.05882544
-1.445999,-0.05925461
-1.446999,-0.05968378
-1.447999,-0.06011295
-1.448999,-0.06054211
-1.449999,-0.06097129
-1.450999,-0.06140045
-1.451999,-0.06182962
-1.452999,-0.06225879
-1.453999,-0.0626573
-1.454999,-0.06311712
-1.455999,-0.06354629
-1.456999,-0.0639448
-1.457999,-0.06440463
-1.458999,-0.06483379
-1.459999,-0.06526296
-1.460999,-0.06569213
-1.461999,-0.0661213
-1.462999,-0.06655046
-1.463999,-0.06697963
-1.464999,-0.06740879
-1.465999,-0.06783796
-1.466999,-0.06829779
-1.467999,-0.0686963
-1.468999,-0.06912547
-1.469999,-0.06958529
-1.470999,-0.0699838
-1.471999,-0.07041297
-1.472999,-0.07087279
-1.473999,-0.07130196
-1.474999,-0.07173113
-1.475999,-0.07219095
-1.476999,-0.07262012
-1.477999,-0.07304928
-1.478999,-0.0735091
-1.479999,-0.07390762
-1.480999,-0.07436744
-1.481999,-0.07479661
-1.482999,-0.07519513
-1.483999,-0.07562429
-1.484999,-0.07605346
-1.485999,-0.07651328
-1.486999,-0.07694244
-1.487999,-0.07737162
-1.488999,-0.07780078
-1.489999,-0.07822995
-1.490999,-0.07865912
-1.491999,-0.07908829
-1.492999,-0.07951745
-1.493999,-0.07997727
-1.494999,-0.08037578
-1.495999,-0.08083561
-1.496999,-0.08126478
-1.497999,-0.08169394
-1.498999,-0.08215377
-1.499999,-0.08227639
-1.499001,-0.08184722
-1.498001,-0.08141805
-1.497001,-0.08098888
-1.496001,-0.08052906
-1.495001,-0.0800999
-1.494001,-0.07970139
-1.493001,-0.07924156
-1.492001,-0.07878174
-1.491001,-0.07838323
-1.490001,-0.07789274
-1.489001,-0.07746358
-1.488001,-0.07700375
-1.487001,-0.07654393
-1.486001,-0.07611477
-1.485001,-0.07565495
-1.484001,-0.07522578
-1.483001,-0.07479661
-1.482001,-0.07433679
-1.481001,-0.07387697
-1.480001,-0.07344779
-1.479001,-0.07298797
-1.478001,-0.07255881
-1.477001,-0.07209899
-1.476001,-0.07163917
-1.475001,-0.07117934
-1.474001,-0.07075017
-1.473001,-0.07029035
-1.472001,-0.06983053
-1.471001,-0.06943201
-1.470001,-0.06897219
-1.469001,-0.06854302
-1.468001,-0.06811386
-1.467001,-0.06765404
-1.466001,-0.06722487
-1.465001,-0.06676505
-1.464001,-0.06630522
-1.463001,-0.0658454
-1.462001,-0.06544688
-1.461001,-0.06498706
-1.460001,-0.06452724
-1.459001,-0.06409808
-1.458001,-0.06366891
-1.457001,-0.06320909
-1.456001,-0.06281057
-1.455001,-0.06232009
-1.454001,-0.06189093
-1.453001,-0.06149241
-1.452001,-0.06103259
-1.451001,-0.06063408
-1.450001,-0.06017426
-1.449001,-0.05974509
-1.448001,-0.05934658
-1.447001,-0.05888676
-1.446001,-0.05845758
-1.445001,-0.05802842
-1.444001,-0.05759925
-1.443001,-0.05717008
-1.442001,-0.05674092
-1.441001,-0.0562811
-1.440001,-0.05585193
-1.439001,-0.05542276
-1.438001,-0.05499359
-1.437001,-0.05456442
-1.436001,-0.05413526
-1.435001,-0.05373674
-1.434001,-0.05327692
-1.433001,-0.05284775
-1.432001,-0.05241859
-1.431001,-0.05198942
-1.430001,-0.05159091
-1.429001,-0.05116174
-1.428001,-0.05073257
-1.427001,-0.05033405
-1.426001,-0.04993555
-1.425001,-0.04947572
-1.424001,-0.04907721
-1.423001,-0.04864804
-1.422001,-0.04821887
-1.421001,-0.04782036
-1.420001,-0.04739119
-1.419001,-0.04696203
-1.418001,-0.04656351
-1.417001,-0.046165
-1.416001,-0.04573583
-1.415001,-0.04530666
-1.414001,-0.04490815
-1.413001,-0.04450964
-1.412001,-0.04411113
-1.411001,-0.04371261
-1.410001,-0.0433141
-1.409001,-0.04291559
-1.408001,-0.04251708
-1.407001,-0.04208791
-1.406001,-0.04172005
-1.405001,-0.04132154
-1.404001,-0.04089237
-1.403001,-0.04052451
-1.402001,-0.04009534
-1.401001,-0.03966618
-1.400001,-0.03929832
-1.399001,-0.03889981
-1.398001,-0.03847064
-1.397001,-0.03810278
-1.396001,-0.03770427
-1.395001,-0.03730575
-1.394001,-0.0369379
-1.393001,-0.03653939
-1.392001,-0.03614087
-1.391001,-0.03574236
-1.390001,-0.0353745
-1.389001,-0.03497599
-1.388001,-0.03460813
-1.387001,-0.03424027
-1.386001,-0.0338111
-1.385001,-0.03347391
-1.384001,-0.03307539
-1.383001,-0.03270753
-1.382001,-0.03233967
-1.381001,-0.03194116
-1.380001,-0.03157331
-1.379001,-0.03120545
-1.378001,-0.03083759
-1.377001,-0.03046973
-1.376001,-0.03010187
-1.375001,-0.02973401
-1.374001,-0.0293355
-1.373001,-0.0289983
-1.372001,-0.02863044
-1.371001,-0.02829324
-1.370001,-0.02792538
-1.369001,-0.02755752
-1.368001,-0.02718966
-1.367001,-0.02685246
-1.366001,-0.02651526
-1.365001,-0.0261474
-1.364001,-0.0258102
-1.363001,-0.02544234
-1.362001,-0.02510513
-1.361001,-0.02473728
-1.360001,-0.02440007
-1.359001,-0.02406287
-1.358001,-0.02372567
-1.357001,-0.02335781
-1.356001,-0.02305126
-1.355001,-0.02271406
-1.354001,-0.02237686
-1.353001,-0.02207031
-1.352001,-0.0217331
-1.351001,-0.0213959
-1.350001,-0.02108935
-1.349001,-0.0207828
-1.348001,-0.0204456
-1.347001,-0.02013905
-1.346001,-0.01980185
-1.345001,-0.0194953
-1.344001,-0.01918875
-1.343001,-0.01888221
-1.342001,-0.01857566
-1.341001,-0.01826911
-1.340001,-0.01799322
-1.339001,-0.01768667
-1.338001,-0.01738012
-1.337001,-0.01707357
-1.336001,-0.01679768
-1.335001,-0.01649113
-1.334001,-0.01621523
-1.333001,-0.01593934
-1.332001,-0.01576566
-1.331001,-0.01548977
-1.330001,-0.01521387
-1.329001,-0.01494718
-1.328001,-0.01468968
-1.327001,-0.01442298
-1.326001,-0.01416854
-1.325001,-0.01391717
-1.324001,-0.01365967
-1.323001,-0.01341137
-1.322001,-0.01317226
-1.321001,-0.01293009
-1.320001,-0.01269098
-1.319001,-0.01245494
-1.318001,-0.01222196
-1.317001,-0.01199512
-1.316001,-0.01176521
-1.315001,-0.01154449
-1.314001,-0.01132684
-1.313001,-0.01110919
-1.312001,-0.01089767
-1.311001,-0.01068616
-1.310001,-0.01048077
-1.309001,-0.01027845
-1.308001,-0.01007919
-1.307001,-0.00988913
-1.306001,-0.009692939
-1.305001,-0.009512075
-1.304001,-0.009328146
-1.303001,-0.009144218
-1.302001,-0.008972551
-1.301001,-0.008797818
-1.300001,-0.008629217
-1.299001,-0.008466746
-1.298001,-0.008301211
-1.297001,-0.00813874
-1.296001,-0.007991596
-1.295001,-0.007832191
-1.294001,-0.007688113
-1.293001,-0.007550166
-1.292001,-0.007399958
-1.291001,-0.007265077
-1.290001,-0.007136327
-1.289001,-0.006995314
-1.288001,-0.006872695
-1.287001,-0.00674701
-1.286001,-0.006621325
-1.285001,-0.006504837
-1.284001,-0.00639448
-1.283001,-0.006277991
-1.282001,-0.006170699
-1.281001,-0.006069539
-1.280001,-0.005965312
-1.279001,-0.005867217
-1.278001,-0.005772187
-1.277001,-0.005677157
-1.276001,-0.005588258
-1.275001,-0.005502424
-1.274001,-0.005416591
-1.273001,-0.005333823
-1.272001,-0.00525412
-1.271001,-0.005174418
-1.270001,-0.005097781
-1.269001,-0.00503034
-1.268001,-0.004956769
-1.267001,-0.004886262
-1.266001,-0.004824953
-1.265001,-0.004757512
-1.264001,-0.004693137
-1.263001,-0.004634893
-1.262001,-0.004576649
-1.261001,-0.004518405
-1.260001,-0.004463226
-1.259001,-0.004411113
-1.258001,-0.004355934
-1.257001,-0.004309952
-1.256001,-0.00426397
-1.255001,-0.004211857
-1.254001,-0.004162808
-1.253001,-0.004122957
-1.252001,-0.004076975
-1.251001,-0.004034058
-1.250001,-0.003991141
-1.249001,-0.00395129
-1.248001,-0.003914505
-1.247001,-0.003877719
-1.246001,-0.003837867
-1.245001,-0.003804147
-1.244001,-0.003764296
-1.243001,-0.003730575
-1.242001,-0.003702986
-1.241001,-0.003669266
-1.240001,-0.003635545
-1.239001,-0.003611021
-1.238001,-0.003577302
-1.237001,-0.003546647
-1.236001,-0.003519057
-1.235001,-0.003491468
-1.234001,-0.003463879
-1.233001,-0.003439354
-1.232001,-0.003411765
-1.231001,-0.003384176
-1.230001,-0.003362718
-1.229001,-0.003335128
-1.228001,-0.003307539
-1.227001,-0.003289146
-1.226001,-0.003267688
-1.225001,-0.003240098
-1.224001,-0.00321864
-1.223001,-0.003200247
-1.222001,-0.003175723
-1.221001,-0.003154265
-1.220001,-0.003138937
-1.219001,-0.003111348
-1.218001,-0.003096021
-1.217001,-0.003077628
-1.216001,-0.003050038
-1.215001,-0.003037777
-1.214001,-0.003019383
-1.213001,-0.002997925
-1.212001,-0.002985663
-1.211001,-0.002964205
-1.210001,-0.002948877
-1.209001,-0.002930485
-1.208001,-0.002909026
-1.207001,-0.002896764
-1.206001,-0.002884502
-1.205001,-0.002863044
-1.204001,-0.002850782
-1.203001,-0.002835455
-1.202001,-0.002813996
-1.201001,-0.002801734
-1.200001,-0.002786407
-1.199001,-0.00277108
-1.198001,-0.002755752
-1.197001,-0.00274349
-1.196001,-0.002728163
-1.195001,-0.002715901
-1.194001,-0.002703639
-1.193001,-0.00268218
-1.192001,-0.002676049
-1.191001,-0.002660722
-1.190001,-0.002642329
-1.189001,-0.002633133
-1.188001,-0.002617805
-1.187001,-0.002605543
-1.186001,-0.002596347
-1.185001,-0.002577954
-1.184001,-0.002568757
-1.183001,-0.002556496
-1.182001,-0.002541168
-1.181001,-0.002528906
-1.180001,-0.00251971
-1.179001,-0.002504382
-1.178001,-0.002498251
-1.177001,-0.00248599
-1.176001,-0.002467597
-1.175001,-0.0024584
-1.174001,-0.002446138
-1.173001,-0.002433876
-1.172001,-0.00242468
-1.171001,-0.002415484
-1.170001,-0.002400156
-1.169001,-0.00239096
-1.168001,-0.002378698
-1.167001,-0.002369501
-1.166001,-0.002357239
-1.165001,-0.002351108
-1.164001,-0.002338846
-1.163001,-0.002326585
-1.162001,-0.002317388
-1.161001,-0.002308191
-1.160001,-0.00229593
-1.159001,-0.002286733
-1.158001,-0.002277537
-1.157001,-0.002265275
-1.156001,-0.002256078
-1.155001,-0.002246882
-1.154001,-0.00223462
-1.153001,-0.002225423
-1.152001,-0.002219293
-1.151001,-0.002207031
-1.150001,-0.002197834
-1.149001,-0.002191703
-1.148001,-0.002176376
-1.147001,-0.002167179
-1.146001,-0.002161048
-1.145001,-0.002148786
-1.144001,-0.00213959
-1.143001,-0.002133459
-1.142001,-0.002121197
-1.141001,-0.002112001
-1.140001,-0.00210587
-1.139001,-0.002090542
-1.138001,-0.002081346
-1.137001,-0.00207828
-1.136001,-0.002062953
-1.135001,-0.002059887
-1.134001,-0.002050691
-1.133001,-0.002038429
-1.132001,-0.002032298
-1.131001,-0.002026167
-1.130001,-0.00201084
-1.129001,-0.002007774
-1.128001,-0.001998578
-1.127001,-0.001986316
-1.126001,-0.001980185
-1.125001,-0.001974054
-1.124001,-0.001961792
-1.123001,-0.001958727
-1.122001,-0.00194953
-1.121001,-0.001937268
-1.120001,-0.001931137
-1.119001,-0.001921941
-1.118001,-0.001912744
-1.117001,-0.001909679
-1.116001,-0.001894351
-1.115001,-0.00188822
-1.114001,-0.00188209
-1.113001,-0.001869828
-1.112001,-0.001863697
-1.111001,-0.001857566
-1.110001,-0.001848369
-1.109001,-0.001839173
-1.108001,-0.001829976
-1.107001,-0.00182078
-1.106001,-0.001811583
-1.105001,-0.001805453
-1.104001,-0.00179319
-1.103001,-0.00178706
-1.102001,-0.001777863
-1.101001,-0.001765601
-1.100001,-0.00175947
-1.099001,-0.001750274
-1.098001,-0.001741077
-1.097001,-0.001734946
-1.096001,-0.001722684
-1.095001,-0.001713488
-1.094001,-0.001704292
-1.093001,-0.001698161
-1.092001,-0.001685899
-1.091001,-0.001676702
-1.090001,-0.001670571
-1.089001,-0.001655244
-1.088001,-0.001649113
-1.087001,-0.001639916
-1.086001,-0.00163072
-1.085001,-0.001621523
-1.084001,-0.001612327
-1.083001,-0.001600065
-1.082001,-0.001597
-1.081001,-0.001617644
-1.080001,-0.00160998
-1.079001,-0.001598944
-1.078001,-0.001591587
-1.077001,-0.001582697
-1.076001,-0.001571968
-1.075001,-0.001562158
-1.074001,-0.001550509
-1.073001,-0.001543766
-1.072001,-0.001534569
-1.071001,-0.001523227
-1.070001,-0.001517709
-1.069001,-0.001505447
-1.068001,-0.001496251
-1.067001,-0.001490426
-1.066001,-0.001479084
-1.065001,-0.001465902
-1.064001,-0.001460997
-1.063001,-0.001448429
-1.062001,-0.001438006
-1.061001,-0.001436474
-1.060001,-0.001421453
-1.059001,-0.00141195
-1.058001,-0.001407658
-1.057001,-0.001392637
-1.056001,-0.001384667
-1.055001,-0.001379456
-1.054001,-0.001366274
-1.053001,-0.001358304
-1.052001,-0.00135064
-1.051001,-0.001339298
-1.050001,-0.001331634
-1.049001,-0.001323051
-1.048001,-0.001313241
-1.047001,-0.001306804
-1.046001,-0.001297301
-1.045001,-0.001285039
-1.044001,-0.001277988
-1.043001,-0.001270324
-1.042001,-0.001260821
-1.041001,-0.001252545
-1.040001,-0.001244881
-1.039001,-0.001234765
-1.038001,-0.001226488
-1.037001,-0.001218518
-1.036001,-0.001209015
-1.035001,-0.001200125
-1.034001,-0.001194607
-1.033001,-0.001185717
-1.032001,-0.001174681
-1.031001,-0.00116947
-1.030001,-0.001160274
-1.029001,-0.001151384
-1.028001,-0.001147398
-1.027001,-0.001136363
-1.026001,-0.001130538
-1.025001,-0.001123488
-1.024001,-0.001112145
-1.023001,-0.001105708
-1.022001,-0.001099577
-1.021001,-0.001090994
-1.020001,-0.001082104
-1.019001,-0.001076586
-1.018001,-0.001068309
-1.017001,-0.001061872
-1.016001,-0.001057273
-1.015001,-0.001044092
-1.014001,-0.001042253
-1.013001,-0.001034895
-1.012001,-0.001022634
-1.011001,-0.001018955
-1.010001,-0.001012824
-1.009001,-0.001002401
-1.008001,-0.001000562
-1.007001,-0.0009916719
-1.006001,-0.0009827821
-1.005001,-0.000978797
-1.004001,-0.0009714398
-1.003001,-0.0009628565
-1.002001,-0.0009591779
-1.001001,-0.0009527404
-1.000001,-0.0009447701
-0.9990008,-0.0009401719
-0.9980009,-0.0009312819
-0.9970009,-0.0009260707
-0.9960009,-0.0009205528
-0.9950009,-0.0009128891
-0.9940009,-0.0009064515
-0.9930009,-0.0009018534
-0.9920009,-0.0008920438
-0.9910009,-0.0008874455
-0.9900008,-0.0008822342
-0.9890009,-0.000874264
-0.9880009,-0.0008690527
-0.9870009,-0.0008644544
-0.9860009,-0.0008549515
-0.9850008,-0.0008482074
-0.9840009,-0.0008451419
-0.9830009,-0.0008371716
-0.9820009,-0.0008307341
-0.9810008,-0.0008270555
-0.9800009,-0.0008184722
-0.9790009,-0.0008120347
-0.9780009,-0.0008092758
-0.9770009,-0.0007982401
-0.9760008,-0.0007945614
-0.9750009,-0.000788737
-0.9740009,-0.0007786209
-0.9730009,-0.0007752489
-0.9720009,-0.0007669721
-0.9710009,-0.0007614543
-0.9700009,-0.0007580822
-0.9690009,-0.0007488858
-0.9680009,-0.0007424483
-0.9670008,-0.0007393828
-0.9660009,-0.0007314125
-0.9650009,-0.0007243619
-0.9640009,-0.0007194571
-0.9630009,-0.0007108737
-0.9620008,-0.0007068887
-0.9610009,-0.0007019839
-0.9600009,-0.0006937071
-0.9590009,-0.0006881892
-0.9580009,-0.0006848171
-0.9570009,-0.0006759273
-0.9560009,-0.0006710225
-0.9550009,-0.0006661177
-0.9540009,-0.0006578409
-0.9530008,-0.0006526296
-0.9520009,-0.0006486445
-0.9510009,-0.0006382219
-0.9500009,-0.0006345432
-0.9490009,-0.000629945
-0.9480008,-0.0006201355
-0.9470009,-0.0006167634
-0.9460009,-0.0006115522
-0.9450009,-0.0006023557
-0.9440009,-0.0005995968
-0.9430009,-0.0005953051
-0.9420009,-0.0005836562
-0.9410009,-0.0005827366
-0.9400009,-0.0005759926
-0.9390008,-0.0005680223
-0.9380009,-0.0005643437
-0.9370009,-0.0005572931
-0.9360009,-0.0005487097
-0.9350009,-0.0005459508
-0.9340008,-0.0005401264
-0.9330009,-0.0005318496
-0.9320009,-0.0005287841
-0.9310009,-0.0005229597
-0.9300008,-0.0005156025
-0.9290009,-0.0005122305
-0.9280009,-0.0005039537
-0.9270009,-0.0004978227
-0.9260009,-0.0004944507
-0.9250008,-0.0004877066
-0.9240009,-0.000480656
-0.9230009,-0.0004769774
-0.9220009,-0.0004680876
-0.9210009,-0.0004628762
-0.9200009,-0.0004604238
-0.9190009,-0.000452147
-0.9180009,-0.000445403
-0.9170009,-0.000442644
-0.9160008,-0.0004349803
-0.9150009,-0.0004285428
-0.9140009,-0.0004251708
-0.9130009,-0.0004175071
-0.9120009,-0.0004132154
-0.9110008,-0.0004080041
-0.9100009,-0.0004003404
-0.9090009,-0.0003951291
-0.9080009,-0.0003886915
-0.9070009,-0.000382254
-0.9060009,-0.0003776558
-0.9050009,-0.0003706052
-0.9040009,-0.0003657004
-0.9030009,-0.0003601825
-0.9020008,-0.0003543581
-0.9010009,-0.000347001
-0.9000009,-0.0003417897
-0.8990009,-0.0003356587
-0.8980009,-0.0003286081
-0.8970008,-0.0003233968
-0.8960009,-0.0003187985
-0.8950009,-0.0003105217
-0.8940009,-0.0003046973
-0.8930008,-0.0002982598
-0.8920009,-0.0002912092
-0.8910009,-0.0002869175
-0.8900009,-0.0002786407
-0.8890009,-0.0002722032
-0.8880008,-0.0002672984
-0.8870009,-0.0002584085
-0.8860009,-0.0002531972
-0.8850009,-0.0002470662
-0.8840009,-0.0002397091
-0.8830009,-0.0002320454
-0.8820009,-0.0002253013
-0.8810009,-0.0002188638
-0.8800009,-0.0002108935
-0.8790008,-0.000204456
-0.8780009,-0.0001980185
-0.8770009,-0.0001912744
-0.8760009,-0.0001836107
-0.8750009,-0.0001765601
-0.8740008,-0.0001695095
-0.8730009,-0.0001639917
-0.8720009,-0.0001547952
-0.8710009,-0.0001480511
-0.8700009,-0.0001413071
-0.8690009,-0.0001353399
-0.8680009,-0.000128933
-0.8670009,-0.0001212693
-0.8660009,-0.0001136056
-0.8650008,-0.0001049916
-0.8640009,-9.92285E-05
-0.8630009,-8.966419E-05
-0.8620009,-8.258293E-05
-0.8610009,-7.70344E-05
-0.8600008,-6.544688E-05
-0.8590009,-6.023556E-05
-0.8580009,-5.272513E-05
-0.8570009,-4.178136E-05
-0.8560008,-3.568105E-05
-0.8550009,-2.764948E-05
-0.8540009,-1.728815E-05
-0.8530009,-1.18929E-05
-0.8520009,-1.715503E-06
-0.8510008,7.756838E-06
-0.8500009,1.474614E-05
-0.8490009,2.492354E-05
-0.8480009,3.3231E-05
-0.8470009,4.052684E-05
-0.8460009,5.113342E-05
-0.8450009,5.953284E-05
-0.8440009,6.744178E-05
-0.8430009,7.771115E-05
-0.8420008,8.546682E-05
-0.8410009,9.380493E-05
-0.8400009,0.0001058523
-0.8390009,0.0001121978
-0.8380009,0.000122222
-0.8370008,0.0001329818
-0.8360009,0.0001417491
-0.8350009,0.0001495967
-0.8340009,0.0001604485
-0.8330009,0.0001700435
-0.8320009,0.0001784736
-0.8310009,0.0001891108
-0.8300009,0.0001989816
-0.8290009,0.000206584
-0.8280008,0.000220532
-0.8270009,0.0002279811
-0.8260009,0.0002381278
-0.8250009,0.0002503285
-0.8240009,0.0002585133
-0.8230008,0.0002680163
-0.8220009,0.0002799104
-0.8210009,0.0002912325
-0.8200009,0.0003022683
-0.8190009,0.0003145302
-0.8180009,0.0003218873
-0.8170009,0.0003332296
-0.8160009,0.0003433457
-0.8150009,0.0003522356
-0.8140008,0.0003635779
-0.8130009,0.000373694
-0.8120009,0.0003835036
-0.8110009,0.0003936196
-0.8100009,0.0004037358
-0.8090008,0.0004135453
-0.8080009,0.000424581
-0.8070009,0.0004346971
-0.8060009,0.0004432805
-0.8050008,0.0004537031
-0.8040009,0.0004647389
-0.8030009,0.0004730157
-0.8020009,0.0004840514
-0.8010009,0.0004941675
-0.8000008,0.0004365364
-0.8009992,0.0003543815
-0.8019992,0.0002967504
-0.8029991,0.0002470896
-0.8039991,0.0002023335
-0.8049992,0.0001630954
-0.8059992,0.0001241637
-0.8069991,8.952378E-05
-0.8079991,5.450545E-05
-0.8089992,2.133693E-05
-0.8099992,-6.620275E-06
-0.8109992,-3.44242E-05
-0.8119991,-6.32704E-05
-0.8129991,-8.705854E-05
-0.8139992,-0.0001129925
-0.8149992,-0.0001372405
-0.8159992,-0.0001585456
-0.8169991,-0.0001821805
-0.8179991,-0.0002035469
-0.8189992,-0.0002263541
-0.8199992,-0.0002448389
-0.8209991,-0.0002651018
-0.8219991,-0.0002841384
-0.8229992,-0.0002997925
-0.8239992,-0.0003160396
-0.8249992,-0.0003344325
-0.8259991,-0.0003519058
-0.8269991,-0.0003678463
-0.8279992,-0.0003837868
-0.8289992,-0.00040126
-0.8299991,-0.0004162809
-0.8309991,-0.0004319148
-0.8319992,-0.0004469357
-0.8329992,-0.0004619566
-0.8339992,-0.0004757512
-0.8349991,-0.0004895459
-0.8359991,-0.0005048733
-0.8369992,-0.0005174418
-0.8379992,-0.000531543
-0.8389992,-0.0005459508
-0.8399991,-0.0005569865
-0.8409991,-0.0005701681
-0.8419992,-0.0005845759
-0.8429992,-0.0005956116
-0.8439991,-0.0006069539
-0.8449991,-0.000620442
-0.8459992,-0.0006314777
-0.8469992,-0.0006440463
-0.8479992,-0.0006547754
-0.8489991,-0.000667344
-0.8499991,-0.0006783796
-0.8509992,-0.0006897219
-0.8519992,-0.0007010642
-0.8529992,-0.0007117934
-0.8539991,-0.0007225226
-0.8549991,-0.0007332518
-0.8559992,-0.000743981
-0.8569992,-0.0007550167
-0.8579991,-0.0007657459
-0.8589991,-0.0007777013
-0.8599992,-0.0007859781
-0.8609992,-0.0007960942
-0.8619992,-0.0008065169
-0.8629991,-0.0008147936
-0.8639991,-0.0008261359
-0.8649992,-0.0008374782
-0.8659992,-0.0008442223
-0.8669991,-0.0008561776
-0.8679991,-0.0008656807
-0.8689992,-0.0008724247
-0.8699992,-0.0008846867
-0.8709992,-0.0008954158
-0.8719991,-0.0009012403
-0.8729991,-0.0009131957
-0.8739992,-0.0009208593
-0.8749992,-0.0009285231
-0.8759992,-0.0009413981
-0.8769991,-0.0009496749
-0.8779991,-0.000957032
-0.8789992,-0.0009671481
-0.8799992,-0.0009745053
-0.8809991,-0.0009833951
-0.8819991,-0.0009932048
-0.8829992,-0.001001482
-0.8839992,-0.001009758
-0.8849992,-0.001018648
-0.8859991,-0.001027232
-0.8869991,-0.001034895
-0.8879992,-0.001042866
-0.8889992,-0.001052062
-0.8899992,-0.001059726
-0.8909991,-0.001067696
-0.8919991,-0.001077812
-0.8929992,-0.001083943
-0.8939992,-0.001091607
-0.8949991,-0.001100497
-0.8959991,-0.001106934
-0.8969992,-0.001114291
-0.8979992,-0.001123794
-0.8989992,-0.001130232
-0.8999991,-0.001138202
-0.9009991,-0.001146172
-0.9019992,-0.00115261
-0.9029992,-0.001160274
-0.9039991,-0.001167937
-0.9049991,-0.001175908
-0.9059991,-0.001181732
-0.9069992,-0.001190928
-0.9079992,-0.001196446
-0.9089991,-0.001205336
-0.9099991,-0.001213306
-0.9109992,-0.001218211
-0.9119992,-0.001225568
-0.9129992,-0.001235071
-0.9139991,-0.001238443
-0.9149991,-0.001245801
-0.9159992,-0.001255304
-0.9169992,-0.001259595
-0.9179991,-0.001267566
-0.9189991,-0.001277068
-0.9199992,-0.001280134
-0.9209992,-0.00128933
-0.9219992,-0.001297301
-0.9229991,-0.001301286
-0.9239991,-0.00130895
-0.9249992,-0.001317839
-0.9259992,-0.00132397
-0.9269992,-0.001330408
-0.9279991,-0.001337765
-0.9289991,-0.00134359
-0.9299992,-0.001349414
-0.9309992,-0.001357691
-0.9319991,-0.001364128
-0.9329991,-0.001369033
-0.9339992,-0.001377616
-0.9349992,-0.001383134
-0.9359992,-0.001387732
-0.9369991,-0.001397235
-0.9379991,-0.001402753
-0.9389992,-0.001406125
-0.9399992,-0.001416548
-0.9409992,-0.001422066
-0.9419991,-0.001425744
-0.9429991,-0.001434021
-0.9439992,-0.001441378
-0.9449992,-0.001444137
-0.9459991,-0.001454866
-0.9469991,-0.001460078
-0.9479992,-0.001464983
-0.9489992,-0.00147234
-0.9499992,-0.001476938
-0.9509991,-0.001482456
-0.9519991,-0.001491959
-0.9529992,-0.001497783
-0.9539992,-0.001502382
-0.9549991,-0.001509739
-0.9559991,-0.00151587
-0.9569992,-0.001520468
-0.9579992,-0.001529664
-0.9589992,-0.001536408
-0.9599991,-0.001539474
-0.9609991,-0.001549283
-0.9619992,-0.001554495
-0.9629992,-0.00155848
-0.9639992,-0.001567983
-0.9649991,-0.001573807
-0.9659991,-0.001577792
-0.9669992,-0.001587908
-0.9679992,-0.001592507
-0.9689991,-0.001598638
-0.9699991,-0.001606914
-0.9709992,-0.001612739
-0.9719992,-0.001618563
-0.9729992,-0.001627147
-0.9739991,-0.001633278
-0.9749991,-0.001638182
-0.9759992,-0.001645846
-0.9769992,-0.001652897
-0.9779992,-0.001658415
-0.9789991,-0.001666998
-0.9799991,-0.001674048
-0.9809992,-0.001678034
-0.9819992,-0.001686311
-0.9829991,-0.001693974
-0.9839991,-0.001698879
-0.9849992,-0.001707156
-0.9859992,-0.001715433
-0.9869992,-0.001719724
-0.9879991,-0.001728614
-0.9889991,-0.001735665
-0.9899992,-0.001740876
-0.9909992,-0.001748846
-0.9919991,-0.001756817
-0.9929991,-0.001762948
-0.9939992,-0.001770918
-0.9949992,-0.001778275
-0.9959992,-0.001784712
-0.9969991,-0.001789924
-0.9979991,-0.00180096
-0.9989992,-0.001807397
-0.9999992,-0.001812915
-1.000999,-0.001823338
-1.001999,-0.001828855
-1.002999,-0.001834986
-1.003999,-0.001845715
-1.004999,-0.00185154
-1.005999,-0.001858897
-1.006999,-0.0018684
-1.007999,-0.001873305
-1.008999,-0.001884034
-1.009999,-0.001892617
-1.010999,-0.001895683
-1.011999,-0.001909171
-1.012999,-0.001916222
-1.013999,-0.001920207
-1.014999,-0.001932162
-1.015999,-0.001939213
-1.016999,-0.001945037
-1.017999,-0.001956073
-1.018999,-0.001962204
-1.019999,-0.001969561
-1.020999,-0.001980597
-1.021999,-0.001987034
-1.022999,-0.001993472
-1.023999,-0.002004201
-1.024999,-0.002012784
-1.025999,-0.002019222
-1.026999,-0.002027192
-1.027999,-0.002039148
-1.028999,-0.002043132
-1.029999,-0.002052635
-1.030999,-0.002062752
-1.031999,-0.002064591
-1.032999,-0.002078999
-1.033999,-0.002087275
-1.034999,-0.002092793
-1.035999,-0.002104136
-1.036999,-0.00211088
-1.037999,-0.002116397
-1.038999,-0.002128966
-1.039999,-0.002134484
-1.040999,-0.002143067
-1.041999,-0.002153797
-1.042999,-0.002158395
-1.043999,-0.00216943
-1.044999,-0.002178933
-1.045999,-0.002183838
-1.046999,-0.002194261
-1.047999,-0.002205603
-1.048999,-0.002211734
-1.049999,-0.002222157
-1.050999,-0.002231353
-1.051999,-0.002235338
-1.052999,-0.002250053
-1.053999,-0.002257103
-1.054999,-0.002263234
-1.055999,-0.002277029
-1.056999,-0.002285919
-1.057999,-0.002291437
-1.058999,-0.002305844
-1.059999,-0.002312895
-1.060999,-0.002320559
-1.061999,-0.002333127
-1.062999,-0.00234355
-1.063999,-0.002348761
-1.064999,-0.002360716
-1.065999,-0.002371446
-1.066999,-0.002375737
-1.067999,-0.002390758
-1.068999,-0.002400261
-1.069999,-0.002408232
-1.070999,-0.002422333
-1.071999,-0.00242877
-1.072999,-0.002441339
-1.073999,-0.002452681
-1.074999,-0.002461877
-1.075999,-0.002474446
-1.076999,-0.002483029
-1.077999,-0.002495291
-1.078999,-0.00250602
-1.079999,-0.00251583
-1.080999,-0.002528705
-1.081999,-0.002539434
-1.082999,-0.002552922
-1.083999,-0.002564571
-1.084999,-0.002576526
-1.085999,-0.002589402
-1.086999,-0.002598291
-1.087999,-0.00260994
-1.088999,-0.002624348
-1.089999,-0.002636303
-1.090999,-0.00264458
-1.091999,-0.002659908
-1.092999,-0.00267125
-1.093999,-0.00267922
-1.094999,-0.002692708
-1.095999,-0.002701905
-1.096999,-0.002713247
-1.097999,-0.002727348
-1.098999,-0.00273256
-1.099999,-0.002744821
-1.100999,-0.002756777
-1.101999,-0.002760762
-1.102999,-0.002773637
-1.103999,-0.002781301
-1.104999,-0.002785899
-1.105999,-0.002795095
-1.106999,-0.002801226
-1.107999,-0.002805211
-1.108999,-0.002813795
-1.109999,-0.002817474
-1.110999,-0.002819006
-1.111999,-0.002826057
-1.112999,-0.002828509
-1.113999,-0.002833107
-1.114999,-0.002837399
-1.115999,-0.00283556
-1.116999,-0.002837093
-1.117999,-0.002841078
-1.118999,-0.002837399
-1.119999,-0.002838625
-1.120999,-0.002842917
-1.121999,-0.002838932
-1.122999,-0.002838012
-1.123999,-0.00284261
-1.124999,-0.002837399
-1.125999,-0.002840158
-1.126999,-0.002840158
-1.127999,-0.002832801
-1.128999,-0.002834334
-1.129999,-0.002834334
-1.130999,-0.002831575
-1.131999,-0.002832801
-1.132999,-0.002832188
-1.133999,-0.002829122
-1.134999,-0.002829429
-1.135999,-0.002831268
-1.136999,-0.002828203
-1.137999,-0.002828509
-1.138999,-0.002830348
-1.139999,-0.002830655
-1.140999,-0.002830042
-1.141999,-0.002833107
-1.142999,-0.002836173
-1.143999,-0.002831575
-1.144999,-0.002841384
-1.145999,-0.002839238
-1.146999,-0.002836173
-1.147999,-0.002847209
-1.148999,-0.00284353
-1.149999,-0.002846289
-1.150999,-0.002856099
-1.151999,-0.002851807
-1.152999,-0.002858551
-1.153999,-0.002862843
-1.154999,-0.002862536
-1.155999,-0.002873572
-1.156999,-0.00287817
-1.157999,-0.00287817
-1.158999,-0.002890432
-1.159999,-0.002891045
-1.160999,-0.002895337
-1.161999,-0.002906986
-1.162999,-0.002910051
-1.163999,-0.002916489
-1.164999,-0.002925379
-1.165999,-0.002932123
-1.166999,-0.002933962
-1.167999,-0.002941932
-1.168999,-0.002953887
-1.169999,-0.00295542
-1.170999,-0.00296339
-1.171999,-0.00297412
-1.172999,-0.002979944
-1.173999,-0.002990367
-1.174999,-0.002993739
-1.175999,-0.002973401
-1.176999,-0.002979532
-1.177999,-0.002982598
-1.178999,-0.00299486
-1.179999,-0.003004056
-1.180999,-0.003004056
-1.181999,-0.003019383
-1.182999,-0.003025514
-1.183999,-0.00302858
-1.184999,-0.003040842
-1.185999,-0.003056169
-1.186999,-0.003059235
-1.187999,-0.003068431
-1.188999,-0.003083759
-1.189999,-0.003089889
-1.190999,-0.003099086
-1.191999,-0.003114413
-1.192999,-0.003117479
-1.193999,-0.003132806
-1.194999,-0.003142003
-1.195999,-0.003154265
-1.196999,-0.003163461
-1.197999,-0.003175723
-1.198999,-0.003184919
-1.199999,-0.003200247
-1.200999,-0.003209443
-1.201999,-0.003221706
-1.202999,-0.003233967
-1.203999,-0.003249295
-1.204999,-0.003258491
-1.205999,-0.003273819
-1.206999,-0.003286081
-1.207999,-0.003295277
-1.208999,-0.003316735
-1.209999,-0.003322866
-1.210999,-0.003335128
-1.211999,-0.003356587
-1.212999,-0.003365783
-1.213999,-0.003378045
-1.214999,-0.003396438
-1.215999,-0.003405634
-1.216999,-0.003420962
-1.217999,-0.00344242
-1.218999,-0.003451617
-1.219999,-0.003466944
-1.220999,-0.003488402
-1.221999,-0.003500664
-1.222999,-0.003515992
-1.223999,-0.003531319
-1.224999,-0.003543581
-1.225999,-0.003568105
-1.226999,-0.003583432
-1.227999,-0.003601825
-1.228999,-0.003620218
-1.229999,-0.003638611
-1.230999,-0.003653938
-1.231999,-0.003675397
-1.232999,-0.003696855
-1.233999,-0.003715248
-1.234999,-0.003733641
-1.235999,-0.003758165
-1.236999,-0.003776558
-1.237999,-0.003798016
-1.238999,-0.003825605
-1.239999,-0.003847064
-1.240999,-0.003871588
-1.241999,-0.003896111
-1.242999,-0.003911439
-1.243999,-0.003945159
-1.244999,-0.003972749
-1.245999,-0.003994207
-1.246999,-0.004027927
-1.247999,-0.004055517
-1.248999,-0.004083106
-1.249999,-0.004116826
-1.250999,-0.004150547
-1.251999,-0.004181202
-1.252999,-0.004217987
-1.253999,-0.004254773
-1.254999,-0.004282362
-1.255999,-0.004325279
-1.256999,-0.004362065
-1.257999,-0.004401916
-1.258999,-0.004441767
-1.259999,-0.004490815
-1.260999,-0.004527601
-1.261999,-0.004579714
-1.262999,-0.004625696
-1.263999,-0.004668613
-1.264999,-0.004729923
-1.265999,-0.00477897
-1.266999,-0.004824953
-1.267999,-0.004892393
-1.268999,-0.004944507
-1.269999,-0.005005816
-1.270999,-0.005076322
-1.271999,-0.005134566
-1.272999,-0.005202007
-1.273999,-0.005275579
-1.274999,-0.005339954
-1.275999,-0.005419657
-1.276999,-0.005502424
-1.277999,-0.005575996
-1.278999,-0.005661829
-1.279999,-0.005750729
-1.280999,-0.005833496
-1.281999,-0.005931592
-1.282999,-0.006029687
-1.283999,-0.006118587
-1.284999,-0.006228944
-1.285999,-0.006339301
-1.286999,-0.006440463
-1.287999,-0.006556951
-1.288999,-0.00667957
-1.289999,-0.006792993
-1.290999,-0.006921743
-1.291999,-0.007053559
-1.292999,-0.007182309
-1.293999,-0.007326386
-1.294999,-0.007470464
-1.295999,-0.007608411
-1.296999,-0.007767816
-1.297999,-0.007924155
-1.298999,-0.008080496
-1.299999,-0.008249097
-1.300999,-0.008420764
-1.301999,-0.008589366
-1.302999,-0.008773294
-1.303999,-0.008960289
-1.304999,-0.009144218
-1.305999,-0.009340408
-1.306999,-0.009539665
-1.307999,-0.009738921
-1.308999,-0.009950439
-1.309999,-0.01016809
-1.310999,-0.01037961
-1.311999,-0.01060645
-1.312999,-0.0108333
-1.313999,-0.01106014
-1.314999,-0.01130232
-1.315999,-0.01154449
-1.316999,-0.01178666
-1.317999,-0.0120411
-1.318999,-0.01229553
-1.319999,-0.01254997
-1.320999,-0.0128136
-1.321999,-0.01308336
-1.322999,-0.013347
-1.323999,-0.01362289
-1.324999,-0.01390185
-1.325999,-0.01418081
-1.326999,-0.01446283
-1.327999,-0.01475099
-1.328999,-0.01504221
-1.329999,-0.01533649
-1.330999,-0.01563691
-1.331999,-0.01594652
-1.332999,-0.01624694
-1.333999,-0.01655962
-1.334999,-0.01687537
-1.335999,-0.01718804
-1.336999,-0.01751912
-1.337999,-0.0178318
-1.338999,-0.01816287
-1.339999,-0.01849701
-1.340999,-0.01881582
-1.341999,-0.01914689
-1.342999,-0.01948409
-1.343999,-0.0198121
-1.344999,-0.02015237
-1.345999,-0.02049263
-1.346999,-0.02082677
-1.347999,-0.02117317
-1.348999,-0.0215257
-1.349999,-0.0218629
-1.350999,-0.02221237
-1.351999,-0.02257103
-1.352999,-0.02291436
-1.353999,-0.02328529
-1.354999,-0.02365928
-1.355999,-0.02400874
-1.356999,-0.02437353
-1.357999,-0.02473526
-1.358999,-0.02508779
-1.359999,-0.02546178
-1.360999,-0.02582657
-1.361999,-0.0261883
-1.362999,-0.02656842
-1.363999,-0.02693628
-1.364999,-0.02731333
-1.365999,-0.02769652
-1.366999,-0.02805824
-1.367999,-0.02843223
-1.368999,-0.02881848
-1.369999,-0.02919554
-1.370999,-0.02957566
-1.371999,-0.02996191
-1.372999,-0.03033283
-1.373999,-0.03083759
-1.374999,-0.0312361
-1.375999,-0.03160396
-1.376999,-0.03203313
-1.377999,-0.03240098
-1.378999,-0.0327995
-1.379999,-0.03319801
-1.380999,-0.03359652
-1.381999,-0.03399504
-1.382999,-0.03439355
-1.383999,-0.03479206
-1.384999,-0.03519057
-1.385999,-0.03561974
-1.386999,-0.03601825
-1.387999,-0.03638611
-1.388999,-0.03681528
-1.389999,-0.03721379
-1.390999,-0.0376123
-1.391999,-0.03804147
-1.392999,-0.03840933
-1.393999,-0.0388385
-1.394999,-0.03923701
-1.395999,-0.03966618
-1.396999,-0.04006469
-1.397999,-0.04049386
-1.398999,-0.04089237
-1.399999,-0.04132154
-1.400999,-0.04172005
-1.401999,-0.04214922
-1.402999,-0.04254773
-1.403999,-0.0429769
-1.404999,-0.04337541
-1.405999,-0.04380458
-1.406999,-0.04420309
-1.407999,-0.0446016
-1.408999,-0.04503077
-1.409999,-0.04542929
-1.410999,-0.04585845
-1.411999,-0.04625697
-1.412999,-0.04668614
-1.413999,-0.04708464
-1.414999,-0.04751381
-1.415999,-0.04794298
-1.416999,-0.04837215
-1.417999,-0.04877066
-1.418999,-0.04923048
-1.419999,-0.049629
-1.420999,-0.05005816
-1.421999,-0.05048734
-1.422999,-0.05088584
-1.423999,-0.05131501
-1.424999,-0.05177484
-1.425999,-0.05214269
-1.426999,-0.05260251
-1.427999,-0.05300103
-1.428999,-0.0534302
-1.429999,-0.05385936
-1.430999,-0.05431918
-1.431999,-0.0547177
-1.432999,-0.05514687
-1.433999,-0.05557603
-1.434999,-0.05597454
-1.435999,-0.05643437
-1.436999,-0.05686354
-1.437999,-0.0572927
-1.438999,-0.05772187
-1.439999,-0.05815104
-1.440999,-0.05854955
-1.441999,-0.05900937
-1.442999,-0.05943854
-1.443999,-0.05983705
-1.444999,-0.06026622
-1.445999,-0.06072604
-1.446999,-0.06115521
-1.447999,-0.06158438
-1.448999,-0.06201354
-1.449999,-0.06244272
-1.450999,-0.06287188
-1.451999,-0.06330105
-1.452999,-0.06369957
-1.453999,-0.06415939
-1.454999,-0.06461921
-1.455999,-0.06504837
-1.456999,-0.06547754
-1.457999,-0.06590671
-1.458999,-0.06633588
-1.459999,-0.06676505
-1.460999,-0.06719422
-1.461999,-0.06762338
-1.462999,-0.0680832
-1.463999,-0.06851237
-1.464999,-0.06894153
-1.465999,-0.06937071
-1.466999,-0.06979987
-1.467999,-0.07022905
-1.468999,-0.07068887
-1.469999,-0.07108738
-1.470999,-0.0715472
-1.471999,-0.07197636
-1.472999,-0.07240553
-1.473999,-0.07286536
-1.474999,-0.07329452
-1.475999,-0.0737237
-1.476999,-0.07415286
-1.477999,-0.07461268
-1.478999,-0.07504185
-1.479999,-0.07547101
-1.480999,-0.07590018
-1.481999,-0.07632935
-1.482999,-0.07675852
-1.483999,-0.07718769
-1.484999,-0.07764751
-1.485999,-0.07810733
-1.486999,-0.0785365
-1.487999,-0.07896566
-1.488999,-0.07942548
-1.489999,-0.07985466
-1.490999,-0.08028382
-1.491999,-0.08074365
-1.492999,-0.08114216
-1.493999,-0.08157133
-1.494999,-0.08203115
-1.495999,-0.08246031
-1.496999,-0.08288948
-1.497999,-0.08331865
-1.498999,-0.08377847
-1.499999,-0.08390109
-1.499001,-0.08350258
-1.498001,-0.08304276
-1.497001,-0.08261359
-1.496001,-0.08221508
-1.495001,-0.0817246
-1.494001,-0.08129543
-1.493001,-0.08089692
-1.492001,-0.08040644
-1.491001,-0.07997727
-1.490001,-0.07954811
-1.489001,-0.07905763
-1.488001,-0.07862847
-1.487001,-0.07816864
-1.486001,-0.07770882
-1.485001,-0.077249
-1.484001,-0.07681983
-1.483001,-0.07636001
-1.482001,-0.07590018
-1.481001,-0.07550167
-1.480001,-0.07504185
-1.479001,-0.07458203
-1.478001,-0.07415286
-1.477001,-0.07366238
-1.476001,-0.07323321
-1.475001,-0.07280405
-1.474001,-0.07234422
-1.473001,-0.07191505
-1.472001,-0.07145523
-1.471001,-0.07096475
-1.470001,-0.07056624
-1.469001,-0.07010642
-1.468001,-0.06967726
-1.467001,-0.06924809
-1.466001,-0.06875761
-1.465001,-0.06832844
-1.464001,-0.06789928
-1.463001,-0.0674701
-1.462001,-0.06701028
-1.461001,-0.06658112
-1.460001,-0.0661213
-1.459001,-0.06569213
-1.458001,-0.06526296
-1.457001,-0.06480314
-1.456001,-0.06434331
-1.455001,-0.06391414
-1.454001,-0.06348498
-1.453001,-0.06305581
-1.452001,-0.06262664
-1.451001,-0.06216682
-1.450001,-0.061707
-1.449001,-0.06130848
-1.448001,-0.06087932
-1.447001,-0.0604195
-1.446001,-0.05999033
-1.445001,-0.0595305
-1.444001,-0.05913199
-1.443001,-0.05870283
-1.442001,-0.058243
-1.441001,-0.05781383
-1.440001,-0.05738467
-1.439001,-0.0569555
-1.438001,-0.05652633
-1.437001,-0.05609716
-1.436001,-0.055668
-1.435001,-0.05523883
-1.434001,-0.05484032
-1.433001,-0.0543805
-1.432001,-0.05395133
-1.431001,-0.05352216
-1.430001,-0.05309299
-1.429001,-0.05269448
-1.428001,-0.05226531
-1.427001,-0.05183614
-1.426001,-0.05140698
-1.425001,-0.05097781
-1.424001,-0.0505793
-1.423001,-0.05015013
-1.422001,-0.04975162
-1.421001,-0.04929179
-1.420001,-0.04886262
-1.419001,-0.04849477
-1.418001,-0.0480656
-1.417001,-0.04763643
-1.416001,-0.04720726
-1.415001,-0.0467781
-1.414001,-0.04637958
-1.413001,-0.04598107
-1.412001,-0.04552125
-1.411001,-0.04515339
-1.410001,-0.04472422
-1.409001,-0.04432571
-1.408001,-0.0439272
-1.407001,-0.04352869
-1.406001,-0.04309952
-1.405001,-0.04270101
-1.404001,-0.04230249
-1.403001,-0.04190398
-1.402001,-0.04150547
-1.401001,-0.04110695
-1.400001,-0.04067779
-1.399001,-0.04027928
-1.398001,-0.03988076
-1.397001,-0.03948225
-1.396001,-0.03908373
-1.395001,-0.03868522
-1.394001,-0.03825606
-1.393001,-0.0378882
-1.392001,-0.03752034
-1.391001,-0.03709117
-1.390001,-0.03672331
-1.389001,-0.0363248
-1.388001,-0.03592629
-1.387001,-0.03552778
-1.386001,-0.03512926
-1.385001,-0.03473075
-1.384001,-0.03436289
-1.383001,-0.03399504
-1.382001,-0.03359652
-1.381001,-0.03322866
-1.380001,-0.03286081
-1.379001,-0.03249295
-1.378001,-0.03209443
-1.377001,-0.03172658
-1.376001,-0.03132806
-1.375001,-0.03099086
-1.374001,-0.03059235
-1.373001,-0.03022449
-1.372001,-0.02985664
-1.371001,-0.02948878
-1.370001,-0.02909026
-1.369001,-0.02872241
-1.368001,-0.0283852
-1.367001,-0.028048
-1.366001,-0.02768014
-1.365001,-0.02731228
-1.364001,-0.02694443
-1.363001,-0.02660722
-1.362001,-0.02623936
-1.361001,-0.02590216
-1.360001,-0.0255343
-1.359001,-0.0251971
-1.358001,-0.02482924
-1.357001,-0.02449204
-1.356001,-0.02415484
-1.355001,-0.02381763
-1.354001,-0.02348043
-1.353001,-0.02314323
-1.352001,-0.02280602
-1.351001,-0.02246882
-1.350001,-0.02213162
-1.349001,-0.02179441
-1.348001,-0.02148787
-1.347001,-0.02115066
-1.346001,-0.02081346
-1.345001,-0.02050691
-1.344001,-0.02020036
-1.343001,-0.01986316
-1.342001,-0.01955661
-1.341001,-0.01925006
-1.340001,-0.01894352
-1.339001,-0.01863697
-1.338001,-0.01833042
-1.337001,-0.01802387
-1.336001,-0.01774798
-1.335001,-0.01744143
-1.334001,-0.01713488
-1.333001,-0.01682833
-1.332001,-0.01652178
-1.331001,-0.01624589
-1.330001,-0.01597
-1.329001,-0.01577792
-1.328001,-0.01550509
-1.327001,-0.01524453
-1.326001,-0.01497477
-1.325001,-0.01471113
-1.324001,-0.01445057
-1.323001,-0.01419
-1.322001,-0.0139325
-1.321001,-0.01368726
-1.320001,-0.01342976
-1.319001,-0.01318759
-1.318001,-0.01294235
-1.317001,-0.01269405
-1.316001,-0.012458
-1.315001,-0.01222503
-1.314001,-0.01198592
-1.313001,-0.01175907
-1.312001,-0.01153836
-1.311001,-0.01131151
-1.310001,-0.0111
-1.309001,-0.01088848
-1.308001,-0.01067389
-1.307001,-0.01046851
-1.306001,-0.01027538
-1.305001,-0.01007306
-1.304001,-0.009879934
-1.303001,-0.009689873
-1.302001,-0.009499813
-1.301001,-0.00931895
-1.300001,-0.009141153
-1.299001,-0.008960289
-1.298001,-0.008788622
-1.297001,-0.00862002
-1.296001,-0.00845755
-1.295001,-0.008292013
-1.294001,-0.008132609
-1.293001,-0.007979334
-1.292001,-0.00782606
-1.291001,-0.007685048
-1.290001,-0.007537905
-1.289001,-0.007403024
-1.288001,-0.007262012
-1.287001,-0.00712713
-1.286001,-0.00699838
-1.285001,-0.006869629
-1.284001,-0.006740879
-1.283001,-0.006624391
-1.282001,-0.006510968
-1.281001,-0.006391414
-1.280001,-0.006281057
-1.279001,-0.006173765
-1.278001,-0.006066473
-1.277001,-0.005965312
-1.276001,-0.005870283
-1.275001,-0.005769121
-1.274001,-0.005674092
-1.273001,-0.005582127
-1.272001,-0.005496293
-1.271001,-0.005407395
-1.270001,-0.005327692
-1.269001,-0.005247989
-1.268001,-0.005168287
-1.267001,-0.005097781
-1.266001,-0.005015012
-1.265001,-0.004953703
-1.264001,-0.004883197
-1.263001,-0.004812691
-1.262001,-0.004751381
-1.261001,-0.004687006
-1.260001,-0.004619565
-1.259001,-0.004567452
-1.258001,-0.004509208
-1.257001,-0.004450964
-1.256001,-0.004398851
-1.255001,-0.004352869
-1.254001,-0.004300755
-1.253001,-0.004251707
-1.252001,-0.00420266
-1.251001,-0.004153612
-1.250001,-0.00410763
-1.249001,-0.004073909
-1.248001,-0.004027927
-1.247001,-0.003985011
-1.246001,-0.003948225
-1.245001,-0.003905308
-1.244001,-0.003865457
-1.243001,-0.003831736
-1.242001,-0.003794951
-1.241001,-0.003758165
-1.240001,-0.00372751
-1.239001,-0.00369379
-1.238001,-0.003663135
-1.237001,-0.003629415
-1.236001,-0.003595694
-1.235001,-0.003568105
-1.234001,-0.003531319
-1.233001,-0.00350373
-1.232001,-0.003479206
-1.231001,-0.003448551
-1.230001,-0.003427093
-1.229001,-0.003396438
-1.228001,-0.003368848
-1.227001,-0.00334739
-1.226001,-0.003322866
-1.225001,-0.003295277
-1.224001,-0.003273819
-1.223001,-0.003249295
-1.222001,-0.003227836
-1.221001,-0.003206378
-1.220001,-0.003181854
-1.219001,-0.003160396
-1.218001,-0.003145068
-1.217001,-0.003117479
-1.216001,-0.003099086
-1.215001,-0.003080693
-1.214001,-0.003056169
-1.213001,-0.003043907
-1.212001,-0.003025514
-1.211001,-0.003000991
-1.210001,-0.002985663
-1.209001,-0.002973401
-1.208001,-0.002945812
-1.207001,-0.00293355
-1.206001,-0.002915157
-1.205001,-0.002890633
-1.204001,-0.002878371
-1.203001,-0.00286611
-1.202001,-0.002841586
-1.201001,-0.002829324
-1.200001,-0.002820127
-1.199001,-0.002795603
-1.198001,-0.002783341
-1.197001,-0.00277108
-1.196001,-0.002746556
-1.195001,-0.002737359
-1.194001,-0.002722032
-1.193001,-0.002703639
-1.192001,-0.002694442
-1.191001,-0.002676049
-1.190001,-0.002657657
-1.189001,-0.002651526
-1.188001,-0.002633133
-1.187001,-0.002617805
-1.186001,-0.002608609
-1.185001,-0.002593281
-1.184001,-0.002577954
-1.183001,-0.002565692
-1.182001,-0.002550365
-1.181001,-0.002535037
-1.180001,-0.002525841
-1.179001,-0.002510513
-1.178001,-0.002498251
-1.177001,-0.00248599
-1.176001,-0.002470662
-1.175001,-0.0024584
-1.174001,-0.002449204
-1.173001,-0.002436942
-1.172001,-0.002421614
-1.171001,-0.002409352
-1.170001,-0.002403222
-1.169001,-0.002384829
-1.168001,-0.002378698
-1.167001,-0.002366436
-1.166001,-0.002354174
-1.165001,-0.002341912
-1.164001,-0.002326585
-1.163001,-0.002317388
-1.162001,-0.002311257
-1.161001,-0.00229593
-1.160001,-0.002286733
-1.159001,-0.002277537
-1.158001,-0.002265275
-1.157001,-0.002253013
-1.156001,-0.002243817
-1.155001,-0.00223462
-1.154001,-0.002222358
-1.153001,-0.002213162
-1.152001,-0.0022009
-1.151001,-0.002191703
-1.150001,-0.002182507
-1.149001,-0.002167179
-1.148001,-0.002161048
-1.147001,-0.002148786
-1.146001,-0.00213959
-1.145001,-0.002133459
-1.144001,-0.002121197
-1.143001,-0.002108935
-1.142001,-0.002099739
-1.141001,-0.002090542
-1.140001,-0.00207828
-1.139001,-0.002072149
-1.138001,-0.002062953
-1.137001,-0.002050691
-1.136001,-0.002041495
-1.135001,-0.002035364
-1.134001,-0.002023102
-1.133001,-0.002013905
-1.132001,-0.002004709
-1.131001,-0.001992447
-1.130001,-0.001989381
-1.129001,-0.00197712
-1.128001,-0.001964858
-1.127001,-0.001958727
-1.126001,-0.00194953
-1.125001,-0.001940334
-1.124001,-0.001931137
-1.123001,-0.001921941
-1.122001,-0.001909679
-1.121001,-0.001903548
-1.120001,-0.001891286
-1.119001,-0.001885155
-1.118001,-0.00188209
-1.117001,-0.001869828
-1.116001,-0.001860631
-1.115001,-0.0018545
-1.114001,-0.001839173
-1.113001,-0.001833042
-1.112001,-0.001826911
-1.111001,-0.001814649
-1.110001,-0.001808518
-1.109001,-0.001799321
-1.108001,-0.001783994
-1.107001,-0.001780929
-1.106001,-0.001771732
-1.105001,-0.00175947
-1.104001,-0.001753339
-1.103001,-0.001744143
-1.102001,-0.001731881
-1.101001,-0.001728815
-1.100001,-0.001716554
-1.099001,-0.001701226
-1.098001,-0.001701226
-1.097001,-0.001685899
-1.096001,-0.001676702
-1.095001,-0.001670571
-1.094001,-0.001658309
-1.093001,-0.001649113
-1.092001,-0.001642982
-1.091001,-0.00163072
-1.090001,-0.001624589
-1.089001,-0.001615393
-1.088001,-0.001603131
-1.087001,-0.00162684
-1.086001,-0.001622242
-1.085001,-0.001613965
-1.084001,-0.001602623
-1.083001,-0.001596185
-1.082001,-0.001585456
-1.081001,-0.001573807
-1.080001,-0.001571355
-1.079001,-0.001556641
-1.078001,-0.001548364
-1.077001,-0.001541313
-1.076001,-0.001525986
-1.075001,-0.001518322
-1.074001,-0.001512191
-1.073001,-0.001499316
-1.072001,-0.001494105
-1.071001,-0.001483989
-1.070001,-0.001472646
-1.069001,-0.001465289
-1.068001,-0.001453947
-1.067001,-0.001443831
-1.066001,-0.001439846
-1.065001,-0.001427584
-1.064001,-0.001416241
-1.063001,-0.00141103
-1.062001,-0.001399381
-1.061001,-0.001389265
-1.060001,-0.001381908
-1.059001,-0.001370872
-1.058001,-0.001363209
-1.057001,-0.001355238
-1.056001,-0.001343283
-1.055001,-0.001335926
-1.054001,-0.001328262
-1.053001,-0.001318146
-1.052001,-0.001306804
-1.051001,-0.001299753
-1.050001,-0.00129117
-1.049001,-0.00128044
-1.048001,-0.00127431
-1.047001,-0.001264807
-1.046001,-0.001251625
-1.045001,-0.00124764
-1.044001,-0.001237217
-1.043001,-0.001226488
-1.042001,-0.001221583
-1.041001,-0.001209015
-1.040001,-0.001201045
-1.039001,-0.001193994
-1.038001,-0.001184184
-1.037001,-0.001175908
-1.036001,-0.001168244
-1.035001,-0.001159047
-1.034001,-0.001149238
-1.033001,-0.00114372
-1.032001,-0.001135137
-1.031001,-0.001123488
-1.030001,-0.001115211
-1.029001,-0.001109693
-1.028001,-0.001099577
-1.027001,-0.001093753
-1.026001,-0.001083637
-1.025001,-0.001074747
-1.024001,-0.001069842
-1.023001,-0.001060032
-1.022001,-0.001050836
-1.021001,-0.001047464
-1.020001,-0.001037041
-1.019001,-0.001028458
-1.018001,-0.00102202
-1.017001,-0.001013131
-1.016001,-0.001007613
-1.015001,-0.0009996422
-1.014001,-0.0009898327
-1.013001,-0.000984928
-1.012001,-0.0009766511
-1.011001,-0.0009683743
-1.010001,-0.0009628565
-1.009001,-0.0009548862
-1.008001,-0.0009466094
-1.007001,-0.000940785
-1.006001,-0.0009343475
-1.005001,-0.0009276034
-1.004001,-0.00091902
-1.003001,-0.0009150349
-1.002001,-0.0009070646
-1.001001,-0.0008987879
-1.000001,-0.0008957224
-0.9990011,-0.0008846867
-0.9980011,-0.0008813146
-0.9970011,-0.0008776361
-0.9960011,-0.0008653741
-0.9950011,-0.0008620021
-0.9940011,-0.0008567907
-0.9930011,-0.0008454485
-0.9920011,-0.0008426895
-0.9910011,-0.0008356389
-0.9900011,-0.0008258293
-0.9890011,-0.0008221508
-0.9880011,-0.0008160198
-0.9870011,-0.0008080496
-0.9860011,-0.0008025317
-0.9850011,-0.0007973204
-0.9840011,-0.0007896567
-0.9830011,-0.000781993
-0.9820011,-0.0007764751
-0.9810011,-0.00077249
-0.9800011,-0.0007639066
-0.9790011,-0.0007565495
-0.9780011,-0.0007528709
-0.9770011,-0.0007452072
-0.9760011,-0.0007384631
-0.9750011,-0.0007338649
-0.9740011,-0.0007274274
-0.9730011,-0.0007197637
-0.9720011,-0.0007136327
-0.9710011,-0.0007078083
-0.9700011,-0.0007032101
-0.9690011,-0.0006946267
-0.9680011,-0.0006912547
-0.9670011,-0.0006832844
-0.9660011,-0.0006777665
-0.9650011,-0.0006722487
-0.9640011,-0.0006627457
-0.9630011,-0.0006590671
-0.9620011,-0.0006547754
-0.9610011,-0.0006458855
-0.9600011,-0.0006412873
-0.9590011,-0.0006354629
-0.9580011,-0.0006271861
-0.9570011,-0.000623201
-0.9560011,-0.0006164569
-0.9550011,-0.0006106325
-0.9540011,-0.0006026622
-0.9530011,-0.0005999033
-0.9520011,-0.0005916265
-0.9510011,-0.0005858021
-0.9500011,-0.0005812038
-0.9490011,-0.0005732336
-0.9480011,-0.0005671026
-0.9470011,-0.0005618913
-0.9460011,-0.0005545341
-0.9450011,-0.0005511622
-0.9440011,-0.000543805
-0.9430011,-0.0005370609
-0.9420011,-0.0005330758
-0.9410011,-0.0005272513
-0.9400011,-0.000518668
-0.9390011,-0.0005146828
-0.9380011,-0.0005070192
-0.9370011,-0.0005008882
-0.9360011,-0.0004987424
-0.9350011,-0.0004904656
-0.9340011,-0.0004843346
-0.9330011,-0.0004824953
-0.9320011,-0.0004705399
-0.9310011,-0.0004671679
-0.9300011,-0.0004644089
-0.9290011,-0.0004545994
-0.9280011,-0.0004503077
-0.9270011,-0.0004457095
-0.9260011,-0.0004377393
-0.9250011,-0.0004337541
-0.9240011,-0.0004282363
-0.9230011,-0.0004199595
-0.9220011,-0.0004147482
-0.9210011,-0.0004116826
-0.9200011,-0.0004034059
-0.9190011,-0.0004006469
-0.9180011,-0.0003957421
-0.9170011,-0.000388385
-0.9160011,-0.0003837868
-0.9150011,-0.0003779623
-0.9140011,-0.0003699921
-0.9130011,-0.0003657004
-0.9120011,-0.0003611022
-0.9110011,-0.0003543581
-0.9100011,-0.0003485337
-0.9090011,-0.0003439355
-0.9080011,-0.0003356587
-0.9070011,-0.0003325932
-0.9060011,-0.0003267688
-0.9050011,-0.0003187985
-0.9040011,-0.0003142003
-0.9030011,-0.0003086824
-0.9020011,-0.0003010187
-0.9010011,-0.0002970336
-0.9000011,-0.000289983
-0.8990011,-0.0002832389
-0.8980011,-0.0002792538
-0.8970011,-0.0002715901
-0.8960011,-0.0002654591
-0.8950011,-0.0002602478
-0.8940011,-0.0002535038
-0.8930011,-0.0002467597
-0.8920011,-0.0002409353
-0.8910011,-0.0002351108
-0.8900011,-0.0002277537
-0.8890011,-0.0002216227
-0.8880011,-0.0002157983
-0.8870011,-0.0002081346
-0.8860011,-0.0002016971
-0.8850011,-0.0001970989
-0.8840011,-0.0001888221
-0.8830011,-0.0001817715
-0.8820011,-0.0001756405
-0.8810011,-0.000169203
-0.8800011,-0.0001624589
-0.8790011,-0.0001560214
-0.8780011,-0.0001480511
-0.8770011,-0.0001422267
-0.8760011,-0.0001366887
-0.8750011,-0.0001308643
-0.8740011,-0.0001240283
-0.8730011,-0.000115966
-0.8720011,-0.0001094672
-0.8710011,-0.0001015276
-0.8700011,-9.505945E-05
-0.8690011,-8.666002E-05
-0.8680011,-7.964007E-05
-0.8670011,-7.430613E-05
-0.8660011,-6.461921E-05
-0.8650011,-5.858021E-05
-0.8640011,-5.09165E-05
-0.8630011,-4.214922E-05
-0.8620011,-3.522123E-05
-0.8610011,-2.715901E-05
-0.8600011,-1.750274E-05
-0.8590011,-1.164767E-05
-0.8580011,-2.359254E-06
-0.8570011,5.79493E-06
-0.8560011,1.275357E-05
-0.8550011,2.259377E-05
-0.8540011,2.988962E-05
-0.8530011,3.617386E-05
-0.8520011,4.794531E-05
-0.8510011,5.472003E-05
-0.8500011,6.296618E-05
-0.8490011,7.424715E-05
-0.8480011,8.013288E-05
-0.8470011,8.755135E-05
-0.8460011,9.889364E-05
-0.8450011,0.0001048713
-0.8440011,0.0001149568
-0.8430011,0.0001253487
-0.8420011,0.0001316943
-0.8410011,0.0001413506
-0.8400011,0.000151528
-0.8390011,0.000158272
-0.8380011,0.0001685107
-0.8370011,0.0001779218
-0.8360011,0.0001865971
-0.8350011,0.0001965292
-0.8340011,0.000205082
-0.8330011,0.0002143704
-0.8320011,0.0002250689
-0.8310011,0.0002337442
-0.8300011,0.0002431246
-0.8290011,0.0002537005
-0.8280011,0.000263602
-0.8270011,0.0002730437
-0.8260011,0.0002843553
-0.8250011,0.0002979766
-0.8240011,0.0003050272
-0.8230011,0.0003169826
-0.8220011,0.0003261791
-0.8210011,0.0003347624
-0.8200011,0.0003485571
-0.8190011,0.0003580601
-0.8180011,0.0003672565
-0.8170011,0.0003795184
-0.8160011,0.0003887149
-0.8150011,0.0003985244
-0.8140011,0.0004095602
-0.8130011,0.0004202893
-0.8120011,0.0004297924
-0.8110011,0.0004408281
-0.8100011,0.0004518639
-0.8090011,0.0004604472
-0.8080011,0.0004724026
-0.8070011,0.0004822121
-0.8060011,0.000491102
-0.8050011,0.0005021378
-0.8040011,0.0005131735
-0.8030011,0.0005223699
-0.8020011,0.0005330991
-0.8010011,0.0005435218
