EXPID. 0925
[电化学]: CV : 0 >> 0.7 >> 0 >> 0(V) @ 0.01(V/s) X 10(Seg)
起始电位 (V),0
上限电位 (V),0.7
下限电位 (V),0
终止电位 (V),0
扫速 (V/s),0.01
电解液 信息:
KOH,1
0.001,1.380634E-07
0.002,3.802366E-07
0.003,4.660701E-07
0.004,6.775884E-07
0.005,8.124696E-07
0.006,1.00253E-06
0.007,1.13128E-06
0.008,1.214048E-06
0.009,1.256965E-06
0.01,1.370388E-06
0.011,1.459287E-06
0.012,1.496072E-06
0.013,1.618691E-06
0.014,1.646281E-06
0.015,1.765835E-06
0.016,1.851668E-06
0.017,2.017204E-06
0.018,2.225657E-06
0.019,2.293098E-06
0.02,2.415717E-06
0.021,2.440241E-06
0.022,2.52914E-06
0.023,2.605777E-06
0.024,2.645628E-06
0.025,2.703872E-06
0.026,2.860212E-06
0.027,2.970569E-06
0.028,3.136106E-06
0.029,3.270987E-06
0.03,3.329231E-06
0.031,3.41813E-06
0.032,3.482505E-06
0.033,3.583666E-06
0.034,3.644975E-06
0.035,3.712416E-06
0.036,3.758398E-06
0.037,3.887149E-06
0.038,3.902476E-06
0.039,4.009768E-06
0.04,4.107863E-06
0.041,4.233548E-06
0.042,4.359233E-06
0.043,4.540097E-06
0.044,4.607537E-06
0.045,4.687239E-06
0.046,4.75468E-06
0.047,4.858906E-06
0.048,4.889561E-06
0.049,4.874234E-06
0.05,4.996853E-06
0.051,5.107211E-06
0.052,5.352449E-06
0.053,5.48733E-06
0.054,5.517985E-06
0.055,5.603819E-06
0.056,5.631408E-06
0.057,5.683522E-06
0.058,5.760158E-06
0.059,5.784682E-06
0.06,5.956349E-06
0.061,6.097361E-06
0.062,6.241439E-06
0.063,6.336469E-06
0.064,6.413106E-06
0.065,6.489744E-06
0.066,6.587839E-06
0.067,6.612363E-06
0.068,6.682868E-06
0.069,6.808553E-06
0.07,6.937304E-06
0.071,7.105905E-06
0.072,7.274507E-06
0.073,7.338882E-06
0.074,7.42165E-06
0.075,7.476829E-06
0.076,7.541204E-06
0.077,7.596382E-06
0.078,7.645431E-06
0.079,7.76805E-06
0.08,7.945848E-06
0.081,8.086859E-06
0.082,8.142038E-06
0.083,8.261592E-06
0.084,8.37195E-06
0.085,8.381146E-06
0.086,8.43939E-06
0.087,8.485373E-06
0.088,8.607992E-06
0.089,8.709153E-06
0.09,8.914541E-06
0.091,9.015701E-06
0.092,9.089273E-06
0.093,9.132189E-06
0.094,9.202695E-06
0.095,9.282398E-06
0.096,9.288529E-06
0.097,9.38969E-06
0.098,9.539898E-06
0.099,9.656386E-06
0.1,9.769809E-06
0.101,9.831119E-06
0.102,9.901625E-06
0.103,9.947607E-06
0.104,1.000585E-05
0.105,1.005183E-05
0.106,1.025416E-05
0.107,1.037678E-05
0.108,1.0481E-05
0.109,1.052698E-05
0.11,1.055457E-05
0.111,1.054538E-05
0.112,1.062814E-05
0.113,1.077222E-05
0.114,1.09071E-05
0.115,1.101133E-05
0.116,1.105731E-05
0.117,1.111556E-05
0.118,1.115234E-05
0.119,1.118913E-05
0.12,1.132401E-05
0.121,1.144663E-05
0.122,1.162443E-05
0.123,1.165202E-05
0.124,1.176237E-05
0.125,1.185127E-05
0.126,1.182368E-05
0.127,1.189112E-05
0.128,1.193711E-05
0.129,1.202907E-05
0.13,1.217315E-05
0.131,1.233255E-05
0.132,1.242452E-05
0.133,1.246743E-05
0.134,1.253181E-05
0.135,1.261151E-05
0.136,1.263604E-05
0.137,1.265749E-05
0.138,1.275865E-05
0.139,1.287208E-05
0.14,1.304987E-05
0.141,1.317249E-05
0.142,1.320621E-05
0.143,1.32522E-05
0.144,1.331044E-05
0.145,1.331351E-05
0.146,1.337788E-05
0.147,1.344839E-05
0.148,1.357714E-05
0.149,1.372122E-05
0.15,1.38377E-05
0.151,1.3945E-05
0.152,1.397565E-05
0.153,1.399711E-05
0.154,1.405842E-05
0.155,1.408601E-05
0.156,1.416571E-05
0.157,1.42822E-05
0.158,1.438949E-05
0.159,1.454583E-05
0.16,1.460714E-05
0.161,1.465619E-05
0.162,1.472056E-05
0.163,1.472976E-05
0.164,1.476961E-05
0.165,1.487384E-05
0.166,1.506083E-05
0.167,1.516506E-05
0.168,1.521411E-05
0.169,1.527235E-05
0.17,1.533673E-05
0.171,1.534286E-05
0.172,1.544402E-05
0.173,1.552372E-05
0.174,1.563101E-05
0.175,1.578429E-05
0.176,1.588851E-05
0.177,1.590997E-05
0.178,1.590384E-05
0.179,1.592836E-05
0.18,1.610003E-05
0.181,1.623185E-05
0.182,1.631461E-05
0.183,1.646482E-05
0.184,1.648935E-05
0.185,1.651387E-05
0.186,1.658131E-05
0.187,1.663649E-05
0.188,1.680203E-05
0.189,1.693691E-05
0.19,1.700741E-05
0.191,1.709631E-05
0.192,1.716682E-05
0.193,1.718828E-05
0.194,1.719441E-05
0.195,1.733542E-05
0.196,1.750402E-05
0.197,1.768488E-05
0.198,1.769715E-05
0.199,1.78259E-05
0.2,1.781364E-05
0.201,1.784122E-05
0.202,1.794239E-05
0.203,1.810179E-05
0.204,1.828879E-05
0.205,1.838075E-05
0.206,1.839914E-05
0.207,1.844206E-05
0.208,1.846965E-05
0.209,1.857081E-05
0.21,1.872408E-05
0.211,1.887123E-05
0.212,1.897545E-05
0.213,1.90153E-05
0.214,1.904902E-05
0.215,1.913486E-05
0.216,1.917777E-05
0.217,1.928507E-05
0.218,1.949352E-05
0.219,1.957935E-05
0.22,1.972343E-05
0.221,1.980926E-05
0.222,1.986138E-05
0.223,1.993188E-05
0.224,1.997173E-05
0.225,1.999319E-05
0.226,2.009129E-05
0.227,2.022924E-05
0.228,2.036412E-05
0.229,2.056644E-05
0.23,2.058483E-05
0.231,2.068293E-05
0.232,2.077489E-05
0.233,2.087605E-05
0.234,2.094962E-05
0.235,2.101706E-05
0.236,2.11121E-05
0.237,2.118873E-05
0.238,2.123471E-05
0.239,2.137266E-05
0.24,2.145849E-05
0.241,2.158112E-05
0.242,2.170067E-05
0.243,2.183555E-05
0.244,2.200722E-05
0.245,2.212064E-05
0.246,2.222793E-05
0.247,2.236588E-05
0.248,2.243332E-05
0.249,2.250996E-05
0.25,2.262645E-05
0.251,2.267243E-05
0.252,2.276133E-05
0.253,2.284716E-05
0.254,2.296058E-05
0.255,2.312918E-05
0.256,2.331924E-05
0.257,2.345106E-05
0.258,2.358288E-05
0.259,2.362886E-05
0.26,2.374841E-05
0.261,2.383118E-05
0.262,2.390168E-05
0.263,2.404883E-05
0.264,2.419597E-05
0.265,2.441975E-05
0.266,2.458222E-05
0.267,2.467112E-05
0.268,2.483359E-05
0.269,2.494395E-05
0.27,2.496541E-05
0.271,2.505431E-05
0.272,2.514933E-05
0.273,2.575122E-05
0.274,2.590449E-05
0.275,2.611908E-05
0.276,2.627235E-05
0.277,2.636432E-05
0.278,2.654824E-05
0.279,2.664021E-05
0.28,2.676283E-05
0.281,2.688545E-05
0.282,2.700807E-05
0.283,2.7192E-05
0.284,2.740658E-05
0.285,2.759051E-05
0.286,2.771313E-05
0.287,2.789706E-05
0.288,2.798902E-05
0.289,2.81423E-05
0.29,2.829557E-05
0.291,2.838754E-05
0.292,2.844885E-05
0.293,2.866343E-05
0.294,2.88167E-05
0.295,2.900063E-05
0.296,2.921522E-05
0.297,2.939914E-05
0.298,2.961373E-05
0.299,2.973635E-05
0.3,2.992028E-05
0.301,3.004289E-05
0.302,3.022683E-05
0.303,3.041075E-05
0.304,3.050272E-05
0.305,3.068665E-05
0.306,3.083992E-05
0.307,3.108516E-05
0.308,3.129974E-05
0.309,3.151433E-05
0.31,3.179022E-05
0.311,3.197415E-05
0.312,3.218873E-05
0.313,3.231135E-05
0.314,3.255659E-05
0.315,3.270986E-05
0.316,3.289379E-05
0.317,3.307773E-05
0.318,3.329231E-05
0.319,3.350689E-05
0.32,3.375213E-05
0.321,3.393606E-05
0.322,3.41813E-05
0.323,3.445719E-05
0.324,3.470243E-05
0.325,3.497832E-05
0.326,3.522356E-05
0.327,3.543814E-05
0.328,3.565273E-05
0.329,3.589797E-05
0.33,3.614321E-05
0.331,3.629648E-05
0.332,3.657238E-05
0.333,3.684827E-05
0.334,3.700154E-05
0.335,3.727743E-05
0.336,3.752267E-05
0.337,3.776791E-05
0.338,3.801315E-05
0.339,3.828905E-05
0.34,3.859559E-05
0.341,3.890214E-05
0.342,3.923934E-05
0.343,3.954589E-05
0.344,3.985244E-05
0.345,4.012834E-05
0.346,4.037357E-05
0.347,4.068012E-05
0.348,4.098667E-05
0.349,4.123191E-05
0.35,4.15078E-05
0.351,4.1845E-05
0.352,4.209024E-05
0.353,4.239679E-05
0.354,4.27953E-05
0.355,4.313251E-05
0.356,4.356167E-05
0.357,4.396019E-05
0.358,4.423608E-05
0.359,4.466525E-05
0.36,4.503311E-05
0.361,4.540096E-05
0.362,4.586079E-05
0.363,4.619799E-05
0.364,4.665781E-05
0.365,4.714829E-05
0.366,4.766942E-05
0.367,4.819056E-05
0.368,4.871168E-05
0.369,4.926347E-05
0.37,4.993788E-05
0.371,5.058163E-05
0.372,5.131734E-05
0.373,5.211437E-05
0.374,5.291139E-05
0.375,5.380038E-05
0.376,5.472003E-05
0.377,5.570098E-05
0.378,5.686587E-05
0.379,5.796944E-05
0.38,5.916498E-05
0.381,6.042183E-05
0.382,6.164802E-05
0.383,6.299683E-05
0.384,6.43763E-05
0.385,6.584774E-05
0.386,6.734982E-05
0.387,6.891321E-05
0.388,7.062989E-05
0.389,7.228524E-05
0.39,7.406323E-05
0.391,7.599447E-05
0.392,7.786442E-05
0.393,7.994896E-05
0.394,8.212545E-05
0.395,8.427128E-05
0.396,8.66317E-05
0.397,8.91454E-05
0.398,9.162844E-05
0.399,9.444868E-05
0.4,9.717696E-05
0.401,0.0001000892
0.402,0.000103216
0.403,0.0001065573
0.404,0.0001101133
0.405,0.0001137919
0.406,0.0001177463
0.407,0.000122038
0.408,0.0001264217
0.409,0.0001315717
0.41,0.0001370895
0.411,0.00014273
0.412,0.0001491369
0.413,0.000155789
0.414,0.0001630542
0.415,0.0001711164
0.416,0.0001795771
0.417,0.0001892334
0.418,0.0001996867
0.419,0.0002109677
0.42,0.0002237814
0.421,0.0002375454
0.422,0.0002530261
0.423,0.0002700395
0.424,0.0002883405
0.425,0.0003126909
0.426,0.0003347624
0.427,0.0003592863
0.428,0.0003862625
0.429,0.0004153846
0.43,0.0004475722
0.431,0.0004831318
0.432,0.0005208372
0.433,0.0005625277
0.434,0.0006069773
0.435,0.0006547988
0.436,0.0007075251
0.437,0.0007630104
0.438,0.0008230938
0.439,0.0008874689
0.44,0.0009549095
0.441,0.001027561
0.442,0.001104505
0.443,0.001185127
0.444,0.001271574
0.445,0.001360779
0.446,0.00145489
0.447,0.001553905
0.448,0.001656905
0.449,0.001764503
0.45,0.001876087
0.451,0.001991349
0.452,0.002113049
0.453,0.002236895
0.454,0.002366564
0.455,0.002502059
0.456,0.002639086
0.457,0.00278347
0.458,0.002932146
0.459,0.003117712
0.46,0.003277118
0.461,0.003439588
0.462,0.00360819
0.463,0.003785988
0.464,0.003966851
0.465,0.004153845
0.466,0.004350036
0.467,0.004549293
0.468,0.004760811
0.469,0.004972329
0.47,0.00519611
0.471,0.005429087
0.472,0.005665129
0.473,0.005913433
0.474,0.006170933
0.475,0.006434564
0.476,0.006707393
0.477,0.00698022
0.478,0.007268376
0.479,0.007562662
0.48,0.007860013
0.481,0.008169628
0.482,0.008482307
0.483,0.008798052
0.484,0.009126058
0.485,0.009450999
0.486,0.009782071
0.487,0.01012234
0.488,0.01045954
0.489,0.01080288
0.49,0.01115541
0.491,0.01150181
0.492,0.01185434
0.493,0.01220993
0.494,0.01256553
0.495,0.01291806
0.496,0.01327672
0.497,0.01363538
0.498,0.01399404
0.499,0.01435577
0.5,0.01471443
0.501,0.01507309
0.502,0.01543176
0.503,0.01579042
0.504,0.01614601
0.505,0.01650467
0.506,0.01686333
0.507,0.01721893
0.508,0.01757759
0.509,0.01793012
0.51,0.01828879
0.511,0.01864438
0.512,0.01900611
0.513,0.0193617
0.514,0.01972037
0.515,0.02007596
0.516,0.02043463
0.517,0.02079329
0.518,0.02114888
0.519,0.02151061
0.52,0.02187234
0.521,0.02222793
0.522,0.02258659
0.523,0.02294832
0.524,0.02330698
0.525,0.02366564
0.526,0.02403043
0.527,0.02439216
0.528,0.02475082
0.529,0.02511562
0.53,0.02547734
0.531,0.025836
0.532,0.02620386
0.533,0.02656559
0.534,0.02692119
0.535,0.02728904
0.536,0.0276477
0.537,0.02800943
0.538,0.02837116
0.539,0.02872982
0.54,0.02908848
0.541,0.02945021
0.542,0.02980581
0.543,0.03015834
0.544,0.0313304
0.545,0.0316676
0.546,0.03200481
0.547,0.03237266
0.548,0.03274052
0.549,0.03307773
0.55,0.03347624
0.551,0.03381344
0.552,0.0341813
0.553,0.03454916
0.554,0.03488636
0.555,0.03525422
0.556,0.03562208
0.557,0.03602059
0.558,0.03635779
0.559,0.03672565
0.56,0.03712416
0.561,0.03749202
0.562,0.03785988
0.563,0.03825839
0.564,0.03862625
0.565,0.03902476
0.566,0.03942328
0.567,0.03982178
0.568,0.04018965
0.569,0.04058816
0.57,0.04098667
0.571,0.04135453
0.572,0.0417837
0.573,0.04218221
0.574,0.04258072
0.575,0.04297924
0.576,0.04337775
0.577,0.04377626
0.578,0.04420543
0.579,0.04460394
0.58,0.04500245
0.581,0.04543162
0.582,0.04586079
0.583,0.04628995
0.584,0.04668847
0.585,0.04708698
0.586,0.04751615
0.587,0.04794532
0.588,0.04834383
0.589,0.048773
0.59,0.04920216
0.591,0.04963133
0.592,0.05002984
0.593,0.05045901
0.594,0.05088818
0.595,0.05131735
0.596,0.05174651
0.597,0.05217568
0.598,0.05260485
0.599,0.05303402
0.6,0.05346319
0.601,0.05389235
0.602,0.05435218
0.603,0.05475069
0.604,0.05521051
0.605,0.05563968
0.606,0.05606885
0.607,0.05649801
0.608,0.05695784
0.609,0.057387
0.61,0.05781617
0.611,0.05824534
0.612,0.05870516
0.613,0.05913433
0.614,0.05959415
0.615,0.06002332
0.616,0.06045249
0.617,0.06088165
0.618,0.06134148
0.619,0.06177064
0.62,0.06223046
0.621,0.06265964
0.622,0.0630888
0.623,0.06354862
0.624,0.06397779
0.625,0.06443761
0.626,0.06486678
0.627,0.06529595
0.628,0.06575577
0.629,0.0662156
0.63,0.06661411
0.631,0.06710459
0.632,0.06753375
0.633,0.06796291
0.634,0.06842274
0.635,0.06888256
0.636,0.06931173
0.637,0.06977155
0.638,0.07023137
0.639,0.07066055
0.64,0.07112037
0.641,0.07154953
0.642,0.07200935
0.643,0.07243852
0.644,0.072929
0.645,0.07332751
0.646,0.07378733
0.647,0.07424716
0.648,0.07467633
0.649,0.07513615
0.65,0.07559597
0.651,0.07602514
0.652,0.07648496
0.653,0.07694478
0.654,0.07737394
0.655,0.07786443
0.656,0.07829359
0.657,0.07875342
0.658,0.07921324
0.659,0.07964241
0.66,0.08010223
0.661,0.08056205
0.662,0.08102188
0.663,0.08145104
0.664,0.08191086
0.665,0.08237069
0.666,0.08283051
0.667,0.08325968
0.668,0.0837195
0.669,0.08417932
0.67,0.08463915
0.671,0.08509897
0.672,0.08555879
0.673,0.08601861
0.674,0.08647843
0.675,0.0869076
0.676,0.08736742
0.677,0.08782724
0.678,0.08828707
0.679,0.08871623
0.68,0.08920672
0.681,0.08966654
0.682,0.0900957
0.683,0.09058618
0.684,0.09101535
0.685,0.09147517
0.686,0.09196565
0.687,0.09239481
0.688,0.09288529
0.689,0.09334511
0.69,0.09377428
0.691,0.09426476
0.692,0.09472458
0.693,0.09518441
0.694,0.09567488
0.695,0.09613471
0.696,0.09656387
0.697,0.09702369
0.698,0.09751417
0.699,0.09794334
0.7,0.09809661
0.6990001,0.09766745
0.6980001,0.09717696
0.6970001,0.09671714
0.6960001,0.09625732
0.6950001,0.0957975
0.6940001,0.09536833
0.6930001,0.09487786
0.6920001,0.09441803
0.6910001,0.09395821
0.6900001,0.09346773
0.6890001,0.09300791
0.6880001,0.09257875
0.6870001,0.09208827
0.6860001,0.09162845
0.6850001,0.09113797
0.6840001,0.09067815
0.6830001,0.09021832
0.6820001,0.0897585
0.6810001,0.08926802
0.6800001,0.0888082
0.6790001,0.08834838
0.6780001,0.08788855
0.6770001,0.08742873
0.6760001,0.08696891
0.6750001,0.08650909
0.6740001,0.08604927
0.6730001,0.08558945
0.6720001,0.08509897
0.6710001,0.08463915
0.6700001,0.08417932
0.6690001,0.0837195
0.6680001,0.08325968
0.6670001,0.08283051
0.6660001,0.08234003
0.6650001,0.08191086
0.6640001,0.08145104
0.6630001,0.08099122
0.6620001,0.0805314
0.6610001,0.08010223
0.6600001,0.07967306
0.6590001,0.07921324
0.6580001,0.07875342
0.6570001,0.07829359
0.6560001,0.07786443
0.6550001,0.07743526
0.6540001,0.07694478
0.6530001,0.07651561
0.6520001,0.07608645
0.6510001,0.07562663
0.6500001,0.07519746
0.6490001,0.07476829
0.6480001,0.07427781
0.6470001,0.07384864
0.6460001,0.07341947
0.6450001,0.07295965
0.6440001,0.07253049
0.6430001,0.07210132
0.6420001,0.0716415
0.6410001,0.07118168
0.6400001,0.07075251
0.6390001,0.07029268
0.6380001,0.06986352
0.6370001,0.06943435
0.6360001,0.06897452
0.6350001,0.06854536
0.6340001,0.06808554
0.6330001,0.06765637
0.6320001,0.06719655
0.6310001,0.06679803
0.6300001,0.06633821
0.6290001,0.06587839
0.6280001,0.06547987
0.6270001,0.06502005
0.6260001,0.06459089
0.6250001,0.06416172
0.6240001,0.06373256
0.6230001,0.06327273
0.6220001,0.06284356
0.6210001,0.0624144
0.6200001,0.06195457
0.6190001,0.0615254
0.6180001,0.06109623
0.6170001,0.06066707
0.6160001,0.0602379
0.6150001,0.05977808
0.6140001,0.05934891
0.6130001,0.05891975
0.6120001,0.05849057
0.6110001,0.05806141
0.6100001,0.05760158
0.6090001,0.05717242
0.6080001,0.0567126
0.6070001,0.05628343
0.6060001,0.05585426
0.6050001,0.0554251
0.6040001,0.05499592
0.6030001,0.05456676
0.6020001,0.05413759
0.6010001,0.05367777
0.6000001,0.0532486
0.5990001,0.05278878
0.5980001,0.05239027
0.5970001,0.05193045
0.5960001,0.05150127
0.5950001,0.05107211
0.5940001,0.05064294
0.5930001,0.05021377
0.5920001,0.0497846
0.5910001,0.0493861
0.5900001,0.04892627
0.5890001,0.0484971
0.5880001,0.04806793
0.5870001,0.04763877
0.5860001,0.0472096
0.5850001,0.04681109
0.5840001,0.04635127
0.5830001,0.0459221
0.5820001,0.04552358
0.5810001,0.04506376
0.5800001,0.04466525
0.5790001,0.04423608
0.5780001,0.04377626
0.5770001,0.04337775
0.5760001,0.04294858
0.5750001,0.04251941
0.5740001,0.0421209
0.5730001,0.04169173
0.5720001,0.04126256
0.5710001,0.04086405
0.5700001,0.04043488
0.5690001,0.04003637
0.5680001,0.0396072
0.5670001,0.03917804
0.5660001,0.03874887
0.5650001,0.03835035
0.5640001,0.03792119
0.5630001,0.03749202
0.5620001,0.03709351
0.5610001,0.03666434
0.5600001,0.03626583
0.5590001,0.03583666
0.5580001,0.03543815
0.5570001,0.03500898
0.5560001,0.03461047
0.5550001,0.03421196
0.5540001,0.03381344
0.5530001,0.03338427
0.5520001,0.03298576
0.5510001,0.03258725
0.5500001,0.03218874
0.5490001,0.03175957
0.5480001,0.03136105
0.5470001,0.03096254
0.5460001,0.03056403
0.5450001,0.03016552
0.5440001,0.029767
0.5430001,0.02933784
0.5420001,0.02893933
0.5410001,0.02857147
0.5400001,0.02817295
0.5390001,0.02777444
0.5380001,0.02737593
0.5370001,0.02697741
0.5360001,0.0265789
0.5350001,0.02621104
0.5340001,0.02581253
0.5330001,0.02541402
0.5320001,0.02504616
0.5310001,0.02464765
0.5300001,0.02427979
0.5290001,0.02388128
0.5280001,0.02351342
0.5270001,0.02311491
0.5260001,0.02274705
0.5250001,0.02234854
0.5240001,0.02198068
0.5230001,0.02161282
0.5220001,0.02121431
0.5210001,0.02084645
0.5200001,0.02047859
0.5190001,0.02011073
0.5180001,0.01974287
0.5170001,0.01937502
0.5160001,0.01900716
0.5150001,0.0186393
0.5140001,0.0183021
0.5130001,0.01793424
0.5120001,0.01756638
0.5110001,0.01719853
0.5100001,0.01686132
0.5090001,0.01649346
0.5080001,0.01615626
0.5070001,0.01581906
0.5060001,0.0154512
0.5050001,0.015114
0.5040001,0.01477679
0.5030001,0.01443959
0.5020001,0.01407173
0.5010001,0.01376519
0.5000001,0.01339733
0.4990001,0.01309078
0.4980001,0.01224978
0.4970001,0.01192484
0.4960001,0.0116091
0.4950001,0.01129029
0.4940001,0.01097454
0.4930001,0.01066493
0.4920001,0.01035225
0.4910001,0.0100457
0.4900001,0.009742221
0.4890001,0.009441803
0.4880001,0.009141386
0.4870001,0.0088471
0.4860001,0.008555878
0.4850001,0.008264658
0.4840001,0.007979568
0.4830001,0.007697543
0.4820001,0.007415519
0.4810001,0.007142691
0.4800001,0.006869863
0.4790001,0.00659397
0.4780001,0.006333403
0.4770001,0.006069772
0.4760001,0.005809206
0.4750001,0.005560902
0.4740001,0.005303402
0.4730001,0.005052032
0.4720001,0.00481599
0.4710001,0.004570751
0.4700001,0.004337775
0.4690001,0.004107863
0.4680001,0.003877952
0.4670001,0.003654172
0.4660001,0.003436523
0.4650001,0.003221939
0.4640001,0.003010421
0.4630001,0.002801968
0.4620001,0.002602712
0.4610001,0.002403455
0.4600001,0.002207264
0.4590001,0.002023335
0.4580001,0.001836341
0.4570001,0.001658543
0.4560001,0.00148381
0.4550001,0.001309078
0.4540001,0.001143542
0.4530001,0.0009444869
0.4520001,0.0007850818
0.4510001,0.0006324208
0.4500001,0.0004794532
0.4490001,0.0003326166
0.4480001,0.0001894585
0.4470001,4.691356E-05
0.4460001,-8.941896E-05
0.4450001,-0.0002201924
0.4440001,-0.0003504448
0.4430001,-0.000471153
0.4420001,-0.0005943854
0.4410001,-0.0007127131
0.4400001,-0.0008242966
0.4390001,-0.0009389457
0.4380001,-0.001045931
0.4370001,-0.001150464
0.4360001,-0.001256223
0.4350001,-0.001353399
0.4340001,-0.001451801
0.4330001,-0.001547751
0.4320001,-0.001639409
0.4310001,-0.001732293
0.4300001,-0.001819046
0.4290001,-0.001906719
0.4280001,-0.001992859
0.4270001,-0.002072868
0.4260001,-0.002156555
0.4250001,-0.002235951
0.4240001,-0.002311669
0.4230001,-0.002391678
0.4220001,-0.002466169
0.4210001,-0.002538515
0.4200001,-0.002614539
0.4190001,-0.002682286
0.4180001,-0.002754018
0.4170001,-0.002824831
0.4160001,-0.002891352
0.4150001,-0.002960938
0.4140001,-0.003026539
0.4130001,-0.003053104
0.4120001,-0.003117479
0.4110001,-0.003181854
0.4100001,-0.00325236
0.4090001,-0.003319801
0.4080001,-0.003378045
0.4070001,-0.00344242
0.4060001,-0.003500664
0.4050001,-0.003561974
0.4040001,-0.003623284
0.4030001,-0.003678462
0.4020001,-0.003739772
0.4010001,-0.003798016
0.4000001,-0.003853195
0.3990001,-0.003914505
0.3980001,-0.003969683
0.3970001,-0.004027927
0.3960001,-0.004086172
0.3950001,-0.004138284
0.3940001,-0.004193463
0.3930001,-0.004245576
0.3920001,-0.004294624
0.3910001,-0.004349803
0.3900001,-0.004398851
0.3890001,-0.004444833
0.3880001,-0.004493881
0.3870001,-0.004539863
0.3860001,-0.004582779
0.3850001,-0.004628762
0.3840001,-0.004665548
0.3830001,-0.004708464
0.3820001,-0.004742185
0.3810001,-0.00477897
0.3800001,-0.004812691
0.3790001,-0.004843346
0.3780001,-0.004874
0.3770001,-0.00490159
0.3760001,-0.004923048
0.3750001,-0.004947572
0.3740001,-0.004969031
0.3730001,-0.004987423
0.3720001,-0.005002751
0.3710001,-0.005018078
0.3700001,-0.005027275
0.3690001,-0.005036471
0.3680001,-0.005039536
0.3670001,-0.005045668
0.3660001,-0.005042602
0.3650001,-0.005036471
0.3640001,-0.005033405
0.3630001,-0.005015012
0.3620001,-0.004999685
0.3610001,-0.004975162
0.3600001,-0.004944507
0.3590001,-0.004913852
0.3580001,-0.004870935
0.3570001,-0.004821887
0.3560001,-0.004766709
0.3550001,-0.004702333
0.3540001,-0.004631828
0.3530001,-0.00455519
0.3520001,-0.004469357
0.3510001,-0.004380458
0.3500001,-0.004279297
0.3490001,-0.004168939
0.3480001,-0.004052451
0.3470001,-0.003923701
0.3460001,-0.00378882
0.3450001,-0.003644742
0.3440001,-0.003488402
0.3430001,-0.003325932
0.3420001,-0.00315733
0.3410001,-0.002988729
0.3400001,-0.002823193
0.3390001,-0.002657657
0.3380001,-0.002501317
0.3370001,-0.002354174
0.3360001,-0.002219293
0.3350001,-0.002096673
0.3340001,-0.00198325
0.3330001,-0.00188209
0.3320001,-0.00179319
0.3310001,-0.001710422
0.3300001,-0.001639916
0.3290001,-0.001575541
0.3280001,-0.001555108
0.3270001,-0.001503301
0.3260001,-0.001455173
0.3250001,-0.001411337
0.3240001,-0.001371485
0.3230001,-0.001334393
0.3220001,-0.001300366
0.3210001,-0.001268485
0.3200001,-0.00123875
0.3190001,-0.001211161
0.3180001,-0.001184797
0.3170001,-0.001160274
0.3160001,-0.001136976
0.3150001,-0.001114904
0.3140001,-0.001093753
0.3130001,-0.001073827
0.3120001,-0.001054821
0.3110001,-0.001036735
0.3100001,-0.001018955
0.3090001,-0.001002095
0.3080001,-0.0009861541
0.3070001,-0.0009708267
0.3060001,-0.0009561123
0.3050001,-0.0009417046
0.3040001,-0.0009276034
0.3030001,-0.0009144219
0.3020001,-0.0009015468
0.3010001,-0.0008892849
0.3000001,-0.0008773295
0.2990001,-0.0008653741
0.2980001,-0.0008540318
0.2970001,-0.0008433026
0.2960001,-0.0008325735
0.2950001,-0.0008221508
0.2940001,-0.0008123412
0.2930001,-0.0008025317
0.2920001,-0.0007927222
0.2910001,-0.0007835258
0.2900001,-0.0007746358
0.2890001,-0.0007660525
0.2880001,-0.0007574691
0.2870001,-0.0007491923
0.2860001,-0.0007412221
0.2850001,-0.0007332518
0.2840001,-0.0007255881
0.2830001,-0.0007179244
0.2820001,-0.0007105672
0.2810001,-0.0007035166
0.2800001,-0.000696466
0.2790001,-0.0006897219
0.2780001,-0.0006829779
0.2770001,-0.0006762338
0.2760001,-0.0006697963
0.2750001,-0.0006636653
0.2740001,-0.0006575344
0.2730001,-0.0006514034
0.2720001,-0.000645579
0.2710001,-0.0006397546
0.2700001,-0.0006342367
0.2690001,-0.0006287188
0.2680001,-0.000623201
0.2670001,-0.0006176831
0.2660001,-0.0006127784
0.2650001,-0.000607567
0.2640001,-0.0006023557
0.2630001,-0.0005974509
0.2620001,-0.0005928527
0.2610001,-0.000587948
0.2600001,-0.0005833497
0.2590001,-0.0005784449
0.2580001,-0.0005741533
0.2570001,-0.000569555
0.2560001,-0.0005649568
0.2550001,-0.0005609716
0.2540001,-0.0005563734
0.2530001,-0.0005523883
0.2520001,-0.0005484032
0.2510001,-0.0005444181
0.2500001,-0.0005404329
0.2490001,-0.0005367543
0.2480001,-0.0005327692
0.2470001,-0.0005290906
0.2460001,-0.000525412
0.2450001,-0.0005217335
0.2440001,-0.0005180549
0.2430001,-0.0005143763
0.2420001,-0.0005110043
0.2410001,-0.0005073257
0.2400001,-0.0005039537
0.2390001,-0.0005005816
0.2380001,-0.0004972096
0.2370001,-0.0004938376
0.2360001,-0.0004907721
0.2350001,-0.0004877066
0.2340001,-0.0004846411
0.2330001,-0.0004812691
0.2320001,-0.0004782036
0.2310001,-0.0004754447
0.2300001,-0.0004723792
0.2290001,-0.0004693137
0.2280001,-0.0004665548
0.2270001,-0.0004634893
0.2260001,-0.0004607304
0.2250001,-0.0004579714
0.2240001,-0.0004552125
0.2230001,-0.0004524536
0.2220001,-0.0004496947
0.2210001,-0.0004472423
0.2200001,-0.0004444833
0.2190001,-0.0004420309
0.2180001,-0.0004398851
0.2170001,-0.0004371261
0.2160001,-0.0004346738
0.2150001,-0.0004322214
0.2140001,-0.000429769
0.2130001,-0.0004273166
0.2120001,-0.0004251708
0.2110001,-0.0004227184
0.2100001,-0.000420266
0.2090001,-0.0004181202
0.2080001,-0.0004156678
0.2070001,-0.0004135219
0.2060001,-0.0004113761
0.2050001,-0.0004092303
0.2040001,-0.0004070844
0.2030001,-0.0004049386
0.2020001,-0.0004027928
0.2010001,-0.0004006469
0.2000001,-0.0003985011
0.1990001,-0.0003966618
0.1980001,-0.000394516
0.1970001,-0.0003923701
0.1960001,-0.0003905308
0.1950001,-0.000388385
0.1940001,-0.0003865457
0.1930001,-0.0003847064
0.1920001,-0.0003828671
0.1910001,-0.0003810278
0.1900001,-0.0003791885
0.1890001,-0.0003770427
0.1880001,-0.00037551
0.1870001,-0.0003736707
0.1860001,-0.0003718314
0.1850001,-0.0003699921
0.1840001,-0.0003681528
0.1830001,-0.0003663135
0.1820001,-0.0003647808
0.1810001,-0.0003632481
0.1800001,-0.0003614087
0.1790001,-0.000359876
0.1780001,-0.0003580367
0.1770001,-0.000356504
0.1760001,-0.0003549712
0.1750001,-0.0003531319
0.1740001,-0.0003515992
0.1730001,-0.0003500664
0.1720001,-0.0003485337
0.1710001,-0.000347001
0.1700001,-0.0003454682
0.1690001,-0.0003439355
0.1680001,-0.0003424028
0.1670001,-0.00034087
0.1660001,-0.0003393373
0.1650001,-0.0003378045
0.1640001,-0.0003365783
0.1630001,-0.0003350456
0.1620001,-0.0003335129
0.1610001,-0.0003322866
0.1600001,-0.0003307539
0.1590001,-0.0003295277
0.1580001,-0.000327995
0.1570001,-0.0003267688
0.1560001,-0.0003255426
0.1550001,-0.0003240099
0.1540001,-0.0003227837
0.1530001,-0.0003215575
0.1520001,-0.0003200247
0.1510001,-0.0003187985
0.1500001,-0.0003172658
0.1490001,-0.0003160396
0.1480001,-0.0003148134
0.1470001,-0.0003135872
0.1460001,-0.000312361
0.1450001,-0.0003111348
0.1440001,-0.0003099086
0.1430001,-0.0003086824
0.1420001,-0.0003074562
0.1410001,-0.0003065366
0.1400001,-0.0003053104
0.1390001,-0.0003040842
0.1380001,-0.000302858
0.1370001,-0.0003016318
0.1360001,-0.0003007122
0.1350001,-0.000299486
0.1340001,-0.0002982598
0.1330001,-0.0002970336
0.1320001,-0.000296114
0.1310001,-0.0002948878
0.1300001,-0.0002939681
0.1290001,-0.0002927419
0.1280001,-0.0002915157
0.1270001,-0.0002905961
0.1260001,-0.0002896764
0.1250001,-0.0002884502
0.1240001,-0.0002875306
0.1230001,-0.0002863044
0.1220001,-0.0002853848
0.1210001,-0.0002844651
0.1200001,-0.0002835455
0.1190001,-0.0002823193
0.1180001,-0.0002813996
0.1170001,-0.00028048
0.1160001,-0.0002795603
0.1150001,-0.0002783342
0.1140001,-0.0002774145
0.1130001,-0.0002764949
0.1120001,-0.0002755752
0.1110001,-0.0002746556
0.1100001,-0.0002737359
0.1090001,-0.0002728163
0.1080001,-0.0002718967
0.1070001,-0.000270977
0.1060001,-0.0002700574
0.1050001,-0.0002691377
0.1040001,-0.0002679115
0.1030001,-0.0002672984
0.1020001,-0.0002663788
0.1010001,-0.0002654591
0.1000001,-0.0002648461
0.0990001,-0.0002639264
0.09800009,-0.0002630067
0.09700009,-0.0002620871
0.0960001,-0.000261474
0.0950001,-0.0002605543
0.09400009,-0.0002596347
0.0930001,-0.0002590216
0.0920001,-0.000258102
0.0910001,-0.0002571823
0.09000009,-0.0002562627
0.0890001,-0.0002556496
0.0880001,-0.0002547299
0.08700009,-0.0002538103
0.08600009,-0.0002531972
0.0850001,-0.0002522776
0.0840001,-0.0002516645
0.08300009,-0.0002507448
0.08200009,-0.0002498252
0.0810001,-0.0002492121
0.0800001,-0.0002482924
0.07900009,-0.0002476793
0.0780001,-0.0002467597
0.0770001,-0.0002461466
0.07600009,-0.0002455335
0.07500009,-0.0002446139
0.0740001,-0.0002436942
0.0730001,-0.0002430811
0.07200009,-0.0002421615
0.07100009,-0.0002415484
0.0700001,-0.0002409353
0.0690001,-0.0002403222
0.06800009,-0.0002394025
0.0670001,-0.0002387894
0.0660001,-0.0002381763
0.06500009,-0.0002372567
0.06400009,-0.0002366436
0.0630001,-0.0002360305
0.0620001,-0.0002351108
0.06100009,-0.0002344978
0.0600001,-0.0002338847
0.0590001,-0.000232965
0.0580001,-0.0002323519
0.0570001,-0.0002317388
0.05600009,-0.0002311257
0.0550001,-0.0002305126
0.05400009,-0.0002298995
0.0530001,-0.0002289799
0.05200009,-0.0002286733
0.0510001,-0.0002277537
0.05000009,-0.0002271406
0.0490001,-0.0002265275
0.04800009,-0.0002259144
0.0470001,-0.0002253013
0.0460001,-0.0002246882
0.04500009,-0.0002240751
0.0440001,-0.000223462
0.04300009,-0.0002228489
0.0420001,-0.0002222358
0.04100009,-0.0002216227
0.0400001,-0.0002207031
0.03900009,-0.00022009
0.0380001,-0.0002194769
0.03700009,-0.0002188638
0.0360001,-0.0002185573
0.0350001,-0.0002179441
0.03400009,-0.0002170245
0.0330001,-0.0002167179
0.03200009,-0.0002161049
0.03100009,-0.0002154918
0.0300001,-0.0002148787
0.0290001,-0.0002142656
0.0280001,-0.0002136525
0.0270001,-0.0002130394
0.0260001,-0.0002124263
0.0250001,-0.0002118132
0.0240001,-0.0002112001
0.0230001,-0.000210587
0.02200009,-0.0002099739
0.02100009,-0.0002096674
0.02000009,-0.0002090542
0.0190001,-0.0002084412
0.0180001,-0.0002078281
0.0170001,-0.000207215
0.0160001,-0.0002069084
0.0150001,-0.0002062953
0.0140001,-0.0002056822
0.0130001,-0.0002047626
0.0120001,-0.000204456
0.01100009,-0.0002038429
0.0100001,-0.0002032298
0.009000096,-0.0002026167
0.008000095,-0.0002023102
0.007000095,-0.0002016971
0.006000096,-0.0002013905
0.005000095,-0.0002007774
0.004000095,-0.0002001643
0.003000095,-0.0001995512
0.002000095,-0.0001992447
0.001000095,-0.0001986316
9.536743E-08,-0.0001955661
0.0009999046,-0.000191581
0.001999905,-0.000188209
0.002999905,-0.0001851435
0.003999905,-0.000182078
0.004999904,-0.0001793191
0.005999905,-0.0001768667
0.006999905,-0.0001741077
0.007999904,-0.0001716554
0.008999905,-0.0001695095
0.009999905,-0.0001670571
0.0109999,-0.0001649113
0.0119999,-0.0001627655
0.0129999,-0.0001609262
0.0139999,-0.0001590869
0.0149999,-0.0001605995
0.0159999,-0.0001588521
0.0169999,-0.0001570435
0.0179999,-0.0001553575
0.0189999,-0.0001537328
0.0199999,-0.0001520161
0.0209999,-0.0001503914
0.0219999,-0.0001488587
0.02299991,-0.0001472646
0.02399991,-0.0001457625
0.02499991,-0.0001443218
0.02599991,-0.000142789
0.0269999,-0.0001413482
0.0279999,-0.0001399075
0.0289999,-0.000138528
0.0299999,-0.0001372098
0.0309999,-0.000135861
0.0319999,-0.0001345429
0.0329999,-0.0001332554
0.0339999,-0.0001320292
0.0349999,-0.0001308643
0.03599991,-0.0001295461
0.0369999,-0.0001283812
0.03799991,-0.000127247
0.0389999,-0.0001260208
0.03999991,-0.0001250092
0.0409999,-0.0001238137
0.04199991,-0.0001226794
0.0429999,-0.0001216372
0.0439999,-0.0001205336
0.0449999,-0.0001194913
0.0459999,-0.0001185104
0.04699991,-0.0001174375
0.0479999,-0.0001164565
0.04899991,-0.0001154449
0.0499999,-0.000114464
0.05099991,-0.000113483
0.0519999,-0.000112502
0.05299991,-0.0001115517
0.0539999,-0.0001105708
0.0549999,-0.0001096511
0.0559999,-0.0001087315
0.0569999,-0.0001077812
0.05799991,-0.0001068616
0.0589999,-0.0001059726
0.05999991,-0.0001050223
0.0609999,-0.0001041333
0.06199991,-0.0001032443
0.0629999,-0.0001024166
0.06399991,-0.0001015276
0.06499991,-0.0001007919
0.0659999,-9.996421E-05
0.0669999,-9.913654E-05
0.06799991,-9.833951E-05
0.0689999,-9.754248E-05
0.0699999,-9.674546E-05
0.07099991,-9.597909E-05
0.07199991,-9.521272E-05
0.0729999,-9.441569E-05
0.0739999,-9.367998E-05
0.07499991,-9.294426E-05
0.07599991,-9.22392E-05
0.0769999,-9.153414E-05
0.0779999,-9.079842E-05
0.07899991,-9.009337E-05
0.0799999,-8.93883E-05
0.0809999,-8.87139E-05
0.08199991,-8.803949E-05
0.08299991,-8.736509E-05
0.0839999,-8.662937E-05
0.0849999,-8.595496E-05
0.08599991,-8.531121E-05
0.08699991,-8.45755E-05
0.0879999,-8.393174E-05
0.0889999,-8.325734E-05
0.08999991,-8.252162E-05
0.0909999,-8.190853E-05
0.0919999,-8.126477E-05
0.09299991,-8.065168E-05
0.09399991,-8.006924E-05
0.0949999,-7.942548E-05
0.0959999,-7.884304E-05
0.09699991,-7.819929E-05
0.09799991,-7.764751E-05
0.0989999,-7.712637E-05
0.0999999,-7.651328E-05
0.1009999,-7.586952E-05
0.1019999,-7.531774E-05
0.1029999,-7.464333E-05
0.1039999,-7.403023E-05
0.1049999,-7.35091E-05
0.1059999,-7.292666E-05
0.1069999,-7.240553E-05
0.1079999,-7.185374E-05
0.1089999,-7.133261E-05
0.1099999,-7.084214E-05
0.1109999,-7.029035E-05
0.1119999,-6.973856E-05
0.1129999,-6.918678E-05
0.1139999,-6.857367E-05
0.1149999,-6.805255E-05
0.1159999,-6.753141E-05
0.1169999,-6.704094E-05
0.1179999,-6.655046E-05
0.1189999,-6.605998E-05
0.1199999,-6.55695E-05
0.1209999,-6.514033E-05
0.1219999,-6.464986E-05
0.1229999,-6.415938E-05
0.1239999,-6.360759E-05
0.1249999,-6.305581E-05
0.1259999,-6.259599E-05
0.1269999,-6.207485E-05
0.1279999,-6.164568E-05
0.1289999,-6.121652E-05
0.1299999,-6.075669E-05
0.1309999,-6.029687E-05
0.1319999,-5.989836E-05
0.1329999,-5.943854E-05
0.1339999,-5.897872E-05
0.1349999,-5.851889E-05
0.1359999,-5.796711E-05
0.1369999,-5.753794E-05
0.1379999,-5.710877E-05
0.1389999,-5.664895E-05
0.1399999,-5.621978E-05
0.1409999,-5.579061E-05
0.1419999,-5.542276E-05
0.1429999,-5.502424E-05
0.1439999,-5.456442E-05
0.1449999,-5.419656E-05
0.1459999,-5.370608E-05
0.1469999,-5.321561E-05
0.1479999,-5.28171E-05
0.1489999,-5.238793E-05
0.1499999,-5.205073E-05
0.1509999,-5.168287E-05
0.1519999,-5.12537E-05
0.1529999,-5.097781E-05
0.1539999,-5.05793E-05
0.1549999,-5.011947E-05
0.1559999,-4.96903E-05
0.1569999,-4.916917E-05
0.1579999,-4.883197E-05
0.1589999,-4.852542E-05
0.1599999,-4.815756E-05
0.1609999,-4.77897E-05
0.1619999,-4.748316E-05
0.1629999,-4.714595E-05
0.1639999,-4.671679E-05
0.1649999,-4.637958E-05
0.1659999,-4.58891E-05
0.1669999,-4.552125E-05
0.1679999,-4.518405E-05
0.1689999,-4.484684E-05
0.1699999,-4.444833E-05
0.1709999,-4.420309E-05
0.1719999,-4.380458E-05
0.1729999,-4.346737E-05
0.1739999,-4.328345E-05
0.1749999,-4.285428E-05
0.1759999,-4.248642E-05
0.1769999,-4.211856E-05
0.1779999,-4.17507E-05
0.1789999,-4.138285E-05
0.1799999,-4.104565E-05
0.1809999,-4.067778E-05
0.1819999,-4.043255E-05
0.1829999,-4.009534E-05
0.1839999,-3.975814E-05
0.1849999,-3.948225E-05
0.1859999,-3.914504E-05
0.1869999,-3.883849E-05
0.1879999,-3.847064E-05
0.1889999,-3.804147E-05
0.1899999,-3.773492E-05
0.1909999,-3.742837E-05
0.1919999,-3.709117E-05
0.1929999,-3.684593E-05
0.1939999,-3.653938E-05
0.1949999,-3.629415E-05
0.1959999,-3.59876E-05
0.1969999,-3.56504E-05
0.1979999,-3.531319E-05
0.1989999,-3.494533E-05
0.1999999,-3.466944E-05
0.2009999,-3.439355E-05
0.2019999,-3.405634E-05
0.2029999,-3.38111E-05
0.2039999,-3.353521E-05
0.2049999,-3.325932E-05
0.2059999,-3.295277E-05
0.2069999,-3.258491E-05
0.2079999,-3.224771E-05
0.2089999,-3.194116E-05
0.2099999,-3.166527E-05
0.2109999,-3.138937E-05
0.2119999,-3.114414E-05
0.2129999,-3.083759E-05
0.2139999,-3.0623E-05
0.2149999,-3.034711E-05
0.2159999,-3.004056E-05
0.2169999,-2.973401E-05
0.2179999,-2.93355E-05
0.2189999,-2.905961E-05
0.2199999,-2.875306E-05
0.2209999,-2.850782E-05
0.2219999,-2.829324E-05
0.2229999,-2.801734E-05
0.2239999,-2.774145E-05
0.2249999,-2.752687E-05
0.2259999,-2.722032E-05
0.2269999,-2.697508E-05
0.2279999,-2.657657E-05
0.2289999,-2.627002E-05
0.2299999,-2.605543E-05
0.2309999,-2.574889E-05
0.2319999,-2.550365E-05
0.2329999,-2.522776E-05
0.2339999,-2.504382E-05
0.2349999,-2.482924E-05
0.2359999,-2.452269E-05
0.2369999,-2.427745E-05
0.2379999,-2.397091E-05
0.2389999,-2.36337E-05
0.2399999,-2.338846E-05
0.2409999,-2.308192E-05
0.2419999,-2.289799E-05
0.2429999,-2.262209E-05
0.2439999,-2.237685E-05
0.2449999,-2.219293E-05
0.2459999,-2.194769E-05
0.2469999,-2.157983E-05
0.2479999,-2.142655E-05
0.2489999,-2.10587E-05
0.2499999,-2.072149E-05
0.2509999,-2.050691E-05
0.2519999,-2.023102E-05
0.2529999,-1.998578E-05
0.2539999,-1.980185E-05
0.2549999,-1.946465E-05
0.2559999,-1.931137E-05
0.2569999,-1.909679E-05
0.2579999,-1.885155E-05
0.2589999,-1.860631E-05
0.2599999,-1.833042E-05
0.2609999,-1.805452E-05
0.2619999,-1.780929E-05
0.2629999,-1.747208E-05
0.2639999,-1.713488E-05
0.2649999,-1.69203E-05
0.2659999,-1.673637E-05
0.2669999,-1.649113E-05
0.2679999,-1.621523E-05
0.2689999,-1.597E-05
0.2699999,-1.572476E-05
0.2709999,-1.551017E-05
0.2719999,-1.529559E-05
0.2729999,-1.508101E-05
0.2739999,-1.480511E-05
0.2749999,-1.452922E-05
0.2759999,-1.425333E-05
0.2769999,-1.394678E-05
0.2779999,-1.370154E-05
0.2789999,-1.339499E-05
0.2799999,-1.348188E-05
0.2809999,-1.331634E-05
0.2819999,-1.304964E-05
0.2829999,-1.281973E-05
0.2839999,-1.257143E-05
0.2849999,-1.237217E-05
0.2859999,-1.215452E-05
0.2869999,-1.184491E-05
0.2879999,-1.155369E-05
0.2889999,-1.125634E-05
0.2899999,-1.093753E-05
0.2909999,-1.071374E-05
0.2919999,-1.046851E-05
0.2929999,-1.02386E-05
0.2939999,-9.95657E-06
0.2949999,-9.702136E-06
0.2959999,-9.521272E-06
0.2969999,-9.251509E-06
0.2979999,-8.997074E-06
0.2989999,-8.794753E-06
0.2999999,-8.500466E-06
0.3009999,-8.218442E-06
0.3019999,-7.964007E-06
0.3029999,-7.639066E-06
0.3039999,-7.360106E-06
0.3049999,-7.029035E-06
0.3059999,-6.762337E-06
0.3069999,-6.464986E-06
0.3079999,-6.186027E-06
0.3089999,-5.946919E-06
0.3099999,-5.664895E-06
0.3109999,-5.361412E-06
0.3119999,-5.110042E-06
0.3129999,-4.815756E-06
0.3139999,-4.527601E-06
0.3149999,-4.282362E-06
0.3159999,-3.902242E-06
0.3169999,-3.641677E-06
0.3179999,-3.396438E-06
0.3189999,-3.071497E-06
0.3199999,-2.786407E-06
0.3209999,-2.535037E-06
0.3219999,-2.219293E-06
0.3229999,-1.940334E-06
0.3239999,-1.557148E-06
0.3249999,-1.275124E-06
0.3259999,-1.029885E-06
0.3269999,-7.447955E-07
0.3279999,-3.891996E-07
0.3289999,-9.491323E-08
0.3299999,2.545518E-07
0.3309999,5.304452E-07
0.3319999,8.799103E-07
0.3329999,1.22631E-06
0.3339999,1.5114E-06
0.3349999,1.866996E-06
0.3359999,2.216461E-06
0.3369999,2.489289E-06
0.3379999,2.863277E-06
0.3389999,3.20048E-06
0.3399999,3.540749E-06
0.3409999,3.917803E-06
0.3419999,4.24581E-06
0.3429999,4.616733E-06
0.3439999,4.987657E-06
0.3449999,5.337122E-06
0.3459999,5.80001E-06
0.3469999,6.186261E-06
0.3479999,6.597035E-06
0.3489999,7.053792E-06
0.3499999,7.436977E-06
0.3509999,7.973436E-06
0.3519999,8.408735E-06
0.3529999,8.868557E-06
0.3539999,9.414213E-06
0.3549999,9.86484E-06
0.3559999,1.039823E-05
0.3569999,1.089178E-05
0.3579999,1.137919E-05
0.3589999,1.195856E-05
0.3599999,1.241225E-05
0.3609999,1.304068E-05
0.3619999,1.367217E-05
0.3629999,1.423928E-05
0.3639999,1.48953E-05
0.3649999,1.560649E-05
0.3659999,1.626557E-05
0.3669999,1.705646E-05
0.3679999,1.776765E-05
0.3689999,1.85984E-05
0.3699999,1.944141E-05
0.3709999,2.037025E-05
0.3719999,2.138799E-05
0.3729999,2.240266E-05
0.3739999,2.351543E-05
0.3749999,2.465273E-05
0.3759999,2.627235E-05
0.3769999,2.755985E-05
0.3779999,2.893932E-05
0.3789999,3.028813E-05
0.3799999,3.182088E-05
0.3809999,3.329231E-05
0.3819999,3.491702E-05
0.3829999,3.666434E-05
0.3839999,3.844232E-05
0.3849999,4.043488E-05
0.3859999,4.248875E-05
0.3869999,4.46959E-05
0.3879999,4.727091E-05
0.3889999,4.984592E-05
0.3899999,5.278878E-05
0.3909999,5.613015E-05
0.3919999,5.974742E-05
0.3929999,6.391648E-05
0.3939999,6.839208E-05
0.3949999,7.335816E-05
0.3959999,7.902931E-05
0.3969999,8.537486E-05
0.3979999,9.230284E-05
0.3989999,0.0001000585
0.3999999,0.0001086419
0.4009999,0.0001181755
0.4019999,0.0001286901
0.4029999,0.0001400937
0.4039999,0.0001528768
0.4049999,0.0001663649
0.4059999,0.0001810179
0.4069999,0.0001969891
0.4079999,0.0002139105
0.4089999,0.000232702
0.4099999,0.0002529954
0.4109999,0.0002739327
0.4119999,0.0002966173
0.4129999,0.0003237267
0.4139999,0.0003488636
0.4149999,0.0003758399
0.4159999,0.0004040423
0.4169999,0.000434084
0.4179999,0.0004650454
0.4189999,0.0004975395
0.4199999,0.0005321795
0.4209999,0.0005677391
0.4219999,0.0006054445
0.4229999,0.0006449892
0.4239999,0.0006854536
0.4249999,0.0007283704
0.4259999,0.0007722068
0.4269999,0.0008172694
0.4279999,0.0008653975
0.4289999,0.0009144452
0.4299999,0.0009653322
0.4309999,0.001018365
0.4319999,0.001072624
0.4329999,0.001129335
0.4339999,0.001188193
0.4349999,0.001248583
0.4359999,0.001312345
0.4369999,0.001377027
0.4379999,0.001444774
0.4389999,0.001516506
0.4399999,0.001588851
0.4409999,0.001666102
0.4419999,0.001746417
0.4429999,0.001828879
0.4439999,0.001917471
0.4449999,0.002007596
0.4459999,0.002102013
0.4469999,0.002202255
0.4479999,0.002306788
0.4489999,0.002416838
0.4499999,0.002531794
0.4509999,0.002650735
0.4519999,0.002778259
0.4529999,0.002909462
0.4539999,0.003048941
0.4549999,0.003225004
0.4559999,0.003375213
0.4569999,0.003537684
0.4579999,0.003706285
0.4589999,0.003881018
0.4599999,0.004071078
0.4609999,0.004267268
0.4619999,0.00446959
0.4629999,0.004684174
0.4639999,0.004907954
0.4649999,0.005140931
0.4659999,0.005383104
0.4669999,0.005637539
0.4679999,0.005904236
0.4689999,0.006173999
0.4699999,0.006456023
0.4709999,0.006750309
0.4719999,0.007044595
0.4729999,0.007348078
0.4739999,0.007660758
0.4749999,0.007970371
0.4759999,0.008286116
0.4769999,0.008604926
0.4779999,0.008923736
0.4789999,0.009242547
0.4799999,0.009561357
0.4809999,0.009877102
0.4819999,0.01019285
0.4829999,0.01050859
0.4839999,0.0108182
0.4849999,0.01112475
0.4859999,0.01142824
0.4869999,0.01172865
0.4879999,0.01201987
0.4889999,0.01231416
0.4899999,0.01260231
0.4909999,0.01288127
0.4919999,0.0131633
0.4929999,0.01343919
0.4939999,0.01370589
0.4949999,0.01397259
0.4959999,0.01423622
0.4969999,0.01449065
0.4979999,0.01474509
0.4989999,0.01499646
0.4999999,0.01524476
0.5009999,0.01549307
0.5019999,0.0157383
0.5029999,0.01597741
0.5039999,0.01622265
0.5049999,0.01647095
0.5059999,0.01671006
0.5069999,0.0169645
0.5079999,0.017222
0.5089999,0.0174703
0.5099999,0.017737
0.5109999,0.01800063
0.5119999,0.01827346
0.5129999,0.01855548
0.5139999,0.01883138
0.5149999,0.0191134
0.5159999,0.01941075
0.5169999,0.01970197
0.5179999,0.02000239
0.5189999,0.02031507
0.5199999,0.02061242
0.5209999,0.02093123
0.5219999,0.02125311
0.5229999,0.02156272
0.5239999,0.02189379
0.5249999,0.022231
0.5259999,0.02255594
0.5269999,0.02289621
0.5279999,0.02323647
0.5289999,0.02357368
0.5299999,0.02392314
0.5309999,0.02426954
0.5319999,0.02462207
0.5329999,0.02497154
0.5339999,0.0253302
0.5349999,0.0256858
0.5359999,0.02604752
0.5369999,0.02641538
0.5379999,0.02677098
0.5389999,0.02713577
0.5399999,0.02750976
0.5409999,0.02786842
0.5419999,0.02824547
0.5429999,0.02862253
0.5439999,0.02899038
0.5449999,0.02937357
0.5459999,0.02975675
0.5469999,0.03012768
0.5479999,0.03129975
0.5489999,0.03163695
0.5499999,0.03203546
0.5509999,0.03243398
0.5519999,0.03280183
0.5529999,0.03320035
0.5539999,0.03359886
0.5549999,0.03399737
0.5559999,0.03439588
0.5569999,0.0347944
0.5579999,0.03519291
0.5589999,0.03559142
0.5599999,0.03595928
0.5609999,0.03635779
0.5619999,0.0367563
0.5629999,0.03718547
0.5639999,0.03758398
0.5649999,0.0379825
0.5659999,0.03841167
0.5669999,0.03881018
0.5679999,0.03920869
0.5689999,0.03963786
0.5699999,0.04003637
0.5709999,0.04046554
0.5719999,0.04086405
0.5729999,0.04126256
0.5739999,0.04169173
0.5749999,0.0421209
0.5759999,0.04251941
0.5769999,0.04291793
0.5779999,0.04334709
0.5789999,0.04377626
0.5799999,0.04417477
0.5809999,0.04460394
0.5819999,0.04503311
0.5829999,0.04543162
0.5839999,0.04586079
0.5849999,0.04628995
0.5859999,0.04671912
0.5869999,0.04714829
0.5879999,0.0475468
0.5889999,0.04797597
0.5899999,0.04840514
0.5909999,0.04883431
0.5919999,0.04923282
0.5929999,0.04966199
0.5939999,0.05009115
0.5949999,0.05052032
0.5959999,0.05091884
0.5969999,0.051348
0.5979999,0.05180782
0.5989999,0.05220634
0.5999999,0.0526355
0.6009999,0.05306467
0.6019999,0.05349384
0.6029999,0.05392301
0.6039999,0.05435218
0.6049999,0.05478134
0.6059999,0.05521051
0.6069999,0.05563968
0.6079999,0.05606885
0.6089999,0.05649801
0.6099999,0.05692718
0.6109999,0.05735635
0.6119999,0.05781617
0.6129999,0.05821468
0.6139999,0.0586745
0.6149999,0.05913433
0.6159999,0.05953284
0.6169999,0.059962
0.6179999,0.06042183
0.6189999,0.060851
0.6199999,0.06128017
0.6209999,0.06173999
0.6219999,0.0621385
0.6229999,0.06256767
0.6239999,0.06305815
0.6249999,0.06345665
0.6259999,0.06391648
0.6269999,0.0643763
0.6279999,0.06480547
0.6289999,0.06523464
0.6299999,0.06569446
0.6309999,0.06609298
0.6319999,0.0665528
0.6329999,0.06701262
0.6339999,0.06741113
0.6349999,0.06787095
0.6359999,0.06830012
0.6369999,0.06872929
0.6379999,0.06918911
0.6389999,0.06964894
0.6399999,0.0700781
0.6409999,0.07053792
0.6419999,0.07096709
0.6429999,0.07139625
0.6439999,0.07188674
0.6449999,0.0723159
0.6459999,0.07274507
0.6469999,0.0732049
0.6479999,0.07363406
0.6489999,0.07409389
0.6499999,0.07455371
0.6509999,0.07495221
0.6519999,0.07541204
0.6529999,0.07587186
0.6539999,0.07630103
0.6549999,0.07676085
0.6559999,0.07722067
0.6569999,0.07764985
0.6579999,0.07814032
0.6589999,0.07856949
0.6599999,0.07899866
0.6609999,0.07948913
0.6619999,0.0799183
0.6629999,0.08034747
0.6639999,0.08083794
0.6649999,0.08129777
0.6659999,0.08172693
0.6669999,0.08215611
0.6679999,0.08261593
0.6689999,0.08304509
0.6699999,0.08350492
0.6709999,0.08396474
0.6719999,0.0843939
0.6729999,0.08488438
0.6739999,0.08531355
0.6749999,0.08577337
0.6759999,0.08626385
0.6769999,0.08669301
0.6779999,0.08715284
0.6789999,0.08764332
0.6799999,0.08804183
0.6809999,0.08850165
0.6819999,0.08899213
0.6829999,0.08939064
0.6839999,0.08988111
0.6849999,0.09034094
0.6859999,0.09077011
0.6869999,0.09122993
0.6879999,0.09168976
0.6889999,0.09211892
0.6899999,0.0926094
0.6909999,0.09306922
0.6919999,0.09352904
0.6929999,0.09398887
0.6939999,0.09444869
0.6949999,0.09487786
0.6959999,0.09536833
0.6969999,0.09576684
0.6979999,0.09625732
0.6989999,0.09671714
0.6999999,0.09680911
0.6990002,0.09637994
0.6980002,0.09592012
0.6970002,0.0954603
0.6960002,0.09503113
0.6950002,0.09457131
0.6940002,0.09411149
0.6930002,0.09365166
0.6920002,0.09319184
0.6910002,0.09273202
0.6900002,0.09230285
0.6890002,0.09184303
0.6880002,0.0913832
0.6870002,0.09095404
0.6860002,0.09046356
0.6850002,0.09000374
0.6840002,0.08960523
0.6830002,0.08914541
0.6820002,0.08868558
0.6810002,0.08825641
0.6800002,0.08776593
0.6790002,0.08730611
0.6780002,0.08687695
0.6770002,0.08641712
0.6760002,0.0859573
0.6750002,0.08552813
0.6740002,0.08506831
0.6730002,0.08460849
0.6720002,0.08417932
0.6710002,0.0837195
0.6700002,0.08325968
0.6690002,0.08283051
0.6680002,0.08237069
0.6670002,0.08194152
0.6660002,0.08145104
0.6650002,0.08102188
0.6640002,0.08059271
0.6630002,0.08013289
0.6620002,0.07970371
0.6610002,0.07924389
0.6600002,0.07881473
0.6590002,0.0783549
0.6580002,0.07792573
0.6570002,0.07746591
0.6560002,0.07703675
0.6550002,0.07657693
0.6540002,0.0761171
0.6530002,0.07568794
0.6520002,0.07522812
0.6510002,0.07479894
0.6500002,0.07436978
0.6490002,0.07390995
0.6480002,0.07348078
0.6470002,0.07302096
0.6460002,0.0725918
0.6450002,0.07213198
0.6440002,0.07167216
0.6430002,0.07124298
0.6420002,0.07081382
0.6410002,0.07035399
0.6400002,0.06992482
0.6390002,0.069465
0.6380002,0.06900518
0.6370002,0.06860667
0.6360002,0.06814685
0.6350002,0.06771768
0.6340002,0.06725786
0.6330002,0.06682869
0.6320002,0.06636887
0.6310002,0.06597035
0.6300002,0.06551053
0.6290002,0.06508137
0.6280002,0.06462154
0.6270002,0.06419238
0.6260002,0.06373256
0.6250002,0.06333404
0.6240002,0.06287422
0.6230002,0.06244505
0.6220002,0.06201588
0.6210002,0.06155606
0.6200002,0.06112689
0.6190002,0.06069772
0.6180002,0.0602379
0.6170002,0.05980873
0.6160002,0.05937957
0.6150002,0.05891975
0.6140002,0.05852123
0.6130002,0.05809207
0.6120002,0.05763224
0.6110002,0.05720307
0.6100002,0.05677391
0.6090002,0.05634474
0.6080002,0.05591557
0.6070002,0.05548641
0.6060002,0.05502658
0.6050002,0.05462807
0.6040002,0.0541989
0.6030002,0.05373908
0.6020002,0.05330991
0.6010002,0.0529114
0.6000002,0.05245158
0.5990002,0.05205306
0.5980002,0.05162389
0.5970002,0.05119473
0.5960002,0.05076556
0.5950002,0.05033639
0.5940002,0.04990723
0.5930002,0.04950871
0.5920002,0.04904889
0.5910002,0.04861972
0.5900002,0.04822121
0.5890002,0.04779204
0.5880002,0.04736288
0.5870002,0.04693371
0.5860002,0.04650454
0.5850002,0.04610603
0.5840002,0.04567686
0.5830002,0.04524769
0.5820002,0.04481852
0.5810002,0.04442001
0.5800002,0.04399084
0.5790002,0.04356168
0.5780002,0.04316316
0.5770002,0.04273399
0.5760002,0.04233548
0.5750002,0.04190632
0.5740002,0.04147715
0.5730002,0.04107863
0.5720002,0.04064947
0.5710002,0.0402203
0.5700002,0.03982178
0.5690002,0.03939262
0.5680002,0.03899411
0.5670002,0.03859559
0.5660002,0.03819708
0.5650002,0.03776791
0.5640002,0.03733874
0.5630002,0.03694023
0.5620002,0.03654172
0.5610002,0.03614321
0.5600002,0.03571404
0.5590002,0.03531553
0.5580002,0.03491702
0.5570002,0.0345185
0.5560002,0.03411999
0.5550002,0.03372148
0.5540002,0.03329231
0.5530002,0.0328938
0.5520002,0.03249529
0.5510002,0.03209677
0.5500002,0.03172891
0.5490002,0.0313304
0.5480002,0.03090123
0.5470002,0.03053337
0.5460002,0.03010421
0.5450002,0.02970569
0.5440002,0.02933784
0.5430002,0.02893933
0.5420002,0.02854081
0.5410002,0.02817295
0.5400002,0.02777444
0.5390002,0.02737593
0.5380002,0.02700807
0.5370002,0.02660956
0.5360002,0.0262417
0.5350002,0.02584319
0.5340002,0.02544468
0.5330002,0.02507682
0.5320002,0.02470896
0.5310002,0.02431045
0.5300002,0.02394259
0.5290002,0.02357473
0.5280002,0.02320687
0.5270002,0.02280836
0.5260002,0.0224405
0.5250002,0.02207264
0.5240002,0.02170478
0.5230002,0.02133693
0.5220002,0.02096907
0.5210002,0.02060121
0.5200002,0.02023335
0.5190002,0.0198655
0.5180002,0.01949764
0.5170002,0.01912978
0.5160002,0.01879258
0.5150002,0.01845537
0.5140002,0.01808752
0.5130002,0.01775031
0.5120002,0.01738245
0.5110002,0.0170146
0.5100002,0.01667739
0.5090002,0.01634019
0.5080002,0.01600299
0.5070002,0.01566578
0.5060002,0.01532858
0.5050002,0.01496072
0.5040002,0.01465417
0.5030002,0.01431697
0.5020002,0.01397977
0.5010002,0.01364256
0.5000002,0.01330536
0.4990002,0.01249196
0.4980002,0.01217928
0.4970002,0.01186047
0.4960002,0.01155085
0.4950002,0.01123818
0.4940002,0.01092856
0.4930002,0.01062508
0.4920002,0.0103216
0.4910002,0.01002118
0.4900002,0.009726893
0.4890002,0.009429541
0.4880002,0.00913832
0.4870002,0.008850165
0.4860002,0.008565075
0.4850002,0.008283051
0.4840002,0.008004092
0.4830002,0.007731264
0.4820002,0.00745537
0.4810002,0.007188674
0.4800002,0.00691891
0.4790002,0.006655279
0.4780002,0.006400844
0.4770002,0.006143344
0.4760002,0.005891975
0.4750002,0.005646735
0.4740002,0.005395366
0.4730002,0.005156258
0.4720002,0.004923282
0.4710002,0.004687239
0.4700002,0.004457328
0.4690002,0.004233548
0.4680002,0.004009768
0.4670002,0.003792119
0.4660002,0.003577535
0.4650002,0.003369082
0.4640002,0.00316676
0.4630002,0.002964438
0.4620002,0.002768247
0.4610002,0.002575122
0.4600002,0.002385062
0.4590002,0.002201133
0.4580002,0.00202027
0.4570002,0.001848603
0.4560002,0.001676936
0.4550002,0.001508334
0.4540002,0.001342798
0.4530002,0.001186459
0.4520002,0.0009966001
0.4510002,0.0008494569
0.4500002,0.000700781
0.4490002,0.0005579296
0.4480002,0.0004196763
0.4470002,0.0002811164
0.4460002,0.0001520596
0.4450002,2.453554E-05
0.4440002,-0.0001071068
0.4430002,-0.0002236871
0.4420002,-0.0003419534
0.4410002,-0.0004576649
0.4400002,-0.0005646503
0.4390002,-0.0006756207
0.4380002,-0.0007789275
0.4370002,-0.000880395
0.4360002,-0.0009815559
0.4350002,-0.001075053
0.4340002,-0.001171309
0.4330002,-0.001262967
0.4320002,-0.001350947
0.4310002,-0.001441072
0.4300002,-0.00152384
0.4290002,-0.001608447
0.4280002,-0.001692441
0.4270002,-0.001768465
0.4260002,-0.001847861
0.4250002,-0.001924498
0.4240002,-0.001996844
0.4230002,-0.002074094
0.4220002,-0.002145826
0.4210002,-0.002214493
0.4200002,-0.002287758
0.4190002,-0.002353666
0.4180002,-0.002421413
0.4170002,-0.002488854
0.4160002,-0.002554761
0.4150002,-0.002621282
0.4140002,-0.002684431
0.4130002,-0.002748194
0.4120002,-0.002811956
0.4110002,-0.002873265
0.4100002,-0.002941932
0.4090002,-0.003006307
0.4080002,-0.00302858
0.4070002,-0.003089889
0.4060002,-0.003145068
0.4050002,-0.003203312
0.4040002,-0.003267688
0.4030002,-0.003325932
0.4020002,-0.003384176
0.4010002,-0.00344242
0.4000002,-0.003500664
0.3990002,-0.003558908
0.3980002,-0.003614087
0.3970002,-0.003672331
0.3960002,-0.003733641
0.3950002,-0.003785754
0.3940002,-0.003840933
0.3930002,-0.003896111
0.3920002,-0.003948225
0.3910002,-0.004006469
0.3900002,-0.004058582
0.3890002,-0.00410763
0.3880002,-0.004159743
0.3870002,-0.004205726
0.3860002,-0.004251707
0.3850002,-0.00429769
0.3840002,-0.004340607
0.3830002,-0.004386589
0.3820002,-0.004423374
0.3810002,-0.004463226
0.3800002,-0.004500012
0.3790002,-0.004533732
0.3780002,-0.004570518
0.3770002,-0.004601172
0.3760002,-0.004631828
0.3750002,-0.004662482
0.3740002,-0.004687006
0.3730002,-0.00471153
0.3720002,-0.004736054
0.3710002,-0.004754446
0.3700002,-0.004775905
0.3690002,-0.004791233
0.3680002,-0.004800429
0.3670002,-0.004815756
0.3660002,-0.004815756
0.3650002,-0.004818822
0.3640002,-0.004818822
0.3630002,-0.00480656
0.3620002,-0.004794298
0.3610002,-0.00477284
0.3600002,-0.004742185
0.3590002,-0.004708464
0.3580002,-0.004665548
0.3570002,-0.004613434
0.3560002,-0.004558256
0.3550002,-0.004490815
0.3540002,-0.004420309
0.3530002,-0.004340607
0.3520002,-0.004254773
0.3510002,-0.004159743
0.3500002,-0.004058582
0.3490002,-0.00395129
0.3480002,-0.003834802
0.3470002,-0.003712183
0.3460002,-0.003583432
0.3450002,-0.003445486
0.3440002,-0.003301408
0.3430002,-0.003151199
0.3420002,-0.002997925
0.3410002,-0.002841586
0.3400002,-0.002688312
0.3390002,-0.002535037
0.3380002,-0.00239096
0.3370002,-0.002256078
0.3360002,-0.002127328
0.3350002,-0.002013905
0.3340002,-0.001906613
0.3330002,-0.001811583
0.3320002,-0.001728815
0.3310002,-0.001652178
0.3300002,-0.001584738
0.3290002,-0.001559706
0.3280002,-0.001504221
0.3270002,-0.00145456
0.3260002,-0.001408884
0.3250002,-0.0013675
0.3240002,-0.001329488
0.3230002,-0.001294235
0.3220002,-0.001262048
0.3210002,-0.001231699
0.3200002,-0.001203803
0.3190002,-0.00117744
0.3180002,-0.00115261
0.3170002,-0.001129312
0.3160002,-0.001107547
0.3150002,-0.001086395
0.3140002,-0.001066776
0.3130002,-0.001048077
0.3120002,-0.001029684
0.3110002,-0.001012824
0.3100002,-0.0009962702
0.3090002,-0.0009803297
0.3080002,-0.0009653088
0.3070002,-0.0009512077
0.3060002,-0.0009371064
0.3050002,-0.0009236183
0.3040002,-0.0009104367
0.3030002,-0.0008978682
0.3020002,-0.0008859128
0.3010002,-0.000874264
0.3000002,-0.0008629217
0.2990002,-0.0008515794
0.2980002,-0.0008414634
0.2970002,-0.0008310407
0.2960002,-0.0008209246
0.2950002,-0.0008114216
0.2940002,-0.0008019186
0.2930002,-0.0007927222
0.2920002,-0.0007838323
0.2910002,-0.0007752489
0.2900002,-0.0007666656
0.2890002,-0.0007586953
0.2880002,-0.000750725
0.2870002,-0.0007430614
0.2860002,-0.0007353976
0.2850002,-0.0007280405
0.2840002,-0.0007206833
0.2830002,-0.0007136327
0.2820002,-0.0007065821
0.2810002,-0.000699838
0.2800002,-0.000693094
0.2790002,-0.000686963
0.2780002,-0.0006805255
0.2770002,-0.0006743945
0.2760002,-0.0006685701
0.2750002,-0.0006624392
0.2740002,-0.0006569213
0.2730002,-0.0006510969
0.2720002,-0.000645579
0.2710002,-0.0006403677
0.2700002,-0.0006348498
0.2690002,-0.0006296384
0.2680002,-0.0006247337
0.2670002,-0.0006198289
0.2660002,-0.0006146176
0.2650002,-0.0006100194
0.2640002,-0.0006051146
0.2630002,-0.000600823
0.2620002,-0.0005962247
0.2610002,-0.0005916265
0.2600002,-0.0005870283
0.2590002,-0.0005827366
0.2580002,-0.0005787515
0.2570002,-0.0005747664
0.2560002,-0.0005704747
0.2550002,-0.0005664895
0.2540002,-0.0005625045
0.2530002,-0.0005585193
0.2520002,-0.0005548407
0.2510002,-0.0005511622
0.2500002,-0.0005474835
0.2490002,-0.000543805
0.2480002,-0.0005401264
0.2470002,-0.0005367543
0.2460002,-0.0005333824
0.2450002,-0.0005300103
0.2440002,-0.0005266382
0.2430002,-0.0005232662
0.2420002,-0.0005198942
0.2410002,-0.0005168287
0.2400002,-0.0005137632
0.2390002,-0.0005106977
0.2380002,-0.0005076323
0.2370002,-0.0005045668
0.2360002,-0.0005015013
0.2350002,-0.0004984358
0.2340002,-0.0004956769
0.2330002,-0.000492918
0.2320002,-0.0004898525
0.2310002,-0.0004874001
0.2300002,-0.0004843346
0.2290002,-0.0004815757
0.2280002,-0.0004791233
0.2270002,-0.0004763643
0.2260002,-0.000473912
0.2250002,-0.000471153
0.2240002,-0.0004687006
0.2230002,-0.0004662482
0.2220002,-0.0004637959
0.2210002,-0.0004613435
0.2200002,-0.0004588911
0.2190002,-0.0004564387
0.2180002,-0.0004542929
0.2170002,-0.0004518405
0.2160002,-0.0004493881
0.2150002,-0.0004472423
0.2140002,-0.0004450964
0.2130002,-0.0004429506
0.2120002,-0.0004408048
0.2110002,-0.0004386589
0.2100002,-0.000436513
0.2090002,-0.0004343672
0.2080002,-0.0004325279
0.2070002,-0.0004303821
0.2060002,-0.0004282363
0.2050002,-0.000426397
0.2040002,-0.0004245577
0.2030002,-0.0004224119
0.2020002,-0.0004205726
0.2010002,-0.0004187333
0.2000002,-0.0004165874
0.1990002,-0.0004147482
0.1980002,-0.0004129088
0.1970002,-0.0004110696
0.1960002,-0.0004092303
0.1950002,-0.000407391
0.1940002,-0.0004055517
0.1930002,-0.0004037124
0.1920002,-0.0004018731
0.1910002,-0.0004003404
0.1900002,-0.0003985011
0.1890002,-0.0003966618
0.1880002,-0.0003951291
0.1870002,-0.0003935963
0.1860002,-0.000391757
0.1850002,-0.0003902243
0.1840002,-0.0003886915
0.1830002,-0.0003871588
0.1820002,-0.0003856261
0.1810002,-0.0003837868
0.1800002,-0.000382254
0.1790002,-0.0003807213
0.1780002,-0.0003791885
0.1770002,-0.0003776558
0.1760002,-0.0003761231
0.1750002,-0.0003745903
0.1740002,-0.0003733641
0.1730002,-0.0003718314
0.1720002,-0.0003702986
0.1710002,-0.0003690725
0.1700002,-0.0003675397
0.1690002,-0.0003660069
0.1680002,-0.0003647808
0.1670002,-0.0003635546
0.1660002,-0.0003620218
0.1650002,-0.0003607956
0.1640002,-0.0003592629
0.1630002,-0.0003580367
0.1620002,-0.0003568105
0.1610002,-0.0003552778
0.1600002,-0.0003540516
0.1590002,-0.0003528254
0.1580002,-0.0003512927
0.1570002,-0.0003500664
0.1560002,-0.0003488403
0.1550002,-0.0003476141
0.1540002,-0.0003463879
0.1530002,-0.0003454682
0.1520002,-0.000344242
0.1510002,-0.0003430158
0.1500002,-0.0003417897
0.1490002,-0.0003405634
0.1480002,-0.0003393373
0.1470002,-0.0003381111
0.1460002,-0.0003368849
0.1450002,-0.0003356587
0.1440002,-0.0003344325
0.1430002,-0.0003335129
0.1420002,-0.0003322866
0.1410002,-0.000331367
0.1400002,-0.0003301408
0.1390002,-0.0003289146
0.1380002,-0.000327995
0.1370002,-0.0003267688
0.1360002,-0.0003258491
0.1350002,-0.0003249295
0.1340002,-0.0003237033
0.1330002,-0.0003224771
0.1320002,-0.0003215575
0.1310002,-0.0003203313
0.1300002,-0.0003194116
0.1290002,-0.000318492
0.1280002,-0.0003172658
0.1270002,-0.0003163462
0.1260002,-0.0003151199
0.1250002,-0.0003142003
0.1240002,-0.0003132806
0.1230002,-0.0003120545
0.1220002,-0.0003111348
0.1210002,-0.0003102152
0.1200002,-0.0003092955
0.1190002,-0.0003083759
0.1180002,-0.0003074562
0.1170002,-0.00030623
0.1160002,-0.000305617
0.1150002,-0.0003043908
0.1140002,-0.0003037777
0.1130002,-0.000302858
0.1120002,-0.0003019384
0.1110002,-0.0003010187
0.1100002,-0.0003000991
0.1090002,-0.0002991795
0.1080002,-0.0002982598
0.1070002,-0.0002973401
0.1060002,-0.0002964205
0.1050002,-0.0002955009
0.1040002,-0.0002945812
0.1030002,-0.0002939681
0.1020002,-0.0002930485
0.1010002,-0.0002921289
0.1000002,-0.0002912092
0.09900019,-0.0002902895
0.09800019,-0.0002893699
0.09700019,-0.0002884502
0.09600019,-0.0002878372
0.09500019,-0.0002869175
0.09400019,-0.0002859978
0.09300019,-0.0002853848
0.09200019,-0.0002844651
0.09100019,-0.000283852
0.09000019,-0.0002829324
0.08900019,-0.0002820127
0.08800019,-0.0002810931
0.08700019,-0.00028048
0.08600019,-0.0002795603
0.08500019,-0.0002789472
0.08400019,-0.0002780276
0.08300019,-0.0002774145
0.08200019,-0.0002764949
0.08100019,-0.0002758818
0.08000019,-0.0002749621
0.07900019,-0.0002740425
0.07800019,-0.0002734294
0.07700019,-0.0002725097
0.07600019,-0.0002718967
0.07500019,-0.000270977
0.07400019,-0.0002703639
0.07300019,-0.0002694443
0.07200019,-0.0002688312
0.07100019,-0.0002679115
0.07000019,-0.0002672984
0.06900019,-0.0002663788
0.06800019,-0.0002657657
0.06700019,-0.0002651526
0.06600019,-0.0002642329
0.06500019,-0.0002636198
0.06400019,-0.0002630067
0.06300019,-0.0002620871
0.06200019,-0.000261474
0.06100019,-0.0002605543
0.06000019,-0.0002596347
0.05900019,-0.0002590216
0.05800019,-0.0002584085
0.05700019,-0.0002577954
0.05600019,-0.0002568758
0.05500019,-0.0002562627
0.05400019,-0.000255343
0.05300019,-0.0002547299
0.05200019,-0.0002541168
0.05100019,-0.0002531972
0.05000019,-0.0002525841
0.04900019,-0.0002516645
0.04800019,-0.0002510514
0.04700019,-0.0002504383
0.04600019,-0.0002495186
0.04500019,-0.0002489055
0.04400019,-0.0002482924
0.04300019,-0.0002473728
0.04200019,-0.0002467597
0.04100019,-0.00024584
0.04000019,-0.0002449204
0.03900019,-0.0002443073
0.03800019,-0.0002436942
0.03700019,-0.0002427746
0.03600019,-0.0002421615
0.03500019,-0.0002415484
0.03400019,-0.0002406287
0.03300019,-0.0002400156
0.03200019,-0.000239096
0.03100019,-0.0002384829
0.03000019,-0.0002378698
0.02900019,-0.0002369501
0.02800019,-0.000236337
0.02700019,-0.000235724
0.02600019,-0.0002348043
0.02500019,-0.0002341912
0.02400019,-0.0002335781
0.02300019,-0.0002326585
0.02200019,-0.0002320454
0.02100019,-0.0002314323
0.02000019,-0.0002308192
0.01900019,-0.0002298995
0.01800019,-0.0002292864
0.01700019,-0.0002286733
0.01600019,-0.0002280602
0.01500019,-0.0002271406
0.01400019,-0.0002265275
0.01300019,-0.0002259144
0.01200019,-0.0002253013
0.01100019,-0.0002246882
0.01000019,-0.0002240751
0.009000191,-0.000223462
0.00800019,-0.0002225424
0.007000191,-0.0002219293
0.006000191,-0.0002213162
0.005000191,-0.0002207031
0.004000191,-0.00022009
0.003000191,-0.0002194769
0.002000191,-0.0002188638
0.001000191,-0.0002182507
1.907349E-07,-0.0002148787
0.0009998092,-0.000210587
0.001999809,-0.0002069084
0.002999809,-0.0002032298
0.003999809,-0.0002001643
0.004999809,-0.0001970989
0.005999809,-0.0001943399
0.006999809,-0.000191581
0.007999809,-0.0001888221
0.00899981,-0.0001863697
0.009999809,-0.0001839173
0.01099981,-0.0001817715
0.01199981,-0.0001793191
0.01299981,-0.0001768667
0.01399981,-0.0001747208
0.01499981,-0.0001728816
0.01599981,-0.0001707357
0.01699981,-0.0001688964
0.01799981,-0.0001667506
0.01899981,-0.0001649113
0.01999981,-0.000163072
0.02099981,-0.0001612327
0.02199981,-0.0001593934
0.02299981,-0.0001611206
0.02399981,-0.0001595265
0.02499981,-0.0001579631
0.02599981,-0.0001563384
0.02699981,-0.0001547751
0.02799981,-0.0001532423
0.02899981,-0.0001517709
0.02999981,-0.0001503301
0.03099981,-0.0001487667
0.03199981,-0.0001473259
0.03299981,-0.0001458238
0.03399981,-0.0001443524
0.03499981,-0.0001430649
0.03599981,-0.0001416855
0.03699981,-0.0001403979
0.03799981,-0.0001391411
0.03899981,-0.0001378536
0.03999981,-0.0001365967
0.04099981,-0.0001353399
0.04199981,-0.0001341137
0.04299981,-0.0001329795
0.04399981,-0.0001317839
0.04499981,-0.000130619
0.04599981,-0.0001294542
0.04699981,-0.0001281973
0.04799981,-0.0001270937
0.04899981,-0.0001259595
0.04999981,-0.0001248559
0.05099981,-0.0001238137
0.05199981,-0.0001227101
0.05299981,-0.0001217291
0.05399981,-0.0001207175
0.05499981,-0.0001196753
0.05599981,-0.0001186943
0.05699981,-0.000117744
0.05799981,-0.0001167631
0.05899981,-0.0001157515
0.05999981,-0.0001147092
0.06099981,-0.0001136976
0.06199981,-0.0001128393
0.06299981,-0.0001118583
0.06399981,-0.000111
0.06499981,-0.0001100497
0.06599981,-0.0001091913
0.06699981,-0.0001083943
0.06799981,-0.0001075053
0.06899981,-0.000106647
0.06999981,-0.0001057273
0.07099981,-0.0001048077
0.07199981,-0.0001039494
0.07299981,-0.0001031217
0.07399981,-0.000102294
0.07499981,-0.000101497
0.07599981,-0.0001006693
0.07699981,-9.990291E-05
0.07799981,-9.913654E-05
0.07899981,-9.837017E-05
0.07999981,-9.757314E-05
0.08099981,-9.689873E-05
0.08199981,-9.610171E-05
0.08299981,-9.539664E-05
0.08399981,-9.463028E-05
0.08499981,-9.389456E-05
0.08599981,-9.309754E-05
0.08699981,-9.226986E-05
0.08799981,-9.15648E-05
0.08899981,-9.085974E-05
0.08999981,-9.018533E-05
0.09099981,-8.948027E-05
0.09199981,-8.880586E-05
0.09299981,-8.81008E-05
0.09399981,-8.745705E-05
0.09499981,-8.678265E-05
0.09599981,-8.613889E-05
0.09699981,-8.549514E-05
0.09799981,-8.485139E-05
0.09899981,-8.426895E-05
0.09999981,-8.353323E-05
0.1009998,-8.295078E-05
0.1019998,-8.230704E-05
0.1029998,-8.160197E-05
0.1039998,-8.095823E-05
0.1049998,-8.031447E-05
0.1059998,-7.970138E-05
0.1069998,-7.911894E-05
0.1079998,-7.844453E-05
0.1089998,-7.789274E-05
0.1099998,-7.734096E-05
0.1109998,-7.678917E-05
0.1119998,-7.620673E-05
0.1129998,-7.56856E-05
0.1139998,-7.510315E-05
0.1149998,-7.458202E-05
0.1159998,-7.396893E-05
0.1169998,-7.338648E-05
0.1179998,-7.286535E-05
0.1189998,-7.22216E-05
0.1199998,-7.166981E-05
0.1209998,-7.111803E-05
0.1219998,-7.056624E-05
0.1229998,-7.010641E-05
0.1239998,-6.955463E-05
0.1249998,-6.90335E-05
0.1259998,-6.854302E-05
0.1269998,-6.805255E-05
0.1279998,-6.759272E-05
0.1289998,-6.704094E-05
0.1299998,-6.65198E-05
0.1309998,-6.605998E-05
0.1319998,-6.550819E-05
0.1329998,-6.498706E-05
0.1339998,-6.449658E-05
0.1349998,-6.397545E-05
0.1359998,-6.345432E-05
0.1369998,-6.29945E-05
0.1379998,-6.253467E-05
0.1389998,-6.207485E-05
0.1399998,-6.155372E-05
0.1409998,-6.106325E-05
0.1419998,-6.063408E-05
0.1429998,-6.017425E-05
0.1439998,-5.968377E-05
0.1449998,-5.928526E-05
0.1459998,-5.879479E-05
0.1469998,-5.839627E-05
0.1479998,-5.784449E-05
0.1489998,-5.744598E-05
0.1499998,-5.707812E-05
0.1509998,-5.66183E-05
0.1519998,-5.618912E-05
0.1529998,-5.572931E-05
0.1539998,-5.526948E-05
0.1549998,-5.493228E-05
0.1559998,-5.450311E-05
0.1569998,-5.407395E-05
0.1579998,-5.367543E-05
0.1589998,-5.327692E-05
0.1599998,-5.284775E-05
0.1609998,-5.244924E-05
0.1619998,-5.211203E-05
0.1629998,-5.168287E-05
0.1639998,-5.128435E-05
0.1649998,-5.088584E-05
0.1659998,-5.048733E-05
0.1669998,-5.011947E-05
0.1679998,-4.972096E-05
0.1689998,-4.932245E-05
0.1699998,-4.886262E-05
0.1709998,-4.849477E-05
0.1719998,-4.80656E-05
0.1729998,-4.763643E-05
0.1739998,-4.729923E-05
0.1749998,-4.687006E-05
0.1759998,-4.653286E-05
0.1769998,-4.613434E-05
0.1779998,-4.58278E-05
0.1789998,-4.542928E-05
0.1799998,-4.506143E-05
0.1809998,-4.475488E-05
0.1819998,-4.438702E-05
0.1829998,-4.408047E-05
0.1839998,-4.377393E-05
0.1849998,-4.340606E-05
0.1859998,-4.303821E-05
0.1869998,-4.267035E-05
0.1879998,-4.224118E-05
0.1889998,-4.187332E-05
0.1899998,-4.147481E-05
0.1909998,-4.113761E-05
0.1919998,-4.083106E-05
0.1929998,-4.04632E-05
0.1939998,-4.0126E-05
0.1949998,-3.981945E-05
0.1959998,-3.954356E-05
0.1969998,-3.920636E-05
0.1979998,-3.889981E-05
0.1989998,-3.850129E-05
0.1999998,-3.804147E-05
0.2009998,-3.776558E-05
0.2019998,-3.739772E-05
0.2029998,-3.712183E-05
0.2039998,-3.678462E-05
0.2049998,-3.647808E-05
0.2059998,-3.623284E-05
0.2069998,-3.589563E-05
0.2079998,-3.555843E-05
0.2089998,-3.522123E-05
0.2099998,-3.47614E-05
0.2109998,-3.445486E-05
0.2119998,-3.414831E-05
0.2129998,-3.384176E-05
0.2139998,-3.362718E-05
0.2149998,-3.325932E-05
0.2159998,-3.298343E-05
0.2169998,-3.270753E-05
0.2179998,-3.233967E-05
0.2189998,-3.200247E-05
0.2199998,-3.163461E-05
0.2209998,-3.129741E-05
0.2219998,-3.105217E-05
0.2229998,-3.074562E-05
0.2239998,-3.040842E-05
0.2249998,-3.013253E-05
0.2259998,-2.985663E-05
0.2269998,-2.964205E-05
0.2279998,-2.930485E-05
0.2289998,-2.905961E-05
0.2299998,-2.87224E-05
0.2309998,-2.83852E-05
0.2319998,-2.8048E-05
0.2329998,-2.768014E-05
0.2339998,-2.740424E-05
0.2349998,-2.712835E-05
0.2359998,-2.68218E-05
0.2369998,-2.64846E-05
0.2379998,-2.627002E-05
0.2389998,-2.596347E-05
0.2399998,-2.565692E-05
0.2409998,-2.541168E-05
0.2419998,-2.513579E-05
0.2429998,-2.489055E-05
0.2439998,-2.455335E-05
0.2449998,-2.42468E-05
0.2459998,-2.394025E-05
0.2469998,-2.36337E-05
0.2479998,-2.326585E-05
0.2489998,-2.298995E-05
0.2499998,-2.265275E-05
0.2509998,-2.237685E-05
0.2519998,-2.207031E-05
0.2529998,-2.179441E-05
0.2539998,-2.151852E-05
0.2549998,-2.124263E-05
0.2559998,-2.093608E-05
0.2569998,-2.069084E-05
0.2579998,-2.035364E-05
0.2589998,-2.004709E-05
0.2599998,-1.974054E-05
0.2609998,-1.946465E-05
0.2619998,-1.931137E-05
0.2629998,-1.894351E-05
0.2639998,-1.863697E-05
0.2649998,-1.845304E-05
0.2659998,-1.808518E-05
0.2669998,-1.783994E-05
0.2679998,-1.750274E-05
0.2689998,-1.716554E-05
0.2699998,-1.688964E-05
0.2709998,-1.661375E-05
0.2719998,-1.627654E-05
0.2729998,-1.600065E-05
0.2739998,-1.56941E-05
0.2749998,-1.532624E-05
0.2759998,-1.495839E-05
0.2769998,-1.471315E-05
0.2779998,-1.437595E-05
0.2789998,-1.413071E-05
0.2799998,-1.382416E-05
0.2809998,-1.377003E-05
0.2819998,-1.348188E-05
0.2829998,-1.32489E-05
0.2839998,-1.29025E-05
0.2849998,-1.258676E-05
0.2859998,-1.235071E-05
0.2869998,-1.197979E-05
0.2879998,-1.16855E-05
0.2889998,-1.141268E-05
0.2899998,-1.105708E-05
0.2909998,-1.083943E-05
0.2919998,-1.053288E-05
0.2929998,-1.017115E-05
0.2939998,-9.898326E-06
0.2949998,-9.63776E-06
0.2959998,-9.337343E-06
0.2969998,-9.015467E-06
0.2979998,-8.662937E-06
0.2989998,-8.390109E-06
0.2999998,-8.022251E-06
0.3009998,-7.758619E-06
0.3019998,-7.455137E-06
0.3029998,-7.078082E-06
0.3039998,-6.796058E-06
0.3049998,-6.458855E-06
0.3059998,-6.14311E-06
0.3069998,-5.772187E-06
0.3079998,-5.404329E-06
0.3089998,-5.064061E-06
0.3099998,-4.794298E-06
0.3109998,-4.340607E-06
0.3119998,-4.037124E-06
0.3129998,-3.660069E-06
0.3139998,-3.283015E-06
0.3149998,-2.939681E-06
0.3159998,-2.541168E-06
0.3169998,-2.197834E-06
0.3179998,-1.921941E-06
0.3189998,-1.526494E-06
0.3199998,-1.137177E-06
0.3209998,-7.601229E-07
0.3219998,-4.167889E-07
0.3229998,-9.184775E-08
0.3239998,3.158614E-07
0.3249998,6.591955E-07
0.3259998,1.03625E-06
0.3269998,1.38878E-06
0.3279998,1.799555E-06
0.3289998,2.185806E-06
0.3299998,2.556729E-06
0.3309998,2.982831E-06
0.3319998,3.366017E-06
0.3329998,3.70322E-06
0.3339998,4.120126E-06
0.3349998,4.552358E-06
0.3359998,4.929413E-06
0.3369998,5.352449E-06
0.3379998,5.775486E-06
0.3389998,6.143344E-06
0.3399998,6.615428E-06
0.3409998,6.998613E-06
0.3419998,7.42165E-06
0.3429998,7.955044E-06
0.3439998,8.384211E-06
0.3449998,8.939064E-06
0.3459998,9.466326E-06
0.3469998,9.901625E-06
0.3479998,1.045648E-05
0.3489998,1.102359E-05
0.3499998,1.150487E-05
0.3509998,1.210571E-05
0.3519998,1.265136E-05
0.3529998,1.316636E-05
0.3539998,1.374881E-05
0.3549998,1.432205E-05
0.3559998,1.48953E-05
0.3569998,1.55605E-05
0.3579998,1.613988E-05
0.3589998,1.680203E-05
0.3599998,1.739979E-05
0.3609998,1.808646E-05
0.3619998,1.881605E-05
0.3629998,1.950272E-05
0.3639998,2.030587E-05
0.3649998,2.103239E-05
0.3659998,2.190912E-05
0.3669998,2.287475E-05
0.3679998,2.371776E-05
0.3689998,2.510747E-05
0.3699998,2.614973E-05
0.3709998,2.716134E-05
0.3719998,2.826491E-05
0.3729998,2.949111E-05
0.3739998,3.068665E-05
0.3749998,3.206612E-05
0.3759998,3.344558E-05
0.3769998,3.47944E-05
0.3779998,3.638844E-05
0.3789998,3.795184E-05
0.3799998,3.96072E-05
0.3809998,4.144649E-05
0.3819998,4.328578E-05
0.3829998,4.527835E-05
0.3839998,4.733222E-05
0.3849998,4.963133E-05
0.3859998,5.208372E-05
0.3869998,5.481199E-05
0.3879998,5.772421E-05
0.3889998,6.097361E-05
0.3899998,6.462153E-05
0.3909998,6.872928E-05
0.3919998,7.317423E-05
0.3929998,7.823228E-05
0.3939998,8.393408E-05
0.3949998,9.021832E-05
0.3959998,9.733024E-05
0.3969998,0.0001053311
0.3979998,0.0001140371
0.3989998,0.000123724
0.3999998,0.0001343613
0.4009998,0.0001462553
0.4019998,0.0001590077
0.4029998,0.0001729863
0.4039998,0.0001883751
0.4049998,0.0002045302
0.4059998,0.0002221567
0.4069998,0.0002411933
0.4079998,0.0002611496
0.4089998,0.0002833131
0.4099998,0.0003068866
0.4109998,0.0003344558
0.4119998,0.0003602059
0.4129998,0.0003874887
0.4139998,0.0004156911
0.4149998,0.000446346
0.4159998,0.0004779204
0.4169998,0.0005107211
0.4179998,0.0005456676
0.4189998,0.0005812272
0.4199998,0.0006195458
0.4209998,0.0006584774
0.4219998,0.0006992483
0.4229998,0.0007418585
0.4239998,0.0007856949
0.4249998,0.0008313706
0.4259998,0.0008788856
0.4269998,0.0009273202
0.4279998,0.0009785137
0.4289998,0.001030627
0.4299998,0.001084886
0.4309998,0.001141597
0.4319998,0.001198922
0.4329998,0.001259312
0.4339998,0.001321848
0.4349998,0.00138561
0.4359998,0.001453664
0.4369998,0.001522637
0.4379998,0.001594982
0.4389998,0.001671313
0.4399998,0.00174795
0.4409998,0.001831331
0.4419998,0.001916551
0.4429998,0.002004837
0.4439998,0.002099561
0.4449998,0.002195511
0.4459998,0.002297285
0.4469998,0.002405189
0.4479998,0.002515547
0.4489998,0.002633875
0.4499998,0.00275772
0.4509998,0.002884324
0.4519998,0.003021352
0.4529998,0.003191284
0.4539998,0.003335362
0.4549998,0.003494767
0.4559998,0.003654172
0.4569998,0.003825839
0.4579998,0.004006702
0.4589998,0.004193697
0.4599998,0.004389888
0.4609998,0.004595275
0.4619998,0.004812925
0.4629998,0.005033639
0.4639998,0.005266616
0.4649998,0.005511854
0.4659998,0.005760158
0.4669998,0.00602379
0.4679998,0.006296618
0.4689998,0.006569446
0.4699998,0.006854536
0.4709998,0.007148822
0.4719998,0.007443109
0.4729998,0.007746591
0.4739998,0.008053139
0.4749998,0.008356622
0.4759998,0.008669301
0.4769998,0.008975849
0.4779998,0.009282398
0.4789998,0.009588946
0.4799998,0.009892429
0.4809998,0.01019591
0.4819998,0.01049633
0.4829998,0.01079368
0.4839998,0.01108797
0.4849998,0.01136999
0.4859998,0.01165815
0.4869998,0.01193711
0.4879998,0.01220993
0.4889998,0.01248889
0.4899998,0.01275252
0.4909998,0.01301615
0.4919998,0.01327979
0.4929998,0.01353422
0.4939998,0.01378559
0.4949998,0.01404003
0.4959998,0.0142822
0.4969998,0.01452437
0.4979998,0.01476655
0.4989998,0.01500565
0.4999998,0.01524476
0.5009998,0.01548387
0.5019998,0.01571991
0.5029998,0.01595902
0.5039998,0.01619813
0.5049998,0.01644336
0.5059998,0.0166886
0.5069998,0.01693997
0.5079998,0.01720054
0.5089998,0.01745497
0.5099998,0.01771554
0.5109998,0.01799756
0.5119998,0.01827039
0.5129998,0.01855548
0.5139998,0.01884977
0.5149998,0.01912873
0.5159998,0.01943528
0.5169998,0.01973263
0.5179998,0.02003611
0.5189998,0.02035186
0.5199998,0.0206584
0.5209998,0.02097415
0.5219998,0.02129909
0.5229998,0.0216179
0.5239998,0.02195204
0.5249998,0.02228924
0.5259998,0.02262031
0.5269998,0.02295751
0.5279998,0.02330392
0.5289998,0.02364112
0.5299998,0.02398445
0.5309998,0.02434311
0.5319998,0.02469258
0.5329998,0.02503898
0.5339998,0.02540684
0.5349998,0.02575937
0.5359998,0.0261119
0.5369998,0.02647976
0.5379998,0.02683842
0.5389998,0.02719401
0.5399998,0.02757413
0.5409998,0.02793586
0.5419998,0.02830678
0.5429998,0.02867771
0.5439998,0.0290425
0.5449998,0.02943181
0.5459998,0.02980274
0.5469998,0.03017673
0.5479998,0.0313304
0.5489998,0.03169826
0.5499998,0.03206612
0.5509998,0.03246463
0.5519998,0.03283248
0.5529998,0.033231
0.5539998,0.03366017
0.5549998,0.03402802
0.5559998,0.03439588
0.5569998,0.03482505
0.5579998,0.03519291
0.5589998,0.03559142
0.5599998,0.03598994
0.5609998,0.03638845
0.5619998,0.03678696
0.5629998,0.03718547
0.5639998,0.03758398
0.5649998,0.0379825
0.5659998,0.03841167
0.5669998,0.03881018
0.5679998,0.03920869
0.5689998,0.03963786
0.5699998,0.04003637
0.5709998,0.04043488
0.5719998,0.04083339
0.5729998,0.04123191
0.5739998,0.04166108
0.5749998,0.04205959
0.5759998,0.0424581
0.5769998,0.04288727
0.5779998,0.04328578
0.5789998,0.04371495
0.5799998,0.04411346
0.5809998,0.04454263
0.5819998,0.04494114
0.5829998,0.04537031
0.5839998,0.04579948
0.5849998,0.04619799
0.5859998,0.04662716
0.5869998,0.04705633
0.5879998,0.04745484
0.5889998,0.04788401
0.5899998,0.04831317
0.5909998,0.04871169
0.5919998,0.04914085
0.5929998,0.04957002
0.5939998,0.04996854
0.5949998,0.0503977
0.5959998,0.05082687
0.5969998,0.05122538
0.5979998,0.05165455
0.5989998,0.05211437
0.5999998,0.05251288
0.6009998,0.05294205
0.6019998,0.05337122
0.6029998,0.05380039
0.6039998,0.05422956
0.6049998,0.05465872
0.6059998,0.05508789
0.6069998,0.05551706
0.6079998,0.05594623
0.6089998,0.05637539
0.6099998,0.05680456
0.6109998,0.05723373
0.6119998,0.05766289
0.6129998,0.05809207
0.6139998,0.05852123
0.6149998,0.05898106
0.6159998,0.05941022
0.6169998,0.05983939
0.6179998,0.06026856
0.6189998,0.06069772
0.6199998,0.06112689
0.6209998,0.06155606
0.6219998,0.06201588
0.6229998,0.06244505
0.6239998,0.06287422
0.6249998,0.06333404
0.6259998,0.06373256
0.6269998,0.06419238
0.6279998,0.0646522
0.6289998,0.06508137
0.6299998,0.06551053
0.6309998,0.0659397
0.6319998,0.06636887
0.6329998,0.06679803
0.6339998,0.06725786
0.6349998,0.06768703
0.6359998,0.06811619
0.6369998,0.06857602
0.6379998,0.06903584
0.6389998,0.069465
0.6399998,0.06989417
0.6409998,0.07035399
0.6419998,0.07078316
0.6429998,0.07121233
0.6439998,0.07167216
0.6449998,0.07210132
0.6459998,0.07256114
0.6469998,0.07302096
0.6479998,0.07345013
0.6489998,0.07387929
0.6499998,0.07430847
0.6509998,0.07476829
0.6519998,0.07522812
0.6529998,0.07565728
0.6539998,0.07608645
0.6549998,0.07654627
0.6559998,0.07697544
0.6569998,0.07743526
0.6579998,0.07789508
0.6589998,0.07832425
0.6599998,0.07878407
0.6609998,0.07921324
0.6619998,0.07964241
0.6629998,0.08010223
0.6639998,0.08056205
0.6649998,0.08099122
0.6659998,0.08145104
0.6669998,0.0818802
0.6679998,0.08234003
0.6689998,0.0827692
0.6699998,0.08325968
0.6709998,0.08368885
0.6719998,0.08414867
0.6729998,0.08460849
0.6739998,0.08503766
0.6749998,0.08549748
0.6759998,0.0859573
0.6769998,0.08638646
0.6779998,0.08684629
0.6789998,0.08730611
0.6799998,0.08773528
0.6809998,0.08822576
0.6819998,0.08868558
0.6829998,0.08911475
0.6839998,0.08957457
0.6849998,0.09003439
0.6859998,0.09046356
0.6869998,0.09095404
0.6879998,0.0913832
0.6889998,0.09178172
0.6899998,0.09230285
0.6909998,0.09273202
0.6919998,0.09319184
0.6929998,0.09368231
0.6939998,0.09411149
0.6949998,0.09454065
0.6959998,0.09503113
0.6969998,0.09549095
0.6979998,0.09592012
0.6989998,0.09637994
0.6999998,0.09650256
0.6990003,0.09604274
0.6980003,0.09561357
0.6970003,0.0951231
0.6960003,0.09466327
0.6950003,0.0942341
0.6940003,0.09374363
0.6930003,0.09331446
0.6920003,0.09288529
0.6910003,0.09239481
0.6900003,0.09193499
0.6890003,0.09147517
0.6880003,0.09101535
0.6870003,0.09058618
0.6860003,0.09015701
0.6850003,0.08966654
0.6840003,0.08923737
0.6830003,0.0888082
0.6820003,0.08831772
0.6810003,0.08791921
0.6800003,0.08745939
0.6790003,0.08699957
0.6780003,0.0865704
0.6770003,0.08611058
0.6760003,0.08565076
0.6750003,0.08522158
0.6740003,0.08476176
0.6730003,0.08430194
0.6720003,0.08387277
0.6710003,0.0833823
0.6700003,0.08295313
0.6690003,0.08252396
0.6680003,0.08206414
0.6670003,0.08163497
0.6660003,0.08120581
0.6650003,0.08071532
0.6640003,0.08028616
0.6630003,0.07985699
0.6620003,0.07939716
0.6610003,0.07893734
0.6600003,0.07850818
0.6590003,0.07804836
0.6580003,0.07758854
0.6570003,0.07715937
0.6560003,0.07666889
0.6550003,0.07623972
0.6540003,0.07581055
0.6530003,0.07535073
0.6520003,0.07492156
0.6510003,0.07449239
0.6500003,0.07403257
0.6490003,0.07363406
0.6480003,0.07317424
0.6470003,0.07271441
0.6460003,0.07228525
0.6450003,0.07185608
0.6440003,0.07139625
0.6430003,0.07096709
0.6420003,0.07053792
0.6410003,0.07004745
0.6400003,0.06961828
0.6390003,0.06918911
0.6380003,0.06872929
0.6370003,0.06830012
0.6360003,0.06787095
0.6350003,0.06741113
0.6340003,0.06698196
0.6330003,0.0665528
0.6320003,0.06612363
0.6310003,0.06566381
0.6300003,0.06523464
0.6290003,0.06477482
0.6280003,0.0643763
0.6270003,0.06391648
0.6260003,0.06348731
0.6250003,0.06305815
0.6240003,0.06262898
0.6230003,0.06216915
0.6220003,0.06177064
0.6210003,0.06131082
0.6200003,0.060851
0.6190003,0.06045249
0.6180003,0.05999266
0.6170003,0.0595635
0.6160003,0.05916498
0.6150003,0.05870516
0.6140003,0.05824534
0.6130003,0.05784683
0.6120003,0.057387
0.6110003,0.05695784
0.6100003,0.05652867
0.6090003,0.0560995
0.6080003,0.05567033
0.6070003,0.05524116
0.6060003,0.054812
0.6050003,0.05438283
0.6040003,0.05398431
0.6030003,0.05352449
0.6020003,0.05309533
0.6010003,0.05266616
0.6000003,0.05223699
0.5990003,0.05180782
0.5980003,0.05140931
0.5970003,0.05094949
0.5960003,0.05055097
0.5950003,0.05015246
0.5940003,0.04969264
0.5930003,0.04926347
0.5920003,0.04886496
0.5910003,0.04840514
0.5900003,0.04800662
0.5890003,0.04757746
0.5880003,0.04714829
0.5870003,0.04674978
0.5860003,0.04635127
0.5850003,0.04589145
0.5840003,0.04546228
0.5830003,0.04506376
0.5820003,0.0446346
0.5810003,0.04423608
0.5800003,0.04380691
0.5790003,0.0434084
0.5780003,0.04297924
0.5770003,0.04255007
0.5760003,0.04215155
0.5750003,0.04172239
0.5740003,0.04132387
0.5730003,0.04089471
0.5720003,0.04049619
0.5710003,0.04006703
0.5700003,0.03966851
0.5690003,0.03927
0.5680003,0.03884083
0.5670003,0.03844232
0.5660003,0.03801315
0.5650003,0.03761464
0.5640003,0.03721613
0.5630003,0.03678696
0.5620003,0.03638845
0.5610003,0.03598994
0.5600003,0.03559142
0.5590003,0.03519291
0.5580003,0.03476374
0.5570003,0.03439588
0.5560003,0.03399737
0.5550003,0.03359886
0.5540003,0.03320035
0.5530003,0.03280183
0.5520003,0.03240332
0.5510003,0.03200481
0.5500003,0.03160629
0.5490003,0.03120778
0.5480003,0.03080927
0.5470003,0.03041076
0.5460003,0.03001224
0.5450003,0.02961373
0.5440003,0.02924587
0.5430003,0.02884736
0.5420003,0.02844885
0.5410003,0.02808099
0.5400003,0.02768247
0.5390003,0.02728396
0.5380003,0.02691611
0.5370003,0.02651759
0.5360003,0.02614973
0.5350003,0.02578188
0.5340003,0.02538336
0.5330003,0.02501551
0.5320003,0.02461699
0.5310003,0.02424913
0.5300003,0.02388128
0.5290003,0.02351342
0.5280003,0.02314556
0.5270003,0.0227777
0.5260003,0.02237919
0.5250003,0.02201133
0.5240003,0.02164347
0.5230003,0.02127562
0.5220003,0.02090776
0.5210003,0.02057056
0.5200003,0.0202027
0.5190003,0.01983484
0.5180003,0.01949764
0.5170003,0.01912978
0.5160003,0.01876192
0.5150003,0.01842472
0.5140003,0.01808752
0.5130003,0.01771966
0.5120003,0.01738245
0.5110003,0.0170146
0.5100003,0.01667739
0.5090003,0.01634019
0.5080003,0.01600299
0.5070003,0.01566578
0.5060003,0.01532858
0.5050003,0.01499138
0.5040003,0.01465417
0.5030003,0.01431697
0.5020003,0.01397977
0.5010003,0.01367322
0.5000003,0.01333602
0.4990003,0.01253181
0.4980003,0.012213
0.4970003,0.01190338
0.4960003,0.01159377
0.4950003,0.01128109
0.4940003,0.01098067
0.4930003,0.01067719
0.4920003,0.01037371
0.4910003,0.01008249
0.4900003,0.009785137
0.4890003,0.009493916
0.4880003,0.00920576
0.4870003,0.008917606
0.4860003,0.008638646
0.4850003,0.008359687
0.4840003,0.008080728
0.4830003,0.007810966
0.4820003,0.007538138
0.4810003,0.007274507
0.4800003,0.00700781
0.4790003,0.006741113
0.4780003,0.006489743
0.4770003,0.006235308
0.4760003,0.005983938
0.4750003,0.005741765
0.4740003,0.005493461
0.4730003,0.005254354
0.4720003,0.005021377
0.4710003,0.004788401
0.4700003,0.004561555
0.4690003,0.00434084
0.4680003,0.004113995
0.4670003,0.003902476
0.4660003,0.003690958
0.4650003,0.003482505
0.4640003,0.003280183
0.4630003,0.003077861
0.4620003,0.002884736
0.4610003,0.00269161
0.4600003,0.002501551
0.4590003,0.002320687
0.4580003,0.002142889
0.4570003,0.001965091
0.4560003,0.001799555
0.4550003,0.001630954
0.4540003,0.001468483
0.4530003,0.001312143
0.4520003,0.001155804
0.4510003,0.000976981
0.4500003,0.0008295313
0.4490003,0.0006872929
0.4480003,0.0005499593
0.4470003,0.0004120126
0.4460003,0.0002832623
0.4450003,0.0001557382
0.4440003,3.035995E-05
0.4430003,-9.082907E-05
0.4420003,-0.0002096165
0.4410003,-0.0003220584
0.4400003,-0.0004291559
0.4390003,-0.0005395133
0.4380003,-0.0006409807
0.4370003,-0.0007424483
0.4360003,-0.0008429961
0.4350003,-0.0009352671
0.4340003,-0.001030297
0.4330003,-0.001121955
0.4320003,-0.001206869
0.4310003,-0.001296074
0.4300003,-0.001379762
0.4290003,-0.001461611
0.4280003,-0.001543766
0.4270003,-0.001620709
0.4260003,-0.001699185
0.4250003,-0.001773677
0.4240003,-0.001845715
0.4230003,-0.001921127
0.4220003,-0.001991326
0.4210003,-0.002061219
0.4200003,-0.002131112
0.4190003,-0.002195793
0.4180003,-0.002265073
0.4170003,-0.002329755
0.4160003,-0.002393517
0.4150003,-0.002460651
0.4140003,-0.002522574
0.4130003,-0.00258511
0.4120003,-0.002649178
0.4110003,-0.002709568
0.4100003,-0.002777316
0.4090003,-0.002843224
0.4080003,-0.002899935
0.4070003,-0.002960938
0.4060003,-0.003020715
0.4050003,-0.003043907
0.4040003,-0.003102152
0.4030003,-0.003160396
0.4020003,-0.003221706
0.4010003,-0.003276884
0.4000003,-0.003335128
0.3990003,-0.003396438
0.3980003,-0.003451617
0.3970003,-0.003512926
0.3960003,-0.00357117
0.3950003,-0.003623284
0.3940003,-0.003681528
0.3930003,-0.003739772
0.3920003,-0.003791885
0.3910003,-0.003850129
0.3900003,-0.003905308
0.3890003,-0.003954356
0.3880003,-0.004009534
0.3870003,-0.004058582
0.3860003,-0.00410763
0.3850003,-0.004156678
0.3840003,-0.00420266
0.3830003,-0.004248642
0.3820003,-0.004291559
0.3810003,-0.004334475
0.3800003,-0.004377393
0.3790003,-0.004411113
0.3780003,-0.004450964
0.3770003,-0.00448775
0.3760003,-0.00452147
0.3750003,-0.004558256
0.3740003,-0.00458891
0.3730003,-0.0046165
0.3720003,-0.004647155
0.3710003,-0.004671679
0.3700003,-0.004699268
0.3690003,-0.004720726
0.3680003,-0.004736054
0.3670003,-0.004751381
0.3660003,-0.004763643
0.3650003,-0.004766709
0.3640003,-0.004769774
0.3630003,-0.004760577
0.3620003,-0.004748316
0.3610003,-0.004726857
0.3600003,-0.004696202
0.3590003,-0.004662482
0.3580003,-0.004619565
0.3570003,-0.004567452
0.3560003,-0.004503077
0.3550003,-0.004438702
0.3540003,-0.004362065
0.3530003,-0.004276231
0.3520003,-0.004187332
0.3510003,-0.004092303
0.3500003,-0.003985011
0.3490003,-0.003874653
0.3480003,-0.003758165
0.3470003,-0.00363248
0.3460003,-0.00350373
0.3450003,-0.003365783
0.3440003,-0.00321864
0.3430003,-0.003071497
0.3420003,-0.002918222
0.3410003,-0.002764949
0.3400003,-0.00261474
0.3390003,-0.002464531
0.3380003,-0.002323519
0.3370003,-0.002194769
0.3360003,-0.002069084
0.3350003,-0.001958727
0.3340003,-0.001860631
0.3330003,-0.001768667
0.3320003,-0.001688964
0.3310003,-0.001615393
0.3300003,-0.001551017
0.3290003,-0.001528132
0.3280003,-0.001475099
0.3270003,-0.001427584
0.3260003,-0.001384054
0.3250003,-0.001344203
0.3240003,-0.00130803
0.3230003,-0.001274003
0.3220003,-0.001243042
0.3210003,-0.001214226
0.3200003,-0.00118725
0.3190003,-0.001162113
0.3180003,-0.001138202
0.3170003,-0.001115824
0.3160003,-0.001094979
0.3150003,-0.001074747
0.3140003,-0.001055741
0.3130003,-0.001037961
0.3120003,-0.001020488
0.3110003,-0.001003934
0.3100003,-0.0009879934
0.3090003,-0.0009729725
0.3080003,-0.0009585648
0.3070003,-0.0009447701
0.3060003,-0.0009312819
0.3050003,-0.0009187135
0.3040003,-0.0009058384
0.3030003,-0.0008938831
0.3020003,-0.0008825408
0.3010003,-0.0008711985
0.3000003,-0.0008601628
0.2990003,-0.0008497401
0.2980003,-0.000839624
0.2970003,-0.0008298145
0.2960003,-0.000820005
0.2950003,-0.0008111151
0.2940003,-0.0008019186
0.2930003,-0.0007933353
0.2920003,-0.0007847519
0.2910003,-0.0007764751
0.2900003,-0.0007685049
0.2890003,-0.0007605346
0.2880003,-0.0007528709
0.2870003,-0.0007455137
0.2860003,-0.0007381566
0.2850003,-0.000731106
0.2840003,-0.0007246684
0.2830003,-0.0007176179
0.2820003,-0.0007108737
0.2810003,-0.0007044363
0.2800003,-0.0006979987
0.2790003,-0.0006921744
0.2780003,-0.0006863499
0.2770003,-0.000680219
0.2760003,-0.0006743945
0.2750003,-0.0006688767
0.2740003,-0.0006633588
0.2730003,-0.0006581475
0.2720003,-0.0006526296
0.2710003,-0.0006474183
0.2700003,-0.0006425135
0.2690003,-0.0006376088
0.2680003,-0.000632704
0.2670003,-0.0006277992
0.2660003,-0.000623201
0.2650003,-0.0006189093
0.2640003,-0.0006143111
0.2630003,-0.0006100194
0.2620003,-0.0006057277
0.2610003,-0.0006014361
0.2600003,-0.0005971444
0.2590003,-0.0005931592
0.2580003,-0.0005891741
0.2570003,-0.000585189
0.2560003,-0.0005812038
0.2550003,-0.0005775253
0.2540003,-0.0005738467
0.2530003,-0.0005701681
0.2520003,-0.0005664895
0.2510003,-0.0005631176
0.2500003,-0.0005594389
0.2490003,-0.0005560669
0.2480003,-0.0005526949
0.2470003,-0.0005493228
0.2460003,-0.0005459508
0.2450003,-0.0005428853
0.2440003,-0.0005395133
0.2430003,-0.0005367543
0.2420003,-0.0005333824
0.2410003,-0.0005303168
0.2400003,-0.0005272513
0.2390003,-0.0005244924
0.2380003,-0.000521427
0.2370003,-0.000518668
0.2360003,-0.0005156025
0.2350003,-0.0005128436
0.2340003,-0.0005103912
0.2330003,-0.0005076323
0.2320003,-0.0005048733
0.2310003,-0.0005024209
0.2300003,-0.000499662
0.2290003,-0.0004972096
0.2280003,-0.0004947572
0.2270003,-0.0004923049
0.2260003,-0.0004898525
0.2250003,-0.0004874001
0.2240003,-0.0004849477
0.2230003,-0.0004824953
0.2220003,-0.0004803495
0.2210003,-0.0004778971
0.2200003,-0.0004754447
0.2190003,-0.0004732989
0.2180003,-0.000471153
0.2170003,-0.0004690072
0.2160003,-0.0004668614
0.2150003,-0.0004647155
0.2140003,-0.0004625697
0.2130003,-0.0004607304
0.2120003,-0.0004585845
0.2110003,-0.0004567453
0.2100003,-0.0004545994
0.2090003,-0.0004527601
0.2080003,-0.0004506143
0.2070003,-0.000448775
0.2060003,-0.0004466292
0.2050003,-0.0004447899
0.2040003,-0.0004432572
0.2030003,-0.0004411113
0.2020003,-0.0004395786
0.2010003,-0.0004377393
0.2000003,-0.0004355934
0.1990003,-0.0004340607
0.1980003,-0.0004322214
0.1970003,-0.0004303821
0.1960003,-0.0004288494
0.1950003,-0.0004270101
0.1940003,-0.0004254773
0.1930003,-0.000423638
0.1920003,-0.0004221053
0.1910003,-0.0004205726
0.1900003,-0.0004190398
0.1890003,-0.0004172005
0.1880003,-0.0004156678
0.1870003,-0.0004141351
0.1860003,-0.0004126023
0.1850003,-0.0004110696
0.1840003,-0.0004092303
0.1830003,-0.0004080041
0.1820003,-0.0004064713
0.1810003,-0.0004049386
0.1800003,-0.0004034059
0.1790003,-0.0004018731
0.1780003,-0.0004006469
0.1770003,-0.0003991142
0.1760003,-0.0003975815
0.1750003,-0.0003963552
0.1740003,-0.0003948225
0.1730003,-0.0003935963
0.1720003,-0.0003920636
0.1710003,-0.0003908373
0.1700003,-0.0003893046
0.1690003,-0.0003880784
0.1680003,-0.0003865457
0.1670003,-0.0003853195
0.1660003,-0.0003840933
0.1650003,-0.0003828671
0.1640003,-0.0003816409
0.1630003,-0.0003804147
0.1620003,-0.000378882
0.1610003,-0.0003776558
0.1600003,-0.0003764296
0.1590003,-0.0003752034
0.1580003,-0.0003739772
0.1570003,-0.000372751
0.1560003,-0.0003715248
0.1550003,-0.0003706052
0.1540003,-0.000369379
0.1530003,-0.0003681528
0.1520003,-0.0003669266
0.1510003,-0.0003657004
0.1500003,-0.0003644742
0.1490003,-0.0003632481
0.1480003,-0.0003620218
0.1470003,-0.0003607956
0.1460003,-0.000359876
0.1450003,-0.0003586498
0.1440003,-0.0003574236
0.1430003,-0.000356504
0.1420003,-0.0003552778
0.1410003,-0.0003540516
0.1400003,-0.0003531319
0.1390003,-0.0003519058
0.1380003,-0.0003509861
0.1370003,-0.0003497599
0.1360003,-0.0003488403
0.1350003,-0.0003476141
0.1340003,-0.0003463879
0.1330003,-0.0003454682
0.1320003,-0.000344242
0.1310003,-0.0003433224
0.1300003,-0.0003420962
0.1290003,-0.0003411766
0.1280003,-0.0003399504
0.1270003,-0.0003390307
0.1260003,-0.0003381111
0.1250003,-0.0003368849
0.1240003,-0.0003359652
0.1230003,-0.000334739
0.1220003,-0.0003338194
0.1210003,-0.0003325932
0.1200003,-0.0003316735
0.1190003,-0.0003307539
0.1180003,-0.0003298343
0.1170003,-0.0003286081
0.1160003,-0.0003276884
0.1150003,-0.0003267688
0.1140003,-0.0003258491
0.1130003,-0.0003249295
0.1120003,-0.0003240099
0.1110003,-0.0003227837
0.1100003,-0.000321864
0.1090003,-0.0003209444
0.1080003,-0.0003200247
0.1070003,-0.0003191051
0.1060003,-0.0003181854
0.1050003,-0.0003172658
0.1040003,-0.0003163462
0.1030003,-0.0003154265
0.1020003,-0.0003145068
0.1010003,-0.0003135872
0.1000003,-0.0003129741
0.09900028,-0.0003117479
0.09800029,-0.0003108283
0.09700029,-0.0003099086
0.09600028,-0.000308989
0.09500029,-0.0003080693
0.09400029,-0.0003071497
0.09300029,-0.00030623
0.09200028,-0.000305617
0.09100029,-0.0003046973
0.09000029,-0.0003037777
0.08900028,-0.000302858
0.08800028,-0.0003019384
0.08700029,-0.0003010187
0.08600029,-0.0003000991
0.08500028,-0.0002991795
0.08400029,-0.0002985664
0.08300029,-0.0002976467
0.08200029,-0.0002967271
0.08100028,-0.000296114
0.08000029,-0.0002951943
0.07900029,-0.0002942747
0.07800028,-0.000293355
0.07700028,-0.0002924354
0.07600029,-0.0002915157
0.07500029,-0.0002909026
0.07400028,-0.000289983
0.07300029,-0.0002890633
0.07200029,-0.0002881437
0.07100029,-0.0002872241
0.07000028,-0.0002863044
0.06900029,-0.0002853848
0.06800029,-0.0002847717
0.06700028,-0.000283852
0.06600028,-0.0002829324
0.06500029,-0.0002823193
0.06400029,-0.0002813996
0.06300028,-0.00028048
0.06200029,-0.0002795603
0.06100029,-0.0002786407
0.06000029,-0.0002780276
0.05900029,-0.000277108
0.05800029,-0.0002761883
0.05700029,-0.0002755752
0.05600028,-0.000274349
0.05500029,-0.0002737359
0.05400028,-0.0002728163
0.05300029,-0.0002718967
0.05200029,-0.000270977
0.05100029,-0.0002700574
0.05000029,-0.0002691377
0.04900029,-0.000268218
0.04800029,-0.0002676049
0.04700029,-0.0002666853
0.04600029,-0.0002657657
0.04500028,-0.0002648461
0.04400029,-0.0002639264
0.04300028,-0.0002630067
0.04200029,-0.0002620871
0.04100028,-0.000261474
0.04000029,-0.0002605543
0.03900029,-0.0002596347
0.03800029,-0.0002587151
0.03700029,-0.0002577954
0.03600029,-0.0002568758
0.03500029,-0.0002562627
0.03400028,-0.000255343
0.03300029,-0.0002544234
0.03200028,-0.0002535038
0.03100029,-0.0002525841
0.03000029,-0.0002516645
0.02900029,-0.0002510514
0.02800029,-0.0002501317
0.02700029,-0.0002492121
0.02600029,-0.0002482924
0.02500029,-0.0002476793
0.02400029,-0.0002467597
0.02300029,-0.00024584
0.02200029,-0.000245227
0.02100029,-0.0002443073
0.02000029,-0.0002436942
0.01900029,-0.0002427746
0.01800029,-0.0002421615
0.01700029,-0.0002412418
0.01600029,-0.0002403222
0.01500029,-0.0002397091
0.01400029,-0.0002387894
0.01300029,-0.0002381763
0.01200029,-0.0002372567
0.01100029,-0.0002366436
0.01000029,-0.0002360305
0.009000286,-0.0002354174
0.008000286,-0.0002344978
0.007000286,-0.0002338847
0.006000286,-0.0002332716
0.005000286,-0.0002323519
0.004000286,-0.0002317388
0.003000286,-0.0002308192
0.002000286,-0.0002302061
0.001000286,-0.000229593
2.861023E-07,-0.0002262209
0.0009997139,-0.0002216227
0.001999714,-0.0002176376
0.002999714,-0.0002142656
0.003999714,-0.0002108935
0.004999714,-0.0002075215
0.005999714,-0.0002047626
0.006999714,-0.0002016971
0.007999714,-0.0001989382
0.008999714,-0.0001961792
0.009999714,-0.0001934203
0.01099971,-0.0001909679
0.01199971,-0.0001888221
0.01299971,-0.0001863697
0.01399971,-0.0001842238
0.01499971,-0.0001817715
0.01599971,-0.0001796256
0.01699971,-0.0001777863
0.01799971,-0.0001756405
0.01899971,-0.0001738012
0.01999971,-0.0001716554
0.02099971,-0.0001698161
0.02199971,-0.0001679768
0.02299971,-0.0001661375
0.02399971,-0.0001642982
0.02499971,-0.0001624589
0.02599971,-0.0001609262
0.02699971,-0.0001593934
0.02799971,-0.0001611206
0.02899971,-0.0001594959
0.02999971,-0.0001579018
0.03099971,-0.0001563384
0.03199971,-0.0001548364
0.03299971,-0.0001533649
0.03399972,-0.0001519855
0.03499971,-0.0001506366
0.03599972,-0.0001491346
0.03699971,-0.0001476631
0.03799972,-0.0001463143
0.03899971,-0.0001449042
0.03999971,-0.0001436473
0.04099971,-0.0001423905
0.04199971,-0.0001411643
0.04299971,-0.0001399688
0.04399971,-0.0001386506
0.04499971,-0.0001373631
0.04599971,-0.0001361369
0.04699972,-0.0001348494
0.04799971,-0.0001338072
0.04899972,-0.0001326423
0.04999971,-0.0001314774
0.05099971,-0.0001303738
0.05199971,-0.0001292396
0.05299971,-0.000128136
0.05399971,-0.0001270631
0.05499971,-0.0001260208
0.05599971,-0.0001249786
0.05699971,-0.0001239056
0.05799972,-0.0001229247
0.05899971,-0.0001218824
0.05999972,-0.0001209015
0.06099971,-0.0001199512
0.06199971,-0.0001189396
0.06299971,-0.0001179586
0.06399971,-0.0001169777
0.06499971,-0.000116058
0.06599972,-0.0001150771
0.06699971,-0.0001141574
0.06799971,-0.0001131458
0.06899972,-0.0001122262
0.06999972,-0.0001113065
0.07099971,-0.0001104175
0.07199971,-0.0001094979
0.07299972,-0.0001086089
0.07399971,-0.0001078119
0.07499971,-0.0001070148
0.07599971,-0.0001061258
0.07699972,-0.0001053595
0.07799971,-0.0001045624
0.07899971,-0.0001037654
0.07999972,-0.0001029071
0.08099972,-0.0001021407
0.08199971,-0.000101313
0.08299971,-0.000100516
0.08399972,-9.965767E-05
0.08499971,-9.892196E-05
0.08599971,-9.815559E-05
0.08699971,-9.738921E-05
0.08799972,-9.665349E-05
0.08899971,-9.591779E-05
0.08999971,-9.521272E-05
0.09099972,-9.453831E-05
0.09199972,-9.374129E-05
0.09299971,-9.297491E-05
0.09399971,-9.226986E-05
0.09499972,-9.153414E-05
0.09599971,-9.082907E-05
0.09699971,-9.018533E-05
0.09799971,-8.948027E-05
0.09899972,-8.889782E-05
0.09999971,-8.822342E-05
0.1009997,-8.757967E-05
0.1019997,-8.690526E-05
0.1029997,-8.623085E-05
0.1039997,-8.549514E-05
0.1049997,-8.485139E-05
0.1059997,-8.420764E-05
0.1069997,-8.356389E-05
0.1079997,-8.292013E-05
0.1089997,-8.233769E-05
0.1099997,-8.17246E-05
0.1109997,-8.105019E-05
0.1119997,-8.046775E-05
0.1129997,-7.997728E-05
0.1139997,-7.936417E-05
0.1149997,-7.878173E-05
0.1159997,-7.816863E-05
0.1169997,-7.755554E-05
0.1179997,-7.700375E-05
0.1189997,-7.632935E-05
0.1199997,-7.577756E-05
0.1209997,-7.522578E-05
0.1219997,-7.464333E-05
0.1229997,-7.41222E-05
0.1239997,-7.35091E-05
0.1249997,-7.301863E-05
0.1259997,-7.252815E-05
0.1269997,-7.200702E-05
0.1279997,-7.151654E-05
0.1289997,-7.096475E-05
0.1299997,-7.044362E-05
0.1309997,-6.989183E-05
0.1319997,-6.93094E-05
0.1329997,-6.872695E-05
0.1339997,-6.826713E-05
0.1349997,-6.774599E-05
0.1359997,-6.725552E-05
0.1369997,-6.676505E-05
0.1379997,-6.627457E-05
0.1389997,-6.58454E-05
0.1399997,-6.532426E-05
0.1409997,-6.483379E-05
0.1419997,-6.431266E-05
0.1429997,-6.373021E-05
0.1439997,-6.32704E-05
0.1449997,-6.287188E-05
0.1459997,-6.241206E-05
0.1469997,-6.195223E-05
0.1479997,-6.152307E-05
0.1489997,-6.10939E-05
0.1499997,-6.060342E-05
0.1509997,-5.999033E-05
0.1519997,-5.956116E-05
0.1529997,-5.913199E-05
0.1539997,-5.873348E-05
0.1549997,-5.833496E-05
0.1559997,-5.79058E-05
0.1569997,-5.738466E-05
0.1579997,-5.686353E-05
0.1589997,-5.646502E-05
0.1599997,-5.60052E-05
0.1609997,-5.563734E-05
0.1619997,-5.520818E-05
0.1629997,-5.484031E-05
0.1639997,-5.441115E-05
0.1649997,-5.395133E-05
0.1659997,-5.346085E-05
0.1669997,-5.300103E-05
0.1679997,-5.260251E-05
0.1689997,-5.226531E-05
0.1699997,-5.183614E-05
0.1709997,-5.152959E-05
0.1719997,-5.103911E-05
0.1729997,-5.067126E-05
0.1739997,-5.024209E-05
0.1749997,-4.978227E-05
0.1759997,-4.938375E-05
0.1769997,-4.898525E-05
0.1779997,-4.858673E-05
0.1789997,-4.828018E-05
0.1799997,-4.782036E-05
0.1809997,-4.751381E-05
0.1819997,-4.720726E-05
0.1829997,-4.67781E-05
0.1839997,-4.641024E-05
0.1849997,-4.604238E-05
0.1859997,-4.552125E-05
0.1869997,-4.52147E-05
0.1879997,-4.481618E-05
0.1889997,-4.444833E-05
0.1899997,-4.411113E-05
0.1909997,-4.377393E-05
0.1919997,-4.343672E-05
0.1929997,-4.309952E-05
0.1939997,-4.276231E-05
0.1949997,-4.239445E-05
0.1959997,-4.193463E-05
0.1969997,-4.159743E-05
0.1979997,-4.119892E-05
0.1989997,-4.083106E-05
0.1999997,-4.052451E-05
0.2009997,-4.018731E-05
0.2019997,-3.981945E-05
0.2029997,-3.957421E-05
0.2039997,-3.923701E-05
0.2049997,-3.883849E-05
0.2059997,-3.859326E-05
0.2069997,-3.810278E-05
0.2079997,-3.779623E-05
0.2089997,-3.739772E-05
0.2099997,-3.706052E-05
0.2109997,-3.675397E-05
0.2119997,-3.635546E-05
0.2129997,-3.607956E-05
0.2139997,-3.574236E-05
0.2149997,-3.543581E-05
0.2159997,-3.512926E-05
0.2169997,-3.485337E-05
0.2179997,-3.451617E-05
0.2189997,-3.420962E-05
0.2199997,-3.384176E-05
0.2209997,-3.353521E-05
0.2219997,-3.319801E-05
0.2229997,-3.286081E-05
0.2239997,-3.243164E-05
0.2249997,-3.212509E-05
0.2259997,-3.175723E-05
0.2269997,-3.145068E-05
0.2279997,-3.111348E-05
0.2289997,-3.083759E-05
0.2299997,-3.053104E-05
0.2309997,-3.016318E-05
0.2319997,-2.985663E-05
0.2329997,-2.955008E-05
0.2339997,-2.927419E-05
0.2349997,-2.893699E-05
0.2359997,-2.856913E-05
0.2369997,-2.829324E-05
0.2379997,-2.801734E-05
0.2389997,-2.768014E-05
0.2399997,-2.737359E-05
0.2409997,-2.706704E-05
0.2419997,-2.679115E-05
0.2429997,-2.64846E-05
0.2439997,-2.611674E-05
0.2449997,-2.58102E-05
0.2459997,-2.55343E-05
0.2469997,-2.516645E-05
0.2479997,-2.482924E-05
0.2489997,-2.449204E-05
0.2499997,-2.412418E-05
0.2509997,-2.375632E-05
0.2519997,-2.344977E-05
0.2529997,-2.314323E-05
0.2539997,-2.283668E-05
0.2549997,-2.253013E-05
0.2559997,-2.222358E-05
0.2569997,-2.188638E-05
0.2579997,-2.157983E-05
0.2589997,-2.124263E-05
0.2599997,-2.090542E-05
0.2609997,-2.062953E-05
0.2619997,-2.035364E-05
0.2629997,-2.001643E-05
0.2639997,-1.970989E-05
0.2649997,-1.937268E-05
0.2659997,-1.903548E-05
0.2669997,-1.872893E-05
0.2679997,-1.839173E-05
0.2689997,-1.808518E-05
0.2699997,-1.780929E-05
0.2709997,-1.753339E-05
0.2719997,-1.719619E-05
0.2729997,-1.685899E-05
0.2739997,-1.649113E-05
0.2749997,-1.615392E-05
0.2759997,-1.578607E-05
0.2769997,-1.547952E-05
0.2779997,-1.511166E-05
0.2789997,-1.471315E-05
0.2799997,-1.44066E-05
0.2809997,-1.40694E-05
0.2819997,-1.37935E-05
0.2829997,-1.371179E-05
0.2839997,-1.336845E-05
0.2849997,-1.310482E-05
0.2859997,-1.28044E-05
0.2869997,-1.246414E-05
0.2879997,-1.209934E-05
0.2889997,-1.180812E-05
0.2899997,-1.148318E-05
0.2909997,-1.113985E-05
0.2919997,-1.072907E-05
0.2929997,-1.03888E-05
0.2939997,-1.009145E-05
0.2949997,-9.634695E-06
0.2959997,-9.236182E-06
0.2969997,-8.87752E-06
0.2979997,-8.454484E-06
0.2989997,-8.160197E-06
0.2999997,-7.752488E-06
0.3009997,-7.35091E-06
0.3019997,-7.029035E-06
0.3029997,-6.624391E-06
0.3039997,-6.290253E-06
0.3049997,-5.946919E-06
0.3059997,-5.582127E-06
0.3069997,-5.208138E-06
0.3079997,-4.883197E-06
0.3089997,-4.478553E-06
0.3099997,-4.110695E-06
0.3109997,-3.684593E-06
0.3119997,-3.273819E-06
0.3129997,-2.841585E-06
0.3139997,-2.384829E-06
0.3149997,-1.946465E-06
0.3159997,-1.486642E-06
0.3169997,-1.097326E-06
0.3179997,-7.4173E-07
0.3189997,-2.696457E-07
0.3199997,1.196705E-07
0.3209997,5.519036E-07
0.3219997,1.017857E-06
0.3229997,1.391846E-06
0.3239997,1.811817E-06
0.3249997,2.256312E-06
0.3259997,2.654825E-06
0.3269997,3.13304E-06
0.3279997,3.549946E-06
0.3289997,3.988309E-06
0.3299997,4.518638E-06
0.3309997,5.002984E-06
0.3319997,5.389235E-06
0.3329997,5.870515E-06
0.3339997,6.345665E-06
0.3349997,6.909714E-06
0.3359997,7.409388E-06
0.3369997,7.853882E-06
0.3379997,8.414866E-06
0.3389997,8.942129E-06
0.3399997,9.469392E-06
0.3409997,9.956804E-06
0.3419997,1.049326E-05
0.3429997,1.10849E-05
0.3439997,1.164588E-05
0.3449997,1.228044E-05
0.3459997,1.283529E-05
0.3469997,1.339934E-05
0.3479997,1.404309E-05
0.3489997,1.461021E-05
0.3499997,1.52325E-05
0.3509997,1.588545E-05
0.3519997,1.650161E-05
0.3529997,1.709938E-05
0.3539997,1.78075E-05
0.3549997,1.845739E-05
0.3559997,1.913179E-05
0.3569997,1.98062E-05
0.3579997,2.060323E-05
0.3589997,2.130829E-05
0.3599997,2.204707E-05
0.3609997,2.280424E-05
0.3619997,2.363192E-05
0.3629997,2.449639E-05
0.3639997,2.575122E-05
0.3649997,2.664021E-05
0.3659997,2.755985E-05
0.3669997,2.857147E-05
0.3679997,2.958307E-05
0.3689997,3.068665E-05
0.3699997,3.179022E-05
0.3709997,3.304707E-05
0.3719997,3.430392E-05
0.3729997,3.559142E-05
0.3739997,3.694023E-05
0.3749997,3.841166E-05
0.3759997,3.988309E-05
0.3769997,4.147715E-05
0.3779997,4.313251E-05
0.3789997,4.481852E-05
0.3799997,4.668847E-05
0.3809997,4.861972E-05
0.3819997,5.061228E-05
0.3829997,5.278878E-05
0.3839997,5.508789E-05
0.3849997,5.760158E-05
0.3859997,6.032986E-05
0.3869997,6.330338E-05
0.3879997,6.66141E-05
0.3889997,7.013941E-05
0.3899997,7.42165E-05
0.3909997,7.875342E-05
0.3919997,8.362753E-05
0.3929997,8.929867E-05
0.3939997,9.561357E-05
0.3949997,0.0001026948
0.3959997,0.0001105731
0.3969997,0.0001193711
0.3979997,0.0001290273
0.3989997,0.0001399098
0.3999997,0.0001516506
0.4009997,0.0001645869
0.4019997,0.0001786575
0.4029997,0.0001939236
0.4039997,0.0002106305
0.4049997,0.0002281957
0.4059997,0.0002472323
0.4069997,0.0002678324
0.4079997,0.0002895973
0.4089997,0.000316676
0.4099997,0.000341813
0.4109997,0.000367563
0.4119997,0.0003954589
0.4129997,0.000423968
0.4139997,0.0004546228
0.4149997,0.0004865038
0.4159997,0.000519611
0.4169997,0.0005545575
0.4179997,0.0005907302
0.4189997,0.0006284356
0.4199997,0.0006685934
0.4209997,0.0007087513
0.4219997,0.0007519746
0.4229997,0.0007967306
0.4239997,0.0008411802
0.4249997,0.0008896147
0.4259997,0.0009386625
0.4269997,0.0009889364
0.4279997,0.001042582
0.4289997,0.001096841
0.4299997,0.00115202
0.4309997,0.001211184
0.4319997,0.001270654
0.4329997,0.001332577
0.4339997,0.001397872
0.4349997,0.00146378
0.4359997,0.001533979
0.4369997,0.001606325
0.4379997,0.001680816
0.4389997,0.001759599
0.4399997,0.001840221
0.4409997,0.001925748
0.4419997,0.002014953
0.4429997,0.002106612
0.4439997,0.002203787
0.4449997,0.002304335
0.4459997,0.002410094
0.4469997,0.002521065
0.4479997,0.00263602
0.4489997,0.002758946
0.4499997,0.002884938
0.4509997,0.003017366
0.4519997,0.003188219
0.4529997,0.003329231
0.4539997,0.003482505
0.4549997,0.003644975
0.4559997,0.003807446
0.4569997,0.003985244
0.4579997,0.004169173
0.4589997,0.004356168
0.4599997,0.004561555
0.4609997,0.004770007
0.4619997,0.004987657
0.4629997,0.005217568
0.4639997,0.005450545
0.4649997,0.005695784
0.4659997,0.005950219
0.4669997,0.006207719
0.4679997,0.006480547
0.4689997,0.00675644
0.4699997,0.007038464
0.4709997,0.007329686
0.4719997,0.007623971
0.4729997,0.007921323
0.4739997,0.008221741
0.4749997,0.008525223
0.4759997,0.008828706
0.4769997,0.009126058
0.4779997,0.009429541
0.4789997,0.009723827
0.4799997,0.01002118
0.4809997,0.01031853
0.4819997,0.01060669
0.4829997,0.01089484
0.4839997,0.01118606
0.4849997,0.01145889
0.4859997,0.01173478
0.4869997,0.01200761
0.4879997,0.01227124
0.4889997,0.01253487
0.4899997,0.01280157
0.4909997,0.01304988
0.4919997,0.01330431
0.4929997,0.01355875
0.4939997,0.01380092
0.4949997,0.01404309
0.4959997,0.01428526
0.4969997,0.01452131
0.4979997,0.01475735
0.4989997,0.01499952
0.4999997,0.0152325
0.5009997,0.01546241
0.5019997,0.01570765
0.5029997,0.01594063
0.5039997,0.01617667
0.5049997,0.01642804
0.5059997,0.01667328
0.5069997,0.01692465
0.5079997,0.01719134
0.5089997,0.01744578
0.5099997,0.01771554
0.5109997,0.01798837
0.5119997,0.01827039
0.5129997,0.01855855
0.5139997,0.01884364
0.5149997,0.01913486
0.5159997,0.01944447
0.5169997,0.01974182
0.5179997,0.02004837
0.5189997,0.02036412
0.5199997,0.0206768
0.5209997,0.02099254
0.5219997,0.02131748
0.5229997,0.02164242
0.5239997,0.02196736
0.5249997,0.02230763
0.5259997,0.02264177
0.5269997,0.02297591
0.5279997,0.02332537
0.5289997,0.02367177
0.5299997,0.02400898
0.5309997,0.02436151
0.5319997,0.02471404
0.5329997,0.02505431
0.5339997,0.02541603
0.5349997,0.02577469
0.5359997,0.02611803
0.5369997,0.02648895
0.5379997,0.02684455
0.5389997,0.02720321
0.5399997,0.02758639
0.5409997,0.02793892
0.5419997,0.02830985
0.5429997,0.0286869
0.5439997,0.02904863
0.5449997,0.02942875
0.5459997,0.02980581
0.5469997,0.0301706
0.5479997,0.0313304
0.5489997,0.03169826
0.5499997,0.03206612
0.5509997,0.03246463
0.5519997,0.03283248
0.5529997,0.03320035
0.5539997,0.03359886
0.5549997,0.03399737
0.5559997,0.03436523
0.5569997,0.03476374
0.5579997,0.03516225
0.5589997,0.03556077
0.5599997,0.03595928
0.5609997,0.03635779
0.5619997,0.03672565
0.5629997,0.03715482
0.5639997,0.03755333
0.5649997,0.03792119
0.5659997,0.03835035
0.5669997,0.03874887
0.5679997,0.03914738
0.5689997,0.03957655
0.5699997,0.03997506
0.5709997,0.04037357
0.5719997,0.04077209
0.5729997,0.0411706
0.5739997,0.04159977
0.5749997,0.04199828
0.5759997,0.0423968
0.5769997,0.04282596
0.5779997,0.04322447
0.5789997,0.04362299
0.5799997,0.04405215
0.5809997,0.04445067
0.5819997,0.04484918
0.5829997,0.04527835
0.5839997,0.04570751
0.5849997,0.04610603
0.5859997,0.04653519
0.5869997,0.04696436
0.5879997,0.04736288
0.5889997,0.04779204
0.5899997,0.04822121
0.5909997,0.04861972
0.5919997,0.04904889
0.5929997,0.04947806
0.5939997,0.04987657
0.5949997,0.05030574
0.5959997,0.05073491
0.5969997,0.05113342
0.5979997,0.05156258
0.5989997,0.05199176
0.5999997,0.05242092
0.6009997,0.05285009
0.6019997,0.0532486
0.6029997,0.05367777
0.6039997,0.05410693
0.6049997,0.0545361
0.6059997,0.05496527
0.6069997,0.05539444
0.6079997,0.05582361
0.6089997,0.05622212
0.6099997,0.05668194
0.6109997,0.05711111
0.6119997,0.05754028
0.6129997,0.05796945
0.6139997,0.05839861
0.6149997,0.05882778
0.6159997,0.05925695
0.6169997,0.05968611
0.6179997,0.06008463
0.6189997,0.06054445
0.6199997,0.06097361
0.6209997,0.06140279
0.6219997,0.06183195
0.6229997,0.06229177
0.6239997,0.06272095
0.6249997,0.06315011
0.6259997,0.06360994
0.6269997,0.06400844
0.6279997,0.06446826
0.6289997,0.06489744
0.6299997,0.0653266
0.6309997,0.06575577
0.6319997,0.06618494
0.6329997,0.06661411
0.6339997,0.06707393
0.6349997,0.06750309
0.6359997,0.06793226
0.6369997,0.06839209
0.6379997,0.06882125
0.6389997,0.06925042
0.6399997,0.06971025
0.6409997,0.07013941
0.6419997,0.07056858
0.6429997,0.0710284
0.6439997,0.07145756
0.6449997,0.07185608
0.6459997,0.07234656
0.6469997,0.07277572
0.6479997,0.0732049
0.6489997,0.07366472
0.6499997,0.07409389
0.6509997,0.07452305
0.6519997,0.07498287
0.6529997,0.07544269
0.6539997,0.07587186
0.6549997,0.07633169
0.6559997,0.07676085
0.6569997,0.07719002
0.6579997,0.0776805
0.6589997,0.07810967
0.6599997,0.07853883
0.6609997,0.07899866
0.6619997,0.07942782
0.6629997,0.07988765
0.6639997,0.08031681
0.6649997,0.08074598
0.6659997,0.08120581
0.6669997,0.08166563
0.6679997,0.08206414
0.6689997,0.08252396
0.6699997,0.08298378
0.6709997,0.08341295
0.6719997,0.08390342
0.6729997,0.08433259
0.6739997,0.08476176
0.6749997,0.08525224
0.6759997,0.08571207
0.6769997,0.08611058
0.6779997,0.08660105
0.6789997,0.08703022
0.6799997,0.08745939
0.6809997,0.08791921
0.6819997,0.08837903
0.6829997,0.0888082
0.6839997,0.08929868
0.6849997,0.08972784
0.6859997,0.09015701
0.6869997,0.09061684
0.6879997,0.09107666
0.6889997,0.09150583
0.6899997,0.09196565
0.6909997,0.09242547
0.6919997,0.09288529
0.6929997,0.09331446
0.6939997,0.09377428
0.6949997,0.09426476
0.6959997,0.09469392
0.6969997,0.0951231
0.6979997,0.09558292
0.6989997,0.09604274
0.6999997,0.09613471
0.6990004,0.09570553
0.6980004,0.09524571
0.6970004,0.09478589
0.6960004,0.09432607
0.6950004,0.0938969
0.6940004,0.09343708
0.6930004,0.09297726
0.6920004,0.09254809
0.6910004,0.09205761
0.6900004,0.09162845
0.6890004,0.09119927
0.6880004,0.09073945
0.6870004,0.09027963
0.6860004,0.08985046
0.6850004,0.08935999
0.6840004,0.08893082
0.6830004,0.08850165
0.6820004,0.08804183
0.6810004,0.08758201
0.6800004,0.08715284
0.6790004,0.08666236
0.6780004,0.08623319
0.6770004,0.08577337
0.6760004,0.08531355
0.6750004,0.08488438
0.6740004,0.08442456
0.6730004,0.08396474
0.6720004,0.08356623
0.6710004,0.08307575
0.6700004,0.08264658
0.6690004,0.08221742
0.6680004,0.08175759
0.6670004,0.08132842
0.6660004,0.08089925
0.6650004,0.08043943
0.6640004,0.08001027
0.6630004,0.0795811
0.6620004,0.07909062
0.6610004,0.07866146
0.6600004,0.07823228
0.6590004,0.07777246
0.6580004,0.07731264
0.6570004,0.07688347
0.6560004,0.07642365
0.6550004,0.07599448
0.6540004,0.07556532
0.6530004,0.07510549
0.6520004,0.07464567
0.6510004,0.07421651
0.6500004,0.07375668
0.6490004,0.07332751
0.6480004,0.07289835
0.6470004,0.07243852
0.6460004,0.07200935
0.6450004,0.07158019
0.6440004,0.07115102
0.6430004,0.0706912
0.6420004,0.07026203
0.6410004,0.06980221
0.6400004,0.06934239
0.6390004,0.06891321
0.6380004,0.06848405
0.6370004,0.06805488
0.6360004,0.06762572
0.6350004,0.06719655
0.6340004,0.06676738
0.6330004,0.06630756
0.6320004,0.06587839
0.6310004,0.06544922
0.6300004,0.06502005
0.6290004,0.06456023
0.6280004,0.06413107
0.6270004,0.0637019
0.6260004,0.06327273
0.6250004,0.06281291
0.6240004,0.0624144
0.6230004,0.06192392
0.6220004,0.06149475
0.6210004,0.06106558
0.6200004,0.06060576
0.6190004,0.06017659
0.6180004,0.05974742
0.6170004,0.05934891
0.6160004,0.05888909
0.6150004,0.05845992
0.6140004,0.05803075
0.6130004,0.05760158
0.6120004,0.05714176
0.6110004,0.05674325
0.6100004,0.05631408
0.6090004,0.05588492
0.6080004,0.05545575
0.6070004,0.05502658
0.6060004,0.05459742
0.6050004,0.05416824
0.6040004,0.05373908
0.6030004,0.05330991
0.6020004,0.05288074
0.6010004,0.05248223
0.6000004,0.05202241
0.5990004,0.05159324
0.5980004,0.05119473
0.5970004,0.05076556
0.5960004,0.05033639
0.5950004,0.04993788
0.5940004,0.04950871
0.5930004,0.0491102
0.5920004,0.04868103
0.5910004,0.04822121
0.5900004,0.0478227
0.5890004,0.04742418
0.5880004,0.04699502
0.5870004,0.0465965
0.5860004,0.04616734
0.5850004,0.04570751
0.5840004,0.045309
0.5830004,0.04487984
0.5820004,0.04445067
0.5810004,0.04408281
0.5800004,0.04365364
0.5790004,0.04322447
0.5780004,0.04282596
0.5770004,0.0423968
0.5760004,0.04196763
0.5750004,0.04159977
0.5740004,0.0411706
0.5730004,0.04074143
0.5720004,0.04034292
0.5710004,0.03994441
0.5700004,0.03951524
0.5690004,0.03911673
0.5680004,0.03871821
0.5670004,0.03828905
0.5660004,0.03789053
0.5650004,0.03746137
0.5640004,0.03706285
0.5630004,0.03666434
0.5620004,0.03626583
0.5610004,0.03586731
0.5600004,0.0354688
0.5590004,0.03503963
0.5580004,0.03464112
0.5570004,0.03427326
0.5560004,0.03384409
0.5550004,0.03347624
0.5540004,0.03307773
0.5530004,0.03267921
0.5520004,0.0322807
0.5510004,0.03188219
0.5500004,0.03148368
0.5490004,0.03108516
0.5480004,0.03068665
0.5470004,0.03028814
0.5460004,0.02992028
0.5450004,0.02952177
0.5440004,0.02912325
0.5430004,0.02875539
0.5420004,0.02835688
0.5410004,0.02795837
0.5400004,0.02759051
0.5390004,0.027192
0.5380004,0.02682414
0.5370004,0.02645628
0.5360004,0.02605777
0.5350004,0.02568991
0.5340004,0.02532205
0.5330004,0.02492354
0.5320004,0.02455568
0.5310004,0.02418783
0.5300004,0.02381997
0.5290004,0.02342146
0.5280004,0.0230536
0.5270004,0.02268574
0.5260004,0.02231788
0.5250004,0.02195002
0.5240004,0.02158217
0.5230004,0.02121431
0.5220004,0.0208771
0.5210004,0.02050925
0.5200004,0.02014139
0.5190004,0.01980419
0.5180004,0.01943633
0.5170004,0.01906847
0.5160004,0.01873127
0.5150004,0.01839406
0.5140004,0.01802621
0.5130004,0.017689
0.5120004,0.0173518
0.5110004,0.01698394
0.5100004,0.01664674
0.5090004,0.01630954
0.5080004,0.01597233
0.5070004,0.01563513
0.5060004,0.01529793
0.5050004,0.01496072
0.5040004,0.01465417
0.5030004,0.01431697
0.5020004,0.01397977
0.5010004,0.01364256
0.5000004,0.01333602
0.4990004,0.01252568
0.4980004,0.012213
0.4970004,0.01190338
0.4960004,0.01159684
0.4950004,0.01129029
0.4940004,0.01098681
0.4930004,0.01068639
0.4920004,0.01038597
0.4910004,0.01009168
0.4900004,0.009797399
0.4890004,0.009509244
0.4880004,0.009224153
0.4870004,0.008935998
0.4860004,0.008660105
0.4850004,0.008381146
0.4840004,0.008105253
0.4830004,0.007838556
0.4820004,0.007565727
0.4810004,0.007299031
0.4800004,0.00704153
0.4790004,0.006777898
0.4780004,0.006523463
0.4770004,0.00627516
0.4760004,0.00602379
0.4750004,0.005781617
0.4740004,0.005536378
0.4730004,0.00529727
0.4720004,0.005067359
0.4710004,0.004834383
0.4700004,0.004613668
0.4690004,0.004389888
0.4680004,0.004169173
0.4670004,0.003954589
0.4660004,0.003743071
0.4650004,0.003537684
0.4640004,0.003338427
0.4630004,0.003139171
0.4620004,0.00294298
0.4610004,0.00275292
0.4600004,0.00256286
0.4590004,0.002385062
0.4580004,0.002204199
0.4570004,0.002032532
0.4560004,0.001866996
0.4550004,0.001698394
0.4540004,0.001538989
0.4530004,0.001382649
0.4520004,0.00122631
0.4510004,0.001047487
0.4500004,0.0009024898
0.4490004,0.0007608645
0.4480004,0.0006232243
0.4470004,0.0004880365
0.4460004,0.0003598994
0.4450004,0.0002336015
0.4440004,0.0001088363
0.4430004,-7.652034E-06
0.4420004,-0.0001290863
0.4410004,-0.0002413749
0.4400004,-0.0003489427
0.4390004,-0.0004570518
0.4380004,-0.0005569865
0.4370004,-0.0006581475
0.4360004,-0.0007565495
0.4350004,-0.000849127
0.4340004,-0.0009429308
0.4330004,-0.001032443
0.4320004,-0.00111797
0.4310004,-0.001206562
0.4300004,-0.001287798
0.4290004,-0.001369953
0.4280004,-0.001451188
0.4270004,-0.001526292
0.4260004,-0.001603542
0.4250004,-0.00167834
0.4240004,-0.001749153
0.4230004,-0.001823951
0.4220004,-0.00189323
0.4210004,-0.001961284
0.4200004,-0.002030564
0.4190004,-0.002095246
0.4180004,-0.002162687
0.4170004,-0.002227061
0.4160004,-0.002291437
0.4150004,-0.002356425
0.4140004,-0.002418041
0.4130004,-0.002479657
0.4120004,-0.002543113
0.4110004,-0.00260289
0.4100004,-0.002669717
0.4090004,-0.002735012
0.4080004,-0.002791417
0.4070004,-0.00285242
0.4060004,-0.002911584
0.4050004,-0.002969521
0.4040004,-0.003030218
0.4030004,-0.003053104
0.4020004,-0.003111348
0.4010004,-0.003169592
0.4000004,-0.003227836
0.3990004,-0.003286081
0.3980004,-0.003344325
0.3970004,-0.003405634
0.3960004,-0.003460813
0.3950004,-0.003519057
0.3940004,-0.003580367
0.3930004,-0.003635545
0.3920004,-0.003687659
0.3910004,-0.003748968
0.3900004,-0.003801082
0.3890004,-0.00385626
0.3880004,-0.003911439
0.3870004,-0.003960487
0.3860004,-0.0040126
0.3850004,-0.004064713
0.3840004,-0.004110695
0.3830004,-0.004159743
0.3820004,-0.004205726
0.3810004,-0.004248642
0.3800004,-0.004294624
0.3790004,-0.004334475
0.3780004,-0.004377393
0.3770004,-0.004417243
0.3760004,-0.004454029
0.3750004,-0.004493881
0.3740004,-0.004527601
0.3730004,-0.004564387
0.3720004,-0.004598107
0.3710004,-0.004625696
0.3700004,-0.004656351
0.3690004,-0.004680875
0.3680004,-0.004702333
0.3670004,-0.004720726
0.3660004,-0.004729923
0.3650004,-0.004739119
0.3640004,-0.004742185
0.3630004,-0.004732988
0.3620004,-0.004723792
0.3610004,-0.004702333
0.3600004,-0.004668613
0.3590004,-0.004634893
0.3580004,-0.004585845
0.3570004,-0.004530666
0.3560004,-0.004469357
0.3550004,-0.004398851
0.3540004,-0.004319148
0.3530004,-0.004233315
0.3520004,-0.004138284
0.3510004,-0.004040189
0.3500004,-0.003932897
0.3490004,-0.003819474
0.3480004,-0.003696855
0.3470004,-0.003568105
0.3460004,-0.003436289
0.3450004,-0.003295277
0.3440004,-0.003148134
0.3430004,-0.003000991
0.3420004,-0.002847716
0.3410004,-0.002697508
0.3400004,-0.002550365
0.3390004,-0.002403222
0.3380004,-0.00226834
0.3370004,-0.002142655
0.3360004,-0.002023102
0.3350004,-0.00191581
0.3340004,-0.00182078
0.3330004,-0.001734946
0.3320004,-0.001655244
0.3310004,-0.001584738
0.3300004,-0.001560626
0.3290004,-0.001504834
0.3280004,-0.001453947
0.3270004,-0.001408578
0.3260004,-0.001366887
0.3250004,-0.001328875
0.3240004,-0.001294235
0.3230004,-0.001261741
0.3220004,-0.001232313
0.3210004,-0.001204417
0.3200004,-0.001178666
0.3190004,-0.001154449
0.3180004,-0.001131458
0.3170004,-0.00111
0.3160004,-0.001089768
0.3150004,-0.001070455
0.3140004,-0.001052369
0.3130004,-0.001035202
0.3120004,-0.001018035
0.3110004,-0.001002401
0.3100004,-0.0009873803
0.3090004,-0.000972666
0.3080004,-0.0009588713
0.3070004,-0.0009453832
0.3060004,-0.0009325081
0.3050004,-0.0009202462
0.3040004,-0.0009082909
0.3030004,-0.000896642
0.3020004,-0.0008856063
0.3010004,-0.0008745705
0.3000004,-0.0008644544
0.2990004,-0.0008540318
0.2980004,-0.0008442223
0.2970004,-0.0008350258
0.2960004,-0.0008255228
0.2950004,-0.0008169395
0.2940004,-0.0008083562
0.2930004,-0.0007997728
0.2920004,-0.000791496
0.2910004,-0.0007835258
0.2900004,-0.000775862
0.2890004,-0.0007681983
0.2880004,-0.0007611477
0.2870004,-0.0007540971
0.2860004,-0.0007470464
0.2850004,-0.0007403024
0.2840004,-0.0007335583
0.2830004,-0.0007271208
0.2820004,-0.0007209898
0.2810004,-0.0007145524
0.2800004,-0.0007087279
0.2790004,-0.000702597
0.2780004,-0.0006970791
0.2770004,-0.0006912547
0.2760004,-0.0006860433
0.2750004,-0.0006805255
0.2740004,-0.0006756207
0.2730004,-0.0006701029
0.2720004,-0.0006651981
0.2710004,-0.0006602933
0.2700004,-0.0006556951
0.2690004,-0.0006510969
0.2680004,-0.0006464986
0.2670004,-0.0006419004
0.2660004,-0.0006373022
0.2650004,-0.0006330105
0.2640004,-0.0006284123
0.2630004,-0.0006244272
0.2620004,-0.0006201355
0.2610004,-0.0006164569
0.2600004,-0.0006124718
0.2590004,-0.0006084866
0.2580004,-0.000604808
0.2570004,-0.0006011295
0.2560004,-0.0005974509
0.2550004,-0.0005940789
0.2540004,-0.0005904003
0.2530004,-0.0005870283
0.2520004,-0.0005836562
0.2510004,-0.0005799776
0.2500004,-0.0005769122
0.2490004,-0.0005735401
0.2480004,-0.0005701681
0.2470004,-0.0005671026
0.2460004,-0.0005637306
0.2450004,-0.0005606651
0.2440004,-0.0005579062
0.2430004,-0.0005548407
0.2420004,-0.0005520818
0.2410004,-0.0005490163
0.2400004,-0.0005462574
0.2390004,-0.0005434984
0.2380004,-0.0005407395
0.2370004,-0.0005379805
0.2360004,-0.0005355282
0.2350004,-0.0005327692
0.2340004,-0.0005300103
0.2330004,-0.0005275579
0.2320004,-0.0005251055
0.2310004,-0.0005223466
0.2300004,-0.0005198942
0.2290004,-0.0005174418
0.2280004,-0.0005149894
0.2270004,-0.0005128436
0.2260004,-0.0005103912
0.2250004,-0.0005082454
0.2240004,-0.000505793
0.2230004,-0.0005036471
0.2220004,-0.0005015013
0.2210004,-0.0004993554
0.2200004,-0.0004972096
0.2190004,-0.0004950638
0.2180004,-0.000492918
0.2170004,-0.0004910787
0.2160004,-0.0004889328
0.2150004,-0.000486787
0.2140004,-0.0004849477
0.2130004,-0.0004828018
0.2120004,-0.000480656
0.2110004,-0.0004791233
0.2100004,-0.0004769774
0.2090004,-0.0004748316
0.2080004,-0.0004729923
0.2070004,-0.000471153
0.2060004,-0.0004693137
0.2050004,-0.0004674745
0.2040004,-0.0004659417
0.2030004,-0.0004641024
0.2020004,-0.0004622631
0.2010004,-0.0004604238
0.2000004,-0.0004588911
0.1990004,-0.0004570518
0.1980004,-0.0004555191
0.1970004,-0.0004536798
0.1960004,-0.0004524536
0.1950004,-0.0004503077
0.1940004,-0.0004490816
0.1930004,-0.0004472423
0.1920004,-0.0004457095
0.1910004,-0.0004441768
0.1900004,-0.000442644
0.1890004,-0.0004411113
0.1880004,-0.0004395786
0.1870004,-0.0004380458
0.1860004,-0.000436513
0.1850004,-0.0004349803
0.1840004,-0.0004334476
0.1830004,-0.0004319148
0.1820004,-0.0004306886
0.1810004,-0.0004291559
0.1800004,-0.0004276232
0.1790004,-0.000426397
0.1780004,-0.0004248642
0.1770004,-0.0004233315
0.1760004,-0.0004221053
0.1750004,-0.0004208791
0.1740004,-0.0004193464
0.1730004,-0.0004178136
0.1720004,-0.0004162809
0.1710004,-0.0004150547
0.1700004,-0.0004138285
0.1690004,-0.0004126023
0.1680004,-0.0004110696
0.1670004,-0.0004098434
0.1660004,-0.0004086172
0.1650004,-0.000407391
0.1640004,-0.0004061648
0.1630004,-0.000404632
0.1620004,-0.0004034059
0.1610004,-0.0004021796
0.1600004,-0.0004006469
0.1590004,-0.0003994207
0.1580004,-0.0003981945
0.1570004,-0.0003969684
0.1560004,-0.0003957421
0.1550004,-0.000394516
0.1540004,-0.0003932898
0.1530004,-0.0003920636
0.1520004,-0.0003908373
0.1510004,-0.0003896112
0.1500004,-0.0003880784
0.1490004,-0.0003871588
0.1480004,-0.0003859326
0.1470004,-0.0003843998
0.1460004,-0.0003834802
0.1450004,-0.0003819475
0.1440004,-0.0003810278
0.1430004,-0.0003798016
0.1420004,-0.0003785754
0.1410004,-0.0003773492
0.1400004,-0.0003761231
0.1390004,-0.0003748969
0.1380004,-0.0003736707
0.1370004,-0.0003724445
0.1360004,-0.0003712183
0.1350004,-0.0003699921
0.1340004,-0.0003687659
0.1330004,-0.0003675397
0.1320004,-0.0003663135
0.1310004,-0.0003650873
0.1300004,-0.0003638611
0.1290004,-0.0003626349
0.1280004,-0.0003614087
0.1270004,-0.0003601825
0.1260004,-0.0003589563
0.1250004,-0.0003577302
0.1240004,-0.000356504
0.1230004,-0.0003552778
0.1220004,-0.0003540516
0.1210004,-0.0003528254
0.1200004,-0.0003519058
0.1190004,-0.0003506796
0.1180004,-0.0003494534
0.1170004,-0.0003482272
0.1160004,-0.0003473075
0.1150004,-0.0003460813
0.1140004,-0.0003451617
0.1130004,-0.0003439355
0.1120004,-0.0003430158
0.1110004,-0.0003417897
0.1100004,-0.00034087
0.1090004,-0.0003396438
0.1080004,-0.0003387242
0.1070004,-0.000337498
0.1060004,-0.0003365783
0.1050004,-0.0003353521
0.1040004,-0.0003344325
0.1030004,-0.0003332063
0.1020004,-0.0003322866
0.1010004,-0.0003310605
0.1000004,-0.0003301408
0.09900038,-0.0003292212
0.09800038,-0.000327995
0.09700038,-0.0003270753
0.09600038,-0.0003261557
0.09500038,-0.0003249295
0.09400038,-0.0003240099
0.09300038,-0.0003230902
0.09200038,-0.000321864
0.09100038,-0.0003209444
0.09000038,-0.0003200247
0.08900038,-0.0003191051
0.08800038,-0.0003178789
0.08700038,-0.0003169593
0.08600038,-0.0003157331
0.08500038,-0.0003148134
0.08400038,-0.0003138937
0.08300038,-0.0003126676
0.08200038,-0.0003117479
0.08100038,-0.0003108283
0.08000038,-0.0003099086
0.07900038,-0.000308989
0.07800038,-0.0003077628
0.07700038,-0.0003068431
0.07600038,-0.0003059235
0.07500038,-0.0003050039
0.07400038,-0.0003040842
0.07300038,-0.000302858
0.07200038,-0.0003019384
0.07100038,-0.0003010187
0.07000038,-0.0003000991
0.06900038,-0.0002988729
0.06800038,-0.0002979533
0.06700038,-0.0002967271
0.06600038,-0.0002958074
0.06500039,-0.0002948878
0.06400038,-0.0002936616
0.06300038,-0.0002927419
0.06200038,-0.0002918223
0.06100038,-0.0002905961
0.06000038,-0.0002896764
0.05900038,-0.0002887568
0.05800038,-0.0002878372
0.05700038,-0.000286611
0.05600038,-0.0002856913
0.05500038,-0.0002847717
0.05400038,-0.0002835455
0.05300038,-0.0002826258
0.05200038,-0.0002817062
0.05100038,-0.00028048
0.05000038,-0.0002795603
0.04900038,-0.0002786407
0.04800038,-0.0002774145
0.04700038,-0.0002764949
0.04600038,-0.0002752687
0.04500038,-0.000274349
0.04400038,-0.0002734294
0.04300038,-0.0002722032
0.04200038,-0.0002712836
0.04100038,-0.0002703639
0.04000038,-0.0002694443
0.03900038,-0.0002685246
0.03800038,-0.0002676049
0.03700038,-0.0002666853
0.03600038,-0.0002657657
0.03500038,-0.0002648461
0.03400038,-0.0002639264
0.03300038,-0.0002630067
0.03200038,-0.0002620871
0.03100038,-0.0002611674
0.03000038,-0.0002602478
0.02900038,-0.0002593282
0.02800038,-0.0002584085
0.02700038,-0.0002577954
0.02600038,-0.0002568758
0.02500038,-0.0002559561
0.02400038,-0.0002550365
0.02300038,-0.0002541168
0.02200038,-0.0002535038
0.02100038,-0.0002525841
0.02000038,-0.0002516645
0.01900038,-0.0002510514
0.01800038,-0.0002501317
0.01700038,-0.0002492121
0.01600038,-0.0002482924
0.01500038,-0.0002476793
0.01400038,-0.0002467597
0.01300038,-0.0002461466
0.01200038,-0.0002455335
0.01100038,-0.0002446139
0.01000038,-0.0002436942
0.009000381,-0.0002430811
0.008000381,-0.0002421615
0.007000382,-0.0002415484
0.006000381,-0.0002409353
0.005000381,-0.0002400156
0.004000382,-0.0002394025
0.003000381,-0.0002387894
0.002000381,-0.0002378698
0.001000381,-0.0002369501
3.814697E-07,-0.0002335781
0.0009996186,-0.0002286733
0.001999618,-0.0002249948
0.002999618,-0.0002213162
0.003999618,-0.0002176376
0.004999619,-0.0002145721
0.005999619,-0.0002115066
0.006999618,-0.0002084412
0.007999619,-0.0002053757
0.008999619,-0.0002026167
0.009999619,-0.0002001643
0.01099962,-0.000197712
0.01199962,-0.0001952596
0.01299962,-0.0001928072
0.01399962,-0.0001903548
0.01499962,-0.000188209
0.01599962,-0.0001860631
0.01699962,-0.0001839173
0.01799962,-0.0001817715
0.01899962,-0.0001799322
0.01999962,-0.0001780929
0.02099962,-0.000175947
0.02199962,-0.0001741077
0.02299962,-0.0001722685
0.02399962,-0.0001704292
0.02499962,-0.0001685899
0.02599962,-0.0001670571
0.02699962,-0.0001652178
0.02799962,-0.0001636851
0.02899962,-0.0001618458
0.02999962,-0.0001603131
0.03099962,-0.0001620402
0.03199962,-0.0001605382
0.03299962,-0.0001589441
0.03399962,-0.0001574727
0.03499962,-0.0001560319
0.03599962,-0.0001545911
0.03699962,-0.000153181
0.03799962,-0.0001517709
0.03899962,-0.0001504221
0.03999962,-0.0001490426
0.04099962,-0.0001477551
0.04199962,-0.000146345
0.04299962,-0.0001451801
0.04399962,-0.0001439232
0.04499962,-0.0001426051
0.04599962,-0.0001413789
0.04699962,-0.0001401833
0.04799962,-0.0001388958
0.04899962,-0.0001377923
0.04999962,-0.0001365967
0.05099962,-0.0001354012
0.05199962,-0.0001342057
0.05299962,-0.0001330101
0.05399962,-0.0001318452
0.05499962,-0.000130803
0.05599962,-0.0001296994
0.05699962,-0.0001286265
0.05799962,-0.0001275842
0.05899962,-0.0001265113
0.05999962,-0.0001255304
0.06099962,-0.0001244881
0.06199962,-0.0001235378
0.06299962,-0.0001225262
0.06399962,-0.0001215146
0.06499962,-0.0001205949
0.06599962,-0.000119614
0.06699962,-0.0001186943
0.06799962,-0.0001177134
0.06899962,-0.0001167324
0.06999962,-0.0001158434
0.07099961,-0.0001148931
0.07199962,-0.0001139735
0.07299962,-0.0001131151
0.07399962,-0.0001121648
0.07499962,-0.0001112758
0.07599962,-0.0001103869
0.07699962,-0.0001095592
0.07799962,-0.0001087315
0.07899962,-0.0001078732
0.07999962,-0.0001070761
0.08099962,-0.0001063098
0.08199961,-0.0001054208
0.08299962,-0.0001046238
0.08399962,-0.0001038267
0.08499962,-0.0001030604
0.08599962,-0.000102294
0.08699962,-0.0001014663
0.08799962,-0.0001007612
0.08899962,-9.999487E-05
0.08999962,-9.925916E-05
0.09099962,-9.85541E-05
0.09199962,-9.775707E-05
0.09299962,-9.705201E-05
0.09399962,-9.628564E-05
0.09499962,-9.542731E-05
0.09599962,-9.469159E-05
0.09699962,-9.404783E-05
0.09799962,-9.331212E-05
0.09899962,-9.269903E-05
0.09999962,-9.196331E-05
0.1009996,-9.12889E-05
0.1019996,-9.067581E-05
0.1029996,-8.990943E-05
0.1039996,-8.932699E-05
0.1049996,-8.87139E-05
0.1059996,-8.800883E-05
0.1069996,-8.739574E-05
0.1079996,-8.672133E-05
0.1089996,-8.604692E-05
0.1099996,-8.537252E-05
0.1109996,-8.469811E-05
0.1119996,-8.40237E-05
0.1129996,-8.341061E-05
0.1139996,-8.279752E-05
0.1149996,-8.221508E-05
0.1159996,-8.160197E-05
0.1169996,-8.105019E-05
0.1179996,-8.034513E-05
0.1189996,-7.9824E-05
0.1199996,-7.92109E-05
0.1209996,-7.868977E-05
0.1219996,-7.807667E-05
0.1229996,-7.75862E-05
0.1239996,-7.700375E-05
0.1249996,-7.648263E-05
0.1259996,-7.590018E-05
0.1269996,-7.531774E-05
0.1279996,-7.47966E-05
0.1289996,-7.415286E-05
0.1299996,-7.353976E-05
0.1309996,-7.304928E-05
0.1319996,-7.246684E-05
0.1329996,-7.197636E-05
0.1339996,-7.142458E-05
0.1349996,-7.087279E-05
0.1359996,-7.041297E-05
0.1369996,-6.992248E-05
0.1379996,-6.93707E-05
0.1389996,-6.894153E-05
0.1399996,-6.842041E-05
0.1409996,-6.796058E-05
0.1419996,-6.74701E-05
0.1429996,-6.691832E-05
0.1439996,-6.642783E-05
0.1449996,-6.593736E-05
0.1459996,-6.541623E-05
0.1469996,-6.486444E-05
0.1479996,-6.434331E-05
0.1489996,-6.388349E-05
0.1499996,-6.351563E-05
0.1509996,-6.29945E-05
0.1519996,-6.256533E-05
0.1529996,-6.20442E-05
0.1539996,-6.161503E-05
0.1549996,-6.118586E-05
0.1559996,-6.066473E-05
0.1569996,-6.023556E-05
0.1579996,-5.977574E-05
0.1589996,-5.934657E-05
0.1599996,-5.897872E-05
0.1609996,-5.851889E-05
0.1619996,-5.808972E-05
0.1629996,-5.772187E-05
0.1639996,-5.717008E-05
0.1649996,-5.674092E-05
0.1659996,-5.631175E-05
0.1669996,-5.582127E-05
0.1679996,-5.533079E-05
0.1689996,-5.490162E-05
0.1699996,-5.441115E-05
0.1709996,-5.401264E-05
0.1719996,-5.364477E-05
0.1729996,-5.327692E-05
0.1739996,-5.287841E-05
0.1749996,-5.247989E-05
0.1759996,-5.208138E-05
0.1769996,-5.171352E-05
0.1779996,-5.12537E-05
0.1789996,-5.085519E-05
0.1799996,-5.03034E-05
0.1809996,-4.990489E-05
0.1819996,-4.953703E-05
0.1829996,-4.913852E-05
0.1839996,-4.877066E-05
0.1849996,-4.837215E-05
0.1859996,-4.803494E-05
0.1869996,-4.766709E-05
0.1879996,-4.726858E-05
0.1889996,-4.687006E-05
0.1899996,-4.641024E-05
0.1909996,-4.601172E-05
0.1919996,-4.561321E-05
0.1929996,-4.527601E-05
0.1939996,-4.493881E-05
0.1949996,-4.457095E-05
0.1959996,-4.423374E-05
0.1969996,-4.395785E-05
0.1979996,-4.352869E-05
0.1989996,-4.319148E-05
0.1999996,-4.273166E-05
0.2009996,-4.233315E-05
0.2019996,-4.196529E-05
0.2029996,-4.162809E-05
0.2039996,-4.126023E-05
0.2049996,-4.092303E-05
0.2059996,-4.058582E-05
0.2069996,-4.027928E-05
0.2079996,-3.991141E-05
0.2089996,-3.957421E-05
0.2099996,-3.914504E-05
0.2109996,-3.874653E-05
0.2119996,-3.834802E-05
0.2129996,-3.801082E-05
0.2139996,-3.773492E-05
0.2149996,-3.736707E-05
0.2159996,-3.709117E-05
0.2169996,-3.681528E-05
0.2179996,-3.641676E-05
0.2189996,-3.604891E-05
0.2199996,-3.56504E-05
0.2209996,-3.522123E-05
0.2219996,-3.494533E-05
0.2229996,-3.460813E-05
0.2239996,-3.427093E-05
0.2249996,-3.396438E-05
0.2259996,-3.362718E-05
0.2269996,-3.332063E-05
0.2279996,-3.295277E-05
0.2289996,-3.261556E-05
0.2299996,-3.224771E-05
0.2309996,-3.184919E-05
0.2319996,-3.154265E-05
0.2329996,-3.120544E-05
0.2339996,-3.080693E-05
0.2349996,-3.053104E-05
0.2359996,-3.019383E-05
0.2369996,-2.991794E-05
0.2379996,-2.961139E-05
0.2389996,-2.924354E-05
0.2399996,-2.881437E-05
0.2409996,-2.841586E-05
0.2419996,-2.810931E-05
0.2429996,-2.774145E-05
0.2439996,-2.74349E-05
0.2449996,-2.712835E-05
0.2459996,-2.676049E-05
0.2469996,-2.642329E-05
0.2479996,-2.611674E-05
0.2489996,-2.574889E-05
0.2499996,-2.544234E-05
0.2509996,-2.516645E-05
0.2519996,-2.479859E-05
0.2529996,-2.440007E-05
0.2539996,-2.403222E-05
0.2549996,-2.360305E-05
0.2559996,-2.32965E-05
0.2569996,-2.292864E-05
0.2579996,-2.259144E-05
0.2589996,-2.228489E-05
0.2599996,-2.188638E-05
0.2609996,-2.157983E-05
0.2619996,-2.121197E-05
0.2629996,-2.093608E-05
0.2639996,-2.062953E-05
0.2649996,-2.023102E-05
0.2659996,-1.992447E-05
0.2669996,-1.958727E-05
0.2679996,-1.918875E-05
0.2689996,-1.885155E-05
0.2699996,-1.8545E-05
0.2709996,-1.814649E-05
0.2719996,-1.780929E-05
0.2729996,-1.738012E-05
0.2739996,-1.704292E-05
0.2749996,-1.667506E-05
0.2759996,-1.621523E-05
0.2769996,-1.590869E-05
0.2779996,-1.551017E-05
0.2789996,-1.517297E-05
0.2799996,-1.477446E-05
0.2809996,-1.446791E-05
0.2819996,-1.40694E-05
0.2829996,-1.396009E-05
0.2839996,-1.360143E-05
0.2849996,-1.318759E-05
0.2859996,-1.286571E-05
0.2869996,-1.247333E-05
0.2879996,-1.202271E-05
0.2889996,-1.163339E-05
0.2899996,-1.124407E-05
0.2909996,-1.091913E-05
0.2919996,-1.045011E-05
0.2929996,-1.003934E-05
0.2939996,-9.674546E-06
0.2949996,-9.199396E-06
0.2959996,-8.797818E-06
0.2969996,-8.380913E-06
0.2979996,-7.918024E-06
0.2989996,-7.534839E-06
0.2999996,-7.038231E-06
0.3009996,-6.65198E-06
0.3019996,-6.210551E-06
0.3029996,-5.750729E-06
0.3039996,-5.339954E-06
0.3049996,-4.892393E-06
0.3059996,-4.429505E-06
0.3069996,-4.024862E-06
0.3079996,-3.595694E-06
0.3089996,-3.148134E-06
0.3099996,-2.694442E-06
0.3109996,-2.203965E-06
0.3119996,-1.756405E-06
0.3129996,-1.330303E-06
0.3139996,-8.398255E-07
0.3149996,-3.98396E-07
0.3159996,1.258015E-07
0.3169996,6.285406E-07
0.3179996,1.023988E-06
0.3189996,1.57884E-06
0.3199996,2.063186E-06
0.3209996,2.532205E-06
0.3219996,3.096254E-06
0.3229996,3.626583E-06
0.3239996,4.129322E-06
0.3249996,4.727091E-06
0.3259996,5.309533E-06
0.3269996,5.839861E-06
0.3279996,6.388582E-06
0.3289996,6.921976E-06
0.3299996,7.51668E-06
0.3309996,8.092991E-06
0.3319996,8.684629E-06
0.3329996,9.248677E-06
0.3339996,9.763678E-06
0.3349996,1.04013E-05
0.3359996,1.092856E-05
0.3369996,1.15202E-05
0.3379996,1.212103E-05
0.3389996,1.268815E-05
0.3399996,1.329205E-05
0.3409996,1.391434E-05
0.3419996,1.448146E-05
0.3429996,1.514666E-05
0.3439996,1.584253E-05
0.3449996,1.645869E-05
0.3459996,1.716682E-05
0.3469996,1.784735E-05
0.3479996,1.85984E-05
0.3489996,1.935557E-05
0.3499996,2.008822E-05
0.3509996,2.082087E-05
0.3519996,2.157498E-05
0.3529996,2.238734E-05
0.3539996,2.315984E-05
0.3549996,2.398445E-05
0.3559996,2.476922E-05
0.3569996,2.560609E-05
0.3579996,2.682414E-05
0.3589996,2.765182E-05
0.3599996,2.851016E-05
0.3609996,2.94298E-05
0.3619996,3.03801E-05
0.3629996,3.13304E-05
0.3639996,3.240332E-05
0.3649996,3.341493E-05
0.3659996,3.445719E-05
0.3669996,3.568338E-05
0.3679996,3.687892E-05
0.3689996,3.801315E-05
0.3699996,3.933131E-05
0.3709996,4.058816E-05
0.3719996,4.202893E-05
0.3729996,4.346971E-05
0.3739996,4.494114E-05
0.3749996,4.653519E-05
0.3759996,4.812924E-05
0.3769996,4.990722E-05
0.3779996,5.16852E-05
0.3789996,5.35858E-05
0.3799996,5.557837E-05
0.3809996,5.763223E-05
0.3819996,5.977807E-05
0.3829996,6.21998E-05
0.3839996,6.465219E-05
0.3849996,6.734982E-05
0.3859996,7.032333E-05
0.3869996,7.341948E-05
0.3879996,7.706739E-05
0.3889996,8.086859E-05
0.3899996,8.512961E-05
0.3909996,9.009569E-05
0.3919996,9.539899E-05
0.3929996,0.0001014073
0.3939996,0.000108274
0.3949996,0.0001156925
0.3959996,0.0001241838
0.3969996,0.0001335949
0.3979996,0.0001439562
0.3989996,0.0001553905
0.3999996,0.000167867
0.4009996,0.0001816923
0.4019996,0.0001964679
0.4029996,0.000212715
0.4039996,0.0002302496
0.4049996,0.0002488264
0.4059996,0.0002690586
0.4069996,0.0002906089
0.4079996,0.000316676
0.4089996,0.0003411999
0.4099996,0.000367563
0.4109996,0.0003945393
0.4119996,0.0004233549
0.4129996,0.0004533966
0.4139996,0.0004846645
0.4149996,0.0005180782
0.4159996,0.0005527182
0.4169996,0.0005885844
0.4179996,0.0006262898
0.4189996,0.0006652214
0.4199996,0.0007062989
0.4209996,0.000748296
0.4219996,0.0007921324
0.4229996,0.0008384212
0.4239996,0.0008850165
0.4249996,0.0009340643
0.4259996,0.0009843382
0.4269996,0.001035838
0.4279996,0.001090404
0.4289996,0.001145583
0.4299996,0.001203214
0.4309996,0.001262991
0.4319996,0.001323994
0.4329996,0.001388369
0.4339996,0.00145397
0.4349996,0.001521717
0.4359996,0.001594369
0.4369996,0.001667328
0.4379996,0.001743965
0.4389996,0.001824893
0.4399996,0.001906742
0.4409996,0.001994415
0.4419996,0.002086073
0.4429996,0.002178957
0.4439996,0.002279811
0.4449996,0.002381279
0.4459996,0.002489184
0.4469996,0.002602607
0.4479996,0.002720628
0.4489996,0.002845393
0.4499996,0.002973837
0.4509996,0.003139171
0.4519996,0.003280183
0.4529996,0.003424261
0.4539996,0.0035806
0.4549996,0.003743071
0.4559996,0.003911673
0.4569996,0.004092536
0.4579996,0.004276465
0.4589996,0.004466525
0.4599996,0.004671912
0.4609996,0.004880365
0.4619996,0.00510108
0.4629996,0.005327926
0.4639996,0.005560902
0.4649996,0.005809206
0.4659996,0.00605751
0.4669996,0.006321141
0.4679996,0.00659397
0.4689996,0.006860667
0.4699996,0.007142691
0.4709996,0.007433912
0.4719996,0.007719002
0.4729996,0.008013288
0.4739996,0.008313705
0.4749996,0.008604926
0.4759996,0.008905343
0.4769996,0.009202695
0.4779996,0.009493916
0.4789996,0.009788202
0.4799996,0.01008249
0.4809996,0.01037064
0.4819996,0.01065573
0.4829996,0.01093776
0.4839996,0.01121672
0.4849996,0.01148035
0.4859996,0.01175624
0.4869996,0.01201987
0.4879996,0.01228044
0.4889996,0.01254714
0.4899996,0.01279544
0.4909996,0.01304681
0.4919996,0.01330124
0.4929996,0.01354035
0.4939996,0.01378253
0.4949996,0.01402776
0.4959996,0.01425768
0.4969996,0.01449678
0.4979996,0.01473283
0.4989996,0.01495967
0.4999996,0.01519878
0.5009996,0.01543482
0.5019996,0.01566473
0.5029996,0.01590997
0.5039996,0.01614908
0.5049996,0.01639125
0.5059996,0.01664262
0.5069996,0.01689706
0.5079996,0.01715149
0.5089996,0.01742432
0.5099996,0.01768795
0.5109996,0.01796384
0.5119996,0.01825813
0.5129996,0.01853709
0.5139996,0.01882831
0.5149996,0.01912566
0.5159996,0.01942301
0.5169996,0.0197265
0.5179996,0.02003611
0.5189996,0.02034573
0.5199996,0.02066147
0.5209996,0.02098641
0.5219996,0.02130522
0.5229996,0.02163323
0.5239996,0.0219643
0.5249996,0.02228924
0.5259996,0.02263257
0.5269996,0.02296671
0.5279996,0.02329778
0.5289996,0.02365031
0.5299996,0.02399058
0.5309996,0.02433698
0.5319996,0.02469564
0.5329996,0.02503898
0.5339996,0.02538844
0.5349996,0.02575324
0.5359996,0.0260935
0.5369996,0.02645217
0.5379996,0.02682615
0.5389996,0.02717868
0.5399996,0.02754348
0.5409996,0.0279144
0.5419996,0.02827919
0.5429996,0.02864399
0.5439996,0.02902411
0.5449996,0.02939503
0.5459996,0.02975675
0.5469996,0.03013994
0.5479996,0.03126909
0.5489996,0.03163695
0.5499996,0.03203546
0.5509996,0.03240332
0.5519996,0.03277118
0.5529996,0.03316969
0.5539996,0.03353755
0.5549996,0.03393606
0.5559996,0.03433457
0.5569996,0.03470243
0.5579996,0.03510094
0.5589996,0.03549946
0.5599996,0.03589797
0.5609996,0.03629648
0.5619996,0.036695
0.5629996,0.03706285
0.5639996,0.03746137
0.5649996,0.03789053
0.5659996,0.03828905
0.5669996,0.03868756
0.5679996,0.03908607
0.5689996,0.03948459
0.5699996,0.0398831
0.5709996,0.04028161
0.5719996,0.04068012
0.5729996,0.04110929
0.5739996,0.0415078
0.5749996,0.04190632
0.5759996,0.04233548
0.5769996,0.04273399
0.5779996,0.04313251
0.5789996,0.04356168
0.5799996,0.04396019
0.5809996,0.0443587
0.5819996,0.04478787
0.5829996,0.04518638
0.5839996,0.04561555
0.5849996,0.04601406
0.5859996,0.04644323
0.5869996,0.04684174
0.5879996,0.04727091
0.5889996,0.04770008
0.5899996,0.04809859
0.5909996,0.04852776
0.5919996,0.04892627
0.5929996,0.04932478
0.5939996,0.04975395
0.5949996,0.05018312
0.5959996,0.05058163
0.5969996,0.0510108
0.5979996,0.05143997
0.5989996,0.05183848
0.5999996,0.0522983
0.6009996,0.05269681
0.6019996,0.05312598
0.6029996,0.05355515
0.6039996,0.05398431
0.6049996,0.05441349
0.6059996,0.05484265
0.6069996,0.05524116
0.6079996,0.05567033
0.6089996,0.0560995
0.6099996,0.05652867
0.6109996,0.05695784
0.6119996,0.05741766
0.6129996,0.05781617
0.6139996,0.05824534
0.6149996,0.05870516
0.6159996,0.05910368
0.6169996,0.05953284
0.6179996,0.05999266
0.6189996,0.06036052
0.6199996,0.06082034
0.6209996,0.06124951
0.6219996,0.06167868
0.6229996,0.06210784
0.6239996,0.06253701
0.6249996,0.06299683
0.6259996,0.06339534
0.6269996,0.06385517
0.6279996,0.06428434
0.6289996,0.06471351
0.6299996,0.06514268
0.6309996,0.06557184
0.6319996,0.06600101
0.6329996,0.06646083
0.6339996,0.06685934
0.6349996,0.06731917
0.6359996,0.06774833
0.6369996,0.06817751
0.6379996,0.06860667
0.6389996,0.06906649
0.6399996,0.06949566
0.6409996,0.06992482
0.6419996,0.07038464
0.6429996,0.07081382
0.6439996,0.07124298
0.6449996,0.07170281
0.6459996,0.07210132
0.6469996,0.07256114
0.6479996,0.07302096
0.6489996,0.07341947
0.6499996,0.07387929
0.6509996,0.07430847
0.6519996,0.07473763
0.6529996,0.07522812
0.6539996,0.07562663
0.6549996,0.07608645
0.6559996,0.07654627
0.6569996,0.07697544
0.6579996,0.0774046
0.6589996,0.07786443
0.6599996,0.07829359
0.6609996,0.07872277
0.6619996,0.07921324
0.6629996,0.07964241
0.6639996,0.08007158
0.6649996,0.0805314
0.6659996,0.08096056
0.6669996,0.08138973
0.6679996,0.08184955
0.6689996,0.08227872
0.6699996,0.08270789
0.6709996,0.08316771
0.6719996,0.08359688
0.6729996,0.0840567
0.6739996,0.08451653
0.6749996,0.08494569
0.6759996,0.08540551
0.6769996,0.08586534
0.6779996,0.0862945
0.6789996,0.08672367
0.6799996,0.08721415
0.6809996,0.08764332
0.6819996,0.08810314
0.6829996,0.08856296
0.6839996,0.08902278
0.6849996,0.08945195
0.6859996,0.08991177
0.6869996,0.09034094
0.6879996,0.09077011
0.6889996,0.09122993
0.6899996,0.0916591
0.6909996,0.09214958
0.6919996,0.09257875
0.6929996,0.09303857
0.6939996,0.09349839
0.6949996,0.09395821
0.6959996,0.09438737
0.6969996,0.09484719
0.6979996,0.09527637
0.6989996,0.09570553
0.6999996,0.09588946
0.6990005,0.09542964
0.6980005,0.09493916
0.6970005,0.09454065
0.6960005,0.09408083
0.6950005,0.09359035
0.6940005,0.09319184
0.6930005,0.09270137
0.6920004,0.09224154
0.6910005,0.09181237
0.6900005,0.09135254
0.6890005,0.09089272
0.6880005,0.09046356
0.6870005,0.09000374
0.6860005,0.08951326
0.6850005,0.08911475
0.6840005,0.08865493
0.6830005,0.08816445
0.6820005,0.08776593
0.6810005,0.08730611
0.6800005,0.08684629
0.6790005,0.08641712
0.6780005,0.08598796
0.6770005,0.08552813
0.6760005,0.08506831
0.6750005,0.08460849
0.6740005,0.08414867
0.6730005,0.08375015
0.6720005,0.08329033
0.6710005,0.08283051
0.6700005,0.08243199
0.6690005,0.08194152
0.6680005,0.08151235
0.6670005,0.08108319
0.6660005,0.08062336
0.6650005,0.08016354
0.6640005,0.07973437
0.6630005,0.07927455
0.6620005,0.07884538
0.6610005,0.07841621
0.6600005,0.07792573
0.6590005,0.07752723
0.6580005,0.0770674
0.6570005,0.07660758
0.6560005,0.07620906
0.6550004,0.07574924
0.6540005,0.07528942
0.6530005,0.07486025
0.6520005,0.07440043
0.6510005,0.07397126
0.6500005,0.07357275
0.6490005,0.07308228
0.6480005,0.07265311
0.6470005,0.07222394
0.6460005,0.07176412
0.6450005,0.07133495
0.6440005,0.07090578
0.6430005,0.07044595
0.6420005,0.06998613
0.6410004,0.06958763
0.6400005,0.0691278
0.6390005,0.06869864
0.6380005,0.06823882
0.6370005,0.06777899
0.6360005,0.06738048
0.6350005,0.0669513
0.6340005,0.06649148
0.6330005,0.06606232
0.6320005,0.06563315
0.6310005,0.06520399
0.6300005,0.06477482
0.6290005,0.06434565
0.6280005,0.06388583
0.6270005,0.06348731
0.6260005,0.06305815
0.6250005,0.06259833
0.6240005,0.06216915
0.6230005,0.06173999
0.6220005,0.06128017
0.6210005,0.060851
0.6200005,0.06042183
0.6190005,0.05999266
0.6180004,0.05959415
0.6170005,0.05913433
0.6160005,0.05870516
0.6150005,0.05827599
0.6140005,0.05784683
0.6130005,0.05741766
0.6120005,0.05698849
0.6110005,0.05655932
0.6100005,0.05613015
0.6090005,0.05570099
0.6080005,0.05527182
0.6070005,0.05484265
0.6060005,0.05441349
0.6050005,0.05398431
0.6040004,0.05355515
0.6030005,0.05312598
0.6020005,0.05269681
0.6010005,0.05226765
0.6000005,0.05186913
0.5990005,0.05143997
0.5980005,0.0510108
0.5970005,0.05058163
0.5960005,0.05015246
0.5950005,0.04975395
0.5940005,0.04935544
0.5930005,0.04892627
0.5920005,0.0484971
0.5910005,0.04809859
0.5900005,0.04766942
0.5890005,0.04724025
0.5880005,0.04684174
0.5870005,0.04641258
0.5860005,0.04598341
0.5850005,0.04555424
0.5840005,0.04515573
0.5830005,0.04472656
0.5820005,0.04432805
0.5810004,0.04389888
0.5800005,0.04350037
0.5790005,0.0430712
0.5780005,0.04267269
0.5770005,0.04224352
0.5760005,0.04184501
0.5750005,0.04141584
0.5740005,0.04101732
0.5730005,0.04061881
0.5720005,0.04018965
0.5710005,0.03979113
0.5700005,0.03939262
0.5690005,0.0389328
0.5680005,0.03853428
0.5670004,0.03816643
0.5660005,0.03776791
0.5650005,0.0373694
0.5640005,0.03694023
0.5630005,0.03654172
0.5620005,0.03614321
0.5610005,0.03574469
0.5600005,0.03534618
0.5590005,0.03494767
0.5580005,0.03454916
0.5570005,0.03415065
0.5560005,0.03375213
0.5550005,0.03335362
0.5540005,0.03295511
0.5530005,0.03255659
0.5520005,0.03218874
0.5510005,0.03175957
0.5500005,0.03139171
0.5490005,0.0309932
0.5480005,0.03059468
0.5470005,0.03019617
0.5460005,0.02979766
0.5450005,0.02939915
0.5440005,0.02903129
0.5430005,0.02863277
0.5420005,0.02826492
0.5410005,0.02786641
0.5400005,0.02749855
0.5390005,0.02710003
0.5380005,0.02673218
0.5370005,0.02633366
0.5360005,0.02599646
0.5350005,0.02559795
0.5340005,0.02523009
0.5330005,0.02486223
0.5320005,0.02446372
0.5310005,0.02409586
0.5300004,0.023728
0.5290005,0.02336015
0.5280005,0.02299229
0.5270005,0.02262443
0.5260005,0.02225657
0.5250005,0.02188871
0.5240005,0.02152086
0.5230005,0.021153
0.5220005,0.02078514
0.5210005,0.02044794
0.5200005,0.02008008
0.5190005,0.01971222
0.5180005,0.01937502
0.5170005,0.01903781
0.5160004,0.01866996
0.5150005,0.01833276
0.5140005,0.01799555
0.5130005,0.01765835
0.5120005,0.01729049
0.5110005,0.01695329
0.5100005,0.01661608
0.5090005,0.01627888
0.5080005,0.01594168
0.5070005,0.01560447
0.5060005,0.01526727
0.5050005,0.01493007
0.5040005,0.01459287
0.5030005,0.01428632
0.5020005,0.01394911
0.5010005,0.01361191
0.5000005,0.01330536
0.4990005,0.01250422
0.4980005,0.01219154
0.4970005,0.01188499
0.4960005,0.01157844
0.4950005,0.01127496
0.4940005,0.01097454
0.4930005,0.01067413
0.4920005,0.01037677
0.4910005,0.01008862
0.4900005,0.009794333
0.4890005,0.009506178
0.4880005,0.009224153
0.4870005,0.008935998
0.4860005,0.00866317
0.4850005,0.008387277
0.4840005,0.008111384
0.4830005,0.007844687
0.4820005,0.007571859
0.4810005,0.007308227
0.4800005,0.007050727
0.4790005,0.006787095
0.4780005,0.006538791
0.4770005,0.006287422
0.4760005,0.006036052
0.4750005,0.00580001
0.4740005,0.005554772
0.4730005,0.005315664
0.4720005,0.005088818
0.4710005,0.004858906
0.4700005,0.004635126
0.4690005,0.004414412
0.4680005,0.004196763
0.4670005,0.003982178
0.4660005,0.003773726
0.4650005,0.003568338
0.4640005,0.003369082
0.4630005,0.003169826
0.4620005,0.0029767
0.4610005,0.002786641
0.4600005,0.002599646
0.4590005,0.002421848
0.4580005,0.00224405
0.4570005,0.002072383
0.4560005,0.001906847
0.4550005,0.001741311
0.4540005,0.001581906
0.4530005,0.001425566
0.4520005,0.001269227
0.4510005,0.001095002
0.4500005,0.0009493917
0.4490005,0.0008096057
0.4480005,0.0006731917
0.4470005,0.0005380039
0.4460005,0.000411706
0.4450005,0.0002866343
0.4440005,0.0001630954
0.4430005,4.660701E-05
0.4420005,-7.485792E-05
0.4410005,-0.0001853379
0.4400005,-0.0002909438
0.4390005,-0.0003997273
0.4380005,-0.0004984358
0.4370005,-0.0005968378
0.4360005,-0.000696466
0.4350005,-0.0007868978
0.4340005,-0.0008807015
0.4330005,-0.0009696006
0.4320005,-0.001053901
0.4310005,-0.001141574
0.4300005,-0.001222503
0.4290005,-0.001302819
0.4280005,-0.001383747
0.4270005,-0.001457625
0.4260005,-0.001534569
0.4250005,-0.001607834
0.4240005,-0.00167834
0.4230005,-0.001751299
0.4220005,-0.001821192
0.4210005,-0.001888632
0.4200005,-0.001956993
0.4190005,-0.002021061
0.4180005,-0.002087889
0.4170005,-0.002151344
0.4160005,-0.002214493
0.4150005,-0.002280401
0.4140005,-0.002339565
0.4130005,-0.002401794
0.4120005,-0.002464636
0.4110005,-0.002521961
0.4100005,-0.002589402
0.4090005,-0.002654083
0.4080005,-0.002708955
0.4070005,-0.002769958
0.4060005,-0.002828509
0.4050005,-0.002885527
0.4040005,-0.002947144
0.4030005,-0.003005081
0.4020005,-0.00302858
0.4010005,-0.003086824
0.4000005,-0.003142003
0.3990005,-0.003203312
0.3980005,-0.003261557
0.3970005,-0.003322866
0.3960005,-0.00338111
0.3950005,-0.003436289
0.3940005,-0.003497599
0.3930005,-0.003552777
0.3920005,-0.003607956
0.3910005,-0.003669266
0.3900005,-0.003724444
0.3890005,-0.003779623
0.3880005,-0.003834802
0.3870005,-0.003886915
0.3860005,-0.003939028
0.3850005,-0.003991141
0.3840005,-0.004040189
0.3830005,-0.004092303
0.3820005,-0.004138284
0.3810005,-0.004184267
0.3800005,-0.004233315
0.3790005,-0.004276231
0.3780005,-0.004319148
0.3770005,-0.00436513
0.3760005,-0.004404982
0.3750005,-0.004444833
0.3740005,-0.004484684
0.3730005,-0.00452147
0.3720005,-0.004558256
0.3710005,-0.004591976
0.3700005,-0.004625696
0.3690005,-0.004653286
0.3680005,-0.004674744
0.3670005,-0.004696202
0.3660005,-0.00471153
0.3650005,-0.004717661
0.3640005,-0.004720726
0.3630005,-0.00471153
0.3620005,-0.004699268
0.3610005,-0.004674744
0.3600005,-0.004644089
0.3590005,-0.004607304
0.3580005,-0.00455519
0.3570005,-0.004500012
0.3560005,-0.004435637
0.3550005,-0.004358999
0.3540005,-0.004279297
0.3530005,-0.004190398
0.3520005,-0.004092303
0.3510005,-0.003994207
0.3500005,-0.003880784
0.3490005,-0.003764296
0.3480005,-0.003644742
0.3470005,-0.003509861
0.3460005,-0.003378045
0.3450005,-0.003237033
0.3440005,-0.003086824
0.3430005,-0.002939681
0.3420005,-0.002789472
0.3410005,-0.002639264
0.3400005,-0.00249212
0.3390005,-0.002351108
0.3380005,-0.002219293
0.3370005,-0.002096673
0.3360005,-0.00198325
0.3350005,-0.00188209
0.3340005,-0.00178706
0.3330005,-0.001707357
0.3320005,-0.00163072
0.3310005,-0.001563279
0.3300005,-0.001541006
0.3290005,-0.001487361
0.3280005,-0.001438926
0.3270005,-0.001395396
0.3260005,-0.001355545
0.3250005,-0.001319066
0.3240005,-0.001285958
0.3230005,-0.001254384
0.3220005,-0.001226181
0.3210005,-0.001199512
0.3200005,-0.001174681
0.3190005,-0.001151384
0.3180005,-0.001129619
0.3170005,-0.001108774
0.3160005,-0.001089154
0.3150005,-0.001070761
0.3140005,-0.001053288
0.3130005,-0.001036735
0.3120005,-0.001020488
0.3110005,-0.001005467
0.3100005,-0.0009907524
0.3090005,-0.0009769576
0.3080005,-0.0009637761
0.3070005,-0.0009509011
0.3060005,-0.0009386392
0.3050005,-0.0009266838
0.3040005,-0.0009150349
0.3030005,-0.0009043057
0.3020005,-0.00089327
0.3010005,-0.0008831539
0.3000005,-0.0008730378
0.2990005,-0.0008632282
0.2980005,-0.0008540318
0.2970005,-0.0008448354
0.2960005,-0.0008359455
0.2950005,-0.0008276686
0.2940005,-0.0008193919
0.2930005,-0.0008111151
0.2920005,-0.0008034513
0.2910005,-0.0007957877
0.2900005,-0.0007884305
0.2890005,-0.0007810733
0.2880005,-0.0007743293
0.2870005,-0.0007672787
0.2860005,-0.0007608412
0.2850005,-0.0007544036
0.2840005,-0.0007482726
0.2830005,-0.0007418352
0.2820005,-0.0007360107
0.2810005,-0.0007301863
0.2800005,-0.0007243619
0.2790005,-0.000718844
0.2780005,-0.0007133262
0.2770005,-0.0007081148
0.2760005,-0.0007029035
0.2750005,-0.0006976922
0.2740005,-0.0006927875
0.2730005,-0.0006878827
0.2720005,-0.0006829779
0.2710005,-0.0006786863
0.2700005,-0.000674088
0.2690005,-0.0006697963
0.2680005,-0.0006655046
0.2670005,-0.0006609064
0.2660005,-0.0006569213
0.2650005,-0.0006529361
0.2640005,-0.0006486445
0.2630005,-0.0006449659
0.2620005,-0.0006409807
0.2610005,-0.0006369957
0.2600005,-0.0006336236
0.2590005,-0.0006296384
0.2580005,-0.0006262665
0.2570005,-0.0006225879
0.2560005,-0.0006192158
0.2550005,-0.0006158438
0.2540005,-0.0006127784
0.2530005,-0.0006094063
0.2520005,-0.0006063408
0.2510005,-0.0006029688
0.2500005,-0.0005999033
0.2490005,-0.0005968378
0.2480005,-0.0005937723
0.2470005,-0.0005907068
0.2460005,-0.000587948
0.2450005,-0.0005848824
0.2440005,-0.00058243
0.2430005,-0.0005793645
0.2420005,-0.0005769122
0.2410005,-0.0005741533
0.2400005,-0.0005713943
0.2390005,-0.0005689419
0.2380005,-0.000566183
0.2370005,-0.0005637306
0.2360005,-0.0005615847
0.2350005,-0.0005588258
0.2340005,-0.0005563734
0.2330005,-0.0005542276
0.2320005,-0.0005517752
0.2310005,-0.0005493228
0.2300005,-0.000547177
0.2290005,-0.0005447246
0.2280005,-0.0005425788
0.2270005,-0.0005407395
0.2260005,-0.000538287
0.2250005,-0.0005361412
0.2240005,-0.000534302
0.2230005,-0.0005318496
0.2220005,-0.0005300103
0.2210005,-0.000528171
0.2200005,-0.0005260251
0.2190005,-0.0005241859
0.2180005,-0.0005223466
0.2170005,-0.0005202008
0.2160005,-0.0005183615
0.2150005,-0.0005165222
0.2140005,-0.0005143763
0.2130005,-0.0005128436
0.2120005,-0.0005110043
0.2110005,-0.000509165
0.2100005,-0.0005073257
0.2090005,-0.000505793
0.2080005,-0.0005039537
0.2070005,-0.0005024209
0.2060005,-0.0005005816
0.2050005,-0.0004987424
0.2040005,-0.0004972096
0.2030005,-0.0004953703
0.2020005,-0.0004938376
0.2010005,-0.0004923049
0.2000005,-0.0004907721
0.1990005,-0.0004892393
0.1980005,-0.0004874001
0.1970005,-0.0004858673
0.1960005,-0.0004843346
0.1950005,-0.0004828018
0.1940005,-0.0004812691
0.1930005,-0.0004794298
0.1920005,-0.0004782036
0.1910005,-0.0004766709
0.1900005,-0.0004751382
0.1890005,-0.000473912
0.1880005,-0.0004723792
0.1870005,-0.0004708465
0.1860005,-0.0004693137
0.1850005,-0.0004680876
0.1840005,-0.0004665548
0.1830005,-0.0004650221
0.1820005,-0.0004637959
0.1810005,-0.0004622631
0.1800005,-0.000461037
0.1790005,-0.0004595042
0.1780005,-0.0004579714
0.1770005,-0.0004567453
0.1760005,-0.0004552125
0.1750005,-0.0004539863
0.1740005,-0.0004527601
0.1730005,-0.0004512274
0.1720005,-0.0004500012
0.1710005,-0.0004484684
0.1700005,-0.0004469357
0.1690005,-0.0004457095
0.1680005,-0.0004441768
0.1670005,-0.0004429506
0.1660005,-0.0004417244
0.1650005,-0.0004404982
0.1640005,-0.000439272
0.1630005,-0.0004377393
0.1620005,-0.000436513
0.1610005,-0.0004349803
0.1600005,-0.0004337541
0.1590005,-0.0004322214
0.1580005,-0.0004309952
0.1570005,-0.000429769
0.1560005,-0.0004285428
0.1550005,-0.0004270101
0.1540005,-0.0004257839
0.1530005,-0.0004242511
0.1520005,-0.0004230249
0.1510005,-0.0004217988
0.1500005,-0.0004205726
0.1490005,-0.0004190398
0.1480005,-0.0004178136
0.1470005,-0.0004162809
0.1460005,-0.0004150547
0.1450005,-0.0004135219
0.1440005,-0.0004122957
0.1430005,-0.000410763
0.1420005,-0.0004092303
0.1410005,-0.0004076975
0.1400005,-0.0004064713
0.1390005,-0.0004052451
0.1380005,-0.0004037124
0.1370005,-0.0004021796
0.1360005,-0.0004009535
0.1350005,-0.0003991142
0.1340005,-0.0003981945
0.1330005,-0.0003966618
0.1320005,-0.0003951291
0.1310005,-0.0003939029
0.1300005,-0.0003923701
0.1290005,-0.0003908373
0.1280005,-0.0003893046
0.1270005,-0.0003877719
0.1260005,-0.0003859326
0.1250005,-0.0003847064
0.1240005,-0.0003831737
0.1230005,-0.0003816409
0.1220005,-0.0003804147
0.1210005,-0.000378882
0.1200005,-0.0003773492
0.1190005,-0.0003761231
0.1180005,-0.0003745903
0.1170005,-0.0003730576
0.1160005,-0.0003715248
0.1150005,-0.0003702986
0.1140005,-0.0003687659
0.1130005,-0.0003672332
0.1120005,-0.0003657004
0.1110005,-0.0003644742
0.1100005,-0.0003632481
0.1090005,-0.0003617153
0.1080005,-0.0003604891
0.1070005,-0.0003592629
0.1060005,-0.0003577302
0.1050005,-0.000356504
0.1040005,-0.0003552778
0.1030005,-0.0003540516
0.1020005,-0.0003525188
0.1010005,-0.0003515992
0.1000005,-0.0003500664
0.09900048,-0.0003488403
0.09800047,-0.0003476141
0.09700048,-0.0003460813
0.09600048,-0.0003451617
0.09500048,-0.0003436289
0.09400047,-0.0003424028
0.09300048,-0.0003414831
0.09200048,-0.0003399504
0.09100047,-0.0003387242
0.09000048,-0.0003378045
0.08900048,-0.0003365783
0.08800048,-0.0003350456
0.08700047,-0.0003341259
0.08600048,-0.0003328998
0.08500048,-0.0003316735
0.08400048,-0.0003304474
0.08300047,-0.0003292212
0.08200048,-0.000327995
0.08100048,-0.0003267688
0.08000048,-0.0003255426
0.07900048,-0.0003243164
0.07800048,-0.0003230902
0.07700048,-0.000321864
0.07600047,-0.0003206378
0.07500048,-0.0003194116
0.07400048,-0.000318492
0.07300048,-0.0003172658
0.07200047,-0.0003160396
0.07100048,-0.0003145068
0.07000048,-0.0003135872
0.06900048,-0.000312361
0.06800048,-0.0003111348
0.06700048,-0.0003099086
0.06600048,-0.0003086824
0.06500047,-0.0003074562
0.06400048,-0.00030623
0.06300048,-0.0003053104
0.06200048,-0.0003040842
0.06100048,-0.000302858
0.06000048,-0.0003016318
0.05900048,-0.0003004056
0.05800048,-0.0002991795
0.05700048,-0.0002982598
0.05600048,-0.0002970336
0.05500048,-0.0002958074
0.05400048,-0.0002945812
0.05300048,-0.000293355
0.05200048,-0.0002924354
0.05100048,-0.0002912092
0.05000048,-0.000289983
0.04900048,-0.0002890633
0.04800048,-0.0002878372
0.04700048,-0.0002869175
0.04600048,-0.0002856913
0.04500048,-0.0002847717
0.04400048,-0.0002835455
0.04300048,-0.0002826258
0.04200048,-0.0002813996
0.04100048,-0.00028048
0.04000048,-0.0002795603
0.03900048,-0.0002786407
0.03800048,-0.0002774145
0.03700048,-0.0002764949
0.03600048,-0.0002755752
0.03500048,-0.000274349
0.03400048,-0.0002734294
0.03300048,-0.0002725097
0.03200048,-0.0002715901
0.03100048,-0.0002706705
0.03000048,-0.0002697508
0.02900048,-0.0002688312
0.02800048,-0.0002679115
0.02700048,-0.0002669919
0.02600048,-0.0002660722
0.02500048,-0.0002651526
0.02400048,-0.0002642329
0.02300048,-0.0002633133
0.02200048,-0.0002623936
0.02100048,-0.000261474
0.02000048,-0.0002608609
0.01900048,-0.0002599413
0.01800048,-0.0002590216
0.01700048,-0.0002584085
0.01600048,-0.0002574889
0.01500048,-0.0002565692
0.01400048,-0.0002556496
0.01300048,-0.0002550365
0.01200048,-0.0002541168
0.01100048,-0.0002535038
0.01000048,-0.0002525841
0.009000476,-0.000251971
0.008000477,-0.0002510514
0.007000477,-0.0002504383
0.006000477,-0.0002495186
0.005000477,-0.0002489055
0.004000477,-0.0002479859
0.003000477,-0.0002473728
0.002000477,-0.0002464531
0.001000477,-0.00024584
