EXPID. 1251
[电化学]: CV : -0.8 >> -0.8 >> -1.5 >> -0.8(V) @ 0.01(V/s) X 10(Seg)
起始电位 (V),-0.8
上限电位 (V),-0.8
下限电位 (V),-1.5
终止电位 (V),-0.8
扫速 (V/s),0.01
电解液 信息:
KOH,1
-0.8,-0.07163917
-0.801,-0.06060342
-0.802,-0.05346085
-0.803,-0.04849477
-0.804,-0.04475488
-0.805,-0.0416894
-0.806,-0.0391757
-0.807,-0.03699921
-0.808,-0.03500664
-0.809,-0.03310604
-0.81,-0.03142003
-0.811,-0.03000991
-0.812,-0.02875306
-0.813,-0.02761883
-0.814,-0.02651526
-0.815,-0.02550365
-0.816,-0.02455335
-0.817,-0.0236337
-0.818,-0.02280602
-0.819,-0.022009
-0.82,-0.02124263
-0.821,-0.02050691
-0.822,-0.01980185
-0.823,-0.01912744
-0.824,-0.01851435
-0.825,-0.01793191
-0.826,-0.01731881
-0.827,-0.01679768
-0.828,-0.01624589
-0.829,-0.01572476
-0.83,-0.01538861
-0.831,-0.01493492
-0.832,-0.01448429
-0.833,-0.01407658
-0.834,-0.013675
-0.835,-0.01328569
-0.836,-0.01293009
-0.837,-0.01257756
-0.838,-0.01223729
-0.839,-0.01192461
-0.84,-0.01160887
-0.841,-0.01131151
-0.842,-0.01103562
-0.843,-0.01075973
-0.844,-0.0104961
-0.845,-0.01024779
-0.846,-0.009999488
-0.847,-0.009775707
-0.848,-0.009554992
-0.849,-0.009331211
-0.85,-0.009125825
-0.851,-0.008926569
-0.852,-0.008718115
-0.853,-0.008531122
-0.854,-0.008347192
-0.855,-0.008163263
-0.856,-0.007991596
-0.857,-0.00782606
-0.858,-0.007660524
-0.859,-0.00750725
-0.86,-0.007360106
-0.861,-0.007212963
-0.862,-0.007075017
-0.863,-0.006943201
-0.864,-0.006814451
-0.865,-0.006691832
-0.866,-0.006575344
-0.867,-0.006458855
-0.868,-0.006348498
-0.869,-0.006247337
-0.87,-0.006146176
-0.871,-0.006045015
-0.872,-0.00595305
-0.873,-0.005858021
-0.874,-0.005762991
-0.875,-0.005677157
-0.876,-0.005588258
-0.877,-0.00550549
-0.878,-0.005428853
-0.879,-0.005355281
-0.88,-0.005284776
-0.881,-0.0052204
-0.882,-0.005159091
-0.883,-0.005100846
-0.884,-0.005045668
-0.885,-0.004993554
-0.886,-0.004941441
-0.887,-0.004895459
-0.888,-0.004852542
-0.889,-0.004809625
-0.89,-0.004775905
-0.891,-0.004732988
-0.892,-0.004702333
-0.893,-0.004668613
-0.894,-0.004634893
-0.895,-0.004607304
-0.896,-0.004579714
-0.897,-0.00454906
-0.898,-0.004524535
-0.899,-0.004503077
-0.9,-0.004472422
-0.901,-0.004457095
-0.902,-0.004438702
-0.903,-0.004414178
-0.904,-0.004398851
-0.905,-0.004383523
-0.906,-0.004362065
-0.907,-0.004349803
-0.908,-0.004337541
-0.909,-0.004322214
-0.91,-0.004309952
-0.911,-0.004294624
-0.912,-0.004279297
-0.913,-0.004267035
-0.914,-0.004248642
-0.915,-0.004233315
-0.916,-0.004224118
-0.917,-0.004208791
-0.918,-0.004199594
-0.919,-0.004190398
-0.92,-0.00417507
-0.921,-0.004165874
-0.922,-0.004159743
-0.923,-0.004147481
-0.924,-0.004144416
-0.925,-0.004138284
-0.926,-0.004132153
-0.927,-0.004126023
-0.928,-0.004122957
-0.929,-0.004119892
-0.93,-0.004116826
-0.931,-0.004116826
-0.932,-0.004113761
-0.933,-0.004113761
-0.934,-0.004113761
-0.935,-0.004116826
-0.936,-0.004113761
-0.937,-0.004119892
-0.938,-0.004119892
-0.939,-0.004116826
-0.94,-0.004122957
-0.941,-0.004126023
-0.942,-0.004129088
-0.943,-0.004135219
-0.944,-0.004132153
-0.945,-0.004138284
-0.946,-0.004144416
-0.947,-0.004144416
-0.948,-0.004147481
-0.949,-0.004153612
-0.95,-0.004153612
-0.951,-0.004162808
-0.952,-0.004168939
-0.953,-0.004168939
-0.954,-0.00417507
-0.955,-0.004178136
-0.956,-0.004184267
-0.957,-0.004187332
-0.958,-0.004193463
-0.959,-0.004199594
-0.96,-0.004199594
-0.961,-0.004211857
-0.962,-0.004211857
-0.963,-0.004214922
-0.964,-0.004224118
-0.965,-0.004224118
-0.966,-0.004227184
-0.967,-0.00423638
-0.968,-0.004233315
-0.969,-0.004242511
-0.97,-0.004245576
-0.971,-0.004242511
-0.972,-0.004251707
-0.973,-0.004257839
-0.974,-0.004257839
-0.975,-0.00426397
-0.976,-0.00426397
-0.977,-0.004267035
-0.978,-0.004273166
-0.979,-0.004276231
-0.98,-0.004276231
-0.981,-0.004282362
-0.982,-0.004282362
-0.983,-0.004285428
-0.984,-0.004291559
-0.985,-0.004291559
-0.986,-0.004294624
-0.987,-0.004300755
-0.988,-0.004300755
-0.989,-0.00430382
-0.99,-0.004309952
-0.991,-0.004306886
-0.992,-0.004309952
-0.993,-0.004316083
-0.994,-0.004316083
-0.995,-0.004316083
-0.996,-0.004325279
-0.997,-0.004319148
-0.998,-0.004325279
-0.999,-0.00433141
-1,-0.004328344
-1.001,-0.004334475
-1.002,-0.004340607
-1.003,-0.004334475
-1.004,-0.004346738
-1.005,-0.004349803
-1.006,-0.004346738
-1.007,-0.004355934
-1.008,-0.004358999
-1.009,-0.004355934
-1.01,-0.004362065
-1.011,-0.004368196
-1.012,-0.004368196
-1.013,-0.004374327
-1.014,-0.004383523
-1.015,-0.004377393
-1.016,-0.004389654
-1.017,-0.00439272
-1.018,-0.00439272
-1.019,-0.004401916
-1.02,-0.004404982
-1.021,-0.004401916
-1.022,-0.004414178
-1.023,-0.004417243
-1.024,-0.004420309
-1.025,-0.00442644
-1.026,-0.004429505
-1.027,-0.004429505
-1.028,-0.004438702
-1.029,-0.004444833
-1.03,-0.004441767
-1.031,-0.004450964
-1.032,-0.004454029
-1.033,-0.004457095
-1.034,-0.004466291
-1.035,-0.004466291
-1.036,-0.004469357
-1.037,-0.004478553
-1.038,-0.004481619
-1.039,-0.004481619
-1.04,-0.00448775
-1.041,-0.004496946
-1.042,-0.004493881
-1.043,-0.004506143
-1.044,-0.004506143
-1.045,-0.004506143
-1.046,-0.004515339
-1.047,-0.004512274
-1.048,-0.004515339
-1.049,-0.00452147
-1.05,-0.00452147
-1.051,-0.004527601
-1.052,-0.004524535
-1.053,-0.004524535
-1.054,-0.004530666
-1.055,-0.004530666
-1.056,-0.004527601
-1.057,-0.004533732
-1.058,-0.004533732
-1.059,-0.004530666
-1.06,-0.004536797
-1.061,-0.004527601
-1.062,-0.004527601
-1.063,-0.004533732
-1.064,-0.004524535
-1.065,-0.004524535
-1.066,-0.004530666
-1.067,-0.004518405
-1.068,-0.004518405
-1.069,-0.004518405
-1.07,-0.004512274
-1.071,-0.004509208
-1.072,-0.004506143
-1.073,-0.004506143
-1.074,-0.004496946
-1.075,-0.004493881
-1.076,-0.004493881
-1.077,-0.004478553
-1.078,-0.004478553
-1.079,-0.004478553
-1.08,-0.004469357
-1.081,-0.004466291
-1.082,-0.00446016
-1.083,-0.004450964
-1.084,-0.004454029
-1.085,-0.004444833
-1.086,-0.004438702
-1.087,-0.004438702
-1.088,-0.004432571
-1.089,-0.00442644
-1.09,-0.004423374
-1.091,-0.004417243
-1.092,-0.004411113
-1.093,-0.004411113
-1.094,-0.004404982
-1.095,-0.004395785
-1.096,-0.00439272
-1.097,-0.004389654
-1.098,-0.004380458
-1.099,-0.004374327
-1.1,-0.004377393
-1.101,-0.00436513
-1.102,-0.004358999
-1.103,-0.004358999
-1.104,-0.004346738
-1.105,-0.004346738
-1.106,-0.004343672
-1.107,-0.004328344
-1.108,-0.00433141
-1.109,-0.004325279
-1.11,-0.004319148
-1.111,-0.004319148
-1.112,-0.004309952
-1.113,-0.004300755
-1.114,-0.004300755
-1.115,-0.004294624
-1.116,-0.004288493
-1.117,-0.004285428
-1.118,-0.004288493
-1.119,-0.004273166
-1.12,-0.004276231
-1.121,-0.004273166
-1.122,-0.00426397
-1.123,-0.004260904
-1.124,-0.004257839
-1.125,-0.004254773
-1.126,-0.004251707
-1.127,-0.004248642
-1.128,-0.004248642
-1.129,-0.004242511
-1.13,-0.004239446
-1.131,-0.00423638
-1.132,-0.00423638
-1.133,-0.004230249
-1.134,-0.004230249
-1.135,-0.004230249
-1.136,-0.004224118
-1.137,-0.004217987
-1.138,-0.004224118
-1.139,-0.004214922
-1.14,-0.004217987
-1.141,-0.004217987
-1.142,-0.004208791
-1.143,-0.004211857
-1.144,-0.004211857
-1.145,-0.004208791
-1.146,-0.004208791
-1.147,-0.004205726
-1.148,-0.004199594
-1.149,-0.00420266
-1.15,-0.004196529
-1.151,-0.004196529
-1.152,-0.004193463
-1.153,-0.004190398
-1.154,-0.004187332
-1.155,-0.004187332
-1.156,-0.004187332
-1.157,-0.004184267
-1.158,-0.004184267
-1.159,-0.004172005
-1.16,-0.004172005
-1.161,-0.004168939
-1.162,-0.004159743
-1.163,-0.004162808
-1.164,-0.004159743
-1.165,-0.004150547
-1.166,-0.004153612
-1.167,-0.004144416
-1.168,-0.004135219
-1.169,-0.004135219
-1.17,-0.004126023
-1.171,-0.004116826
-1.172,-0.004119892
-1.173,-0.004113761
-1.174,-0.004098434
-1.175,-0.004098434
-1.176,-0.004089237
-1.177,-0.004083106
-1.178,-0.00408004
-1.179,-0.004064713
-1.18,-0.004061648
-1.181,-0.004052451
-1.182,-0.004043255
-1.183,-0.004034058
-1.184,-0.004027927
-1.185,-0.0040126
-1.186,-0.004009534
-1.187,-0.004000338
-1.188,-0.003991141
-1.189,-0.00397888
-1.19,-0.003975814
-1.191,-0.003960487
-1.192,-0.003954356
-1.193,-0.003954356
-1.194,-0.003935963
-1.195,-0.003932897
-1.196,-0.003932897
-1.197,-0.00391757
-1.198,-0.003914505
-1.199,-0.003908373
-1.2,-0.003893046
-1.201,-0.003896111
-1.202,-0.00388998
-1.203,-0.003877719
-1.204,-0.003874653
-1.205,-0.003871588
-1.206,-0.003862391
-1.207,-0.003859326
-1.208,-0.00385626
-1.209,-0.003847064
-1.21,-0.003847064
-1.211,-0.003843998
-1.212,-0.003834802
-1.213,-0.003834802
-1.214,-0.003831736
-1.215,-0.003825605
-1.216,-0.003825605
-1.217,-0.003819474
-1.218,-0.003816409
-1.219,-0.003816409
-1.22,-0.003807213
-1.221,-0.003810278
-1.222,-0.003807213
-1.223,-0.003804147
-1.224,-0.003801082
-1.225,-0.003804147
-1.226,-0.003801082
-1.227,-0.003798016
-1.228,-0.003798016
-1.229,-0.003794951
-1.23,-0.003794951
-1.231,-0.003798016
-1.232,-0.003798016
-1.233,-0.003794951
-1.234,-0.003794951
-1.235,-0.003798016
-1.236,-0.003794951
-1.237,-0.003798016
-1.238,-0.003798016
-1.239,-0.003798016
-1.24,-0.003798016
-1.241,-0.003798016
-1.242,-0.003804147
-1.243,-0.003804147
-1.244,-0.003801082
-1.245,-0.003810278
-1.246,-0.003810278
-1.247,-0.003807213
-1.248,-0.003819474
-1.249,-0.003819474
-1.25,-0.003816409
-1.251,-0.003825605
-1.252,-0.003828671
-1.253,-0.003828671
-1.254,-0.003837867
-1.255,-0.003837867
-1.256,-0.003840933
-1.257,-0.003847064
-1.258,-0.003853195
-1.259,-0.003859326
-1.26,-0.003862391
-1.261,-0.003868522
-1.262,-0.003871588
-1.263,-0.00388385
-1.264,-0.003886915
-1.265,-0.00388998
-1.266,-0.003902242
-1.267,-0.003905308
-1.268,-0.003914505
-1.269,-0.003923701
-1.27,-0.003929832
-1.271,-0.003935963
-1.272,-0.003948225
-1.273,-0.00395129
-1.274,-0.003963552
-1.275,-0.003972749
-1.276,-0.003981945
-1.277,-0.003994207
-1.278,-0.004003403
-1.279,-0.004015665
-1.28,-0.004024862
-1.281,-0.004037124
-1.282,-0.004049386
-1.283,-0.004061648
-1.284,-0.004073909
-1.285,-0.004086172
-1.286,-0.004098434
-1.287,-0.004116826
-1.288,-0.004129088
-1.289,-0.00414135
-1.29,-0.004156678
-1.291,-0.004168939
-1.292,-0.004190398
-1.293,-0.004205726
-1.294,-0.004217987
-1.295,-0.004239446
-1.296,-0.004257839
-1.297,-0.004270101
-1.298,-0.004291559
-1.299,-0.004309952
-1.3,-0.004328344
-1.301,-0.004349803
-1.302,-0.004368196
-1.303,-0.004386589
-1.304,-0.004411113
-1.305,-0.004429505
-1.306,-0.004450964
-1.307,-0.004475488
-1.308,-0.004496946
-1.309,-0.004518405
-1.31,-0.004542928
-1.311,-0.004567452
-1.312,-0.00458891
-1.313,-0.0046165
-1.314,-0.004644089
-1.315,-0.004665548
-1.316,-0.004693137
-1.317,-0.004720726
-1.318,-0.00474525
-1.319,-0.004775905
-1.32,-0.00480656
-1.321,-0.004831084
-1.322,-0.004864804
-1.323,-0.004895459
-1.324,-0.004916917
-1.325,-0.004956769
-1.326,-0.004987423
-1.327,-0.005015012
-1.328,-0.005051799
-1.329,-0.005082454
-1.33,-0.005113108
-1.331,-0.005156024
-1.332,-0.005189745
-1.333,-0.005223466
-1.334,-0.005263316
-1.335,-0.005303168
-1.336,-0.005339954
-1.337,-0.00538287
-1.338,-0.005422722
-1.339,-0.005462573
-1.34,-0.005514686
-1.341,-0.005554538
-1.342,-0.005603585
-1.343,-0.005655698
-1.344,-0.005701681
-1.345,-0.00575686
-1.346,-0.005815104
-1.347,-0.005867217
-1.348,-0.005931592
-1.349,-0.005992902
-1.35,-0.006054211
-1.351,-0.006124718
-1.352,-0.006198289
-1.353,-0.006271861
-1.354,-0.006351563
-1.355,-0.006437397
-1.356,-0.006520165
-1.357,-0.00661826
-1.358,-0.006716356
-1.359,-0.006814451
-1.36,-0.006930939
-1.361,-0.007044362
-1.362,-0.007163916
-1.363,-0.007301863
-1.364,-0.007442875
-1.365,-0.007580821
-1.366,-0.007737161
-1.367,-0.007902697
-1.368,-0.008074365
-1.369,-0.008258293
-1.37,-0.008454484
-1.371,-0.00865374
-1.372,-0.008874455
-1.373,-0.009098236
-1.374,-0.009331211
-1.375,-0.009585647
-1.376,-0.009840082
-1.377,-0.01011291
-1.378,-0.010398
-1.379,-0.01068922
-1.38,-0.01098964
-1.381,-0.01130538
-1.382,-0.01163032
-1.383,-0.01196753
-1.384,-0.01231393
-1.385,-0.01267259
-1.386,-0.01303432
-1.387,-0.01341137
-1.388,-0.01379149
-1.389,-0.01417774
-1.39,-0.01457319
-1.391,-0.01496863
-1.392,-0.01537634
-1.393,-0.01578405
-1.394,-0.01618563
-1.395,-0.01661173
-1.396,-0.01702864
-1.397,-0.01744861
-1.398,-0.01788391
-1.399,-0.01831001
-1.4,-0.01872998
-1.401,-0.01915608
-1.402,-0.01957912
-1.403,-0.01999603
-1.404,-0.02042213
-1.405,-0.02084823
-1.406,-0.02128046
-1.407,-0.02171576
-1.408,-0.02214799
-1.409,-0.02258023
-1.41,-0.02303698
-1.411,-0.02347535
-1.412,-0.02391065
-1.413,-0.02433981
-1.414,-0.02476285
-1.415,-0.02517056
-1.416,-0.02559973
-1.417,-0.02603196
-1.418,-0.02644887
-1.419,-0.02687497
-1.42,-0.02730107
-1.421,-0.02770571
-1.422,-0.02812262
-1.423,-0.02853953
-1.424,-0.02893497
-1.425,-0.02933349
-1.426,-0.02973813
-1.427,-0.03013664
-1.428,-0.03065366
-1.429,-0.03102152
-1.43,-0.03145069
-1.431,-0.0318492
-1.432,-0.03224771
-1.433,-0.03264622
-1.434,-0.03307539
-1.435,-0.03344325
-1.436,-0.0338111
-1.437,-0.03420962
-1.438,-0.03457748
-1.439,-0.03494534
-1.44,-0.03534385
-1.441,-0.03571171
-1.442,-0.03611022
-1.443,-0.03650873
-1.444,-0.03687659
-1.445,-0.03724445
-1.446,-0.03767361
-1.447,-0.03804147
-1.448,-0.03840933
-1.449,-0.03880784
-1.45,-0.0391757
-1.451,-0.03957421
-1.452,-0.03997273
-1.453,-0.04030993
-1.454,-0.04070844
-1.455,-0.04110695
-1.456,-0.04147482
-1.457,-0.04184267
-1.458,-0.04224118
-1.459,-0.04260904
-1.46,-0.0429769
-1.461,-0.04334476
-1.462,-0.04371261
-1.463,-0.04408047
-1.464,-0.04444833
-1.465,-0.04484684
-1.466,-0.0452147
-1.467,-0.04558256
-1.468,-0.04595042
-1.469,-0.04631827
-1.47,-0.04671679
-1.471,-0.04708464
-1.472,-0.04745251
-1.473,-0.04785102
-1.474,-0.04821887
-1.475,-0.04858673
-1.476,-0.04898525
-1.477,-0.0493531
-1.478,-0.04975162
-1.479,-0.05015013
-1.48,-0.05051799
-1.481,-0.0509165
-1.482,-0.05131501
-1.483,-0.05171353
-1.484,-0.05211204
-1.485,-0.05251055
-1.486,-0.05290907
-1.487,-0.05333823
-1.488,-0.05370609
-1.489,-0.0541046
-1.49,-0.05453377
-1.491,-0.05493228
-1.492,-0.05533079
-1.493,-0.05572931
-1.494,-0.05615847
-1.495,-0.05655699
-1.496,-0.05698615
-1.497,-0.05738467
-1.498,-0.05781383
-1.499,-0.058243
-1.5,-0.05839628
-1.499,-0.05805907
-1.498,-0.05772187
-1.497,-0.05735401
-1.496,-0.05698615
-1.495,-0.05667961
-1.494,-0.0562811
-1.493,-0.05594389
-1.492,-0.05560669
-1.491,-0.05526949
-1.49,-0.05493228
-1.489,-0.05456442
-1.488,-0.05422722
-1.487,-0.05389002
-1.486,-0.05358347
-1.485,-0.05324627
-1.484,-0.05290907
-1.483,-0.05260251
-1.482,-0.05226531
-1.481,-0.05192811
-1.48,-0.05162156
-1.479,-0.05128435
-1.478,-0.05097781
-1.477,-0.05064061
-1.476,-0.0503034
-1.475,-0.0499662
-1.474,-0.04965965
-1.473,-0.04929179
-1.472,-0.0490159
-1.471,-0.04864804
-1.47,-0.04834149
-1.469,-0.04800429
-1.468,-0.04769774
-1.467,-0.04736054
-1.466,-0.04708464
-1.465,-0.04671679
-1.464,-0.04641024
-1.463,-0.04610369
-1.462,-0.04576649
-1.461,-0.04545994
-1.46,-0.04512274
-1.459,-0.04478553
-1.458,-0.04444833
-1.457,-0.04414178
-1.456,-0.04383523
-1.455,-0.04352869
-1.454,-0.04322214
-1.453,-0.04288493
-1.452,-0.04257839
-1.451,-0.04227184
-1.45,-0.04193464
-1.449,-0.04159743
-1.448,-0.04129088
-1.447,-0.04095368
-1.446,-0.04061648
-1.445,-0.04030993
-1.444,-0.03997273
-1.443,-0.03966618
-1.442,-0.03935963
-1.441,-0.03902243
-1.44,-0.03874653
-1.439,-0.03840933
-1.438,-0.03807213
-1.437,-0.03776558
-1.436,-0.03742838
-1.435,-0.03712183
-1.434,-0.03681528
-1.433,-0.03647808
-1.432,-0.03617153
-1.431,-0.03583432
-1.43,-0.03552778
-1.429,-0.03522123
-1.428,-0.03488402
-1.427,-0.03457748
-1.426,-0.03430158
-1.425,-0.03399504
-1.424,-0.03365783
-1.423,-0.03335128
-1.422,-0.03304474
-1.421,-0.03273819
-1.42,-0.03240098
-1.419,-0.03209443
-1.418,-0.03178789
-1.417,-0.03148134
-1.416,-0.03117479
-1.415,-0.03086824
-1.414,-0.03056169
-1.413,-0.03025514
-1.412,-0.0299486
-1.411,-0.02964205
-1.41,-0.0293355
-1.409,-0.02902895
-1.408,-0.02872241
-1.407,-0.02844651
-1.406,-0.02813996
-1.405,-0.02783342
-1.404,-0.02755752
-1.403,-0.02725097
-1.402,-0.02694443
-1.401,-0.02666853
-1.4,-0.02639264
-1.399,-0.02608609
-1.398,-0.0258102
-1.397,-0.02550365
-1.396,-0.02522776
-1.395,-0.02492121
-1.394,-0.02461466
-1.393,-0.02433877
-1.392,-0.02406287
-1.391,-0.02375632
-1.39,-0.02348043
-1.389,-0.02320454
-1.388,-0.02292864
-1.387,-0.0226834
-1.386,-0.02237686
-1.385,-0.02210096
-1.384,-0.02182507
-1.383,-0.02154918
-1.382,-0.02127328
-1.381,-0.02102804
-1.38,-0.02075215
-1.379,-0.02047626
-1.378,-0.02023102
-1.377,-0.01998578
-1.376,-0.01970989
-1.375,-0.01946465
-1.374,-0.01918875
-1.373,-0.01894352
-1.372,-0.01869828
-1.371,-0.01845304
-1.37,-0.01817714
-1.369,-0.01793191
-1.368,-0.01768667
-1.367,-0.01744143
-1.366,-0.01722685
-1.365,-0.01695095
-1.364,-0.01673637
-1.363,-0.01649113
-1.362,-0.01627655
-1.361,-0.01603131
-1.36,-0.01591893
-1.359,-0.01569515
-1.358,-0.0154867
-1.357,-0.01526905
-1.356,-0.01504834
-1.355,-0.01484908
-1.354,-0.0146345
-1.353,-0.01442605
-1.352,-0.01423292
-1.351,-0.0140306
-1.35,-0.01382828
-1.349,-0.01364128
-1.348,-0.01344509
-1.347,-0.0132489
-1.346,-0.0130619
-1.345,-0.01286878
-1.344,-0.01269098
-1.343,-0.01251318
-1.342,-0.01233232
-1.341,-0.01216372
-1.34,-0.01199512
-1.339,-0.01182038
-1.338,-0.01165791
-1.337,-0.01149851
-1.336,-0.01133604
-1.335,-0.0111797
-1.334,-0.01102336
-1.333,-0.01086702
-1.332,-0.01071681
-1.331,-0.0105758
-1.33,-0.01042559
-1.329,-0.01028458
-1.328,-0.01015276
-1.327,-0.01001482
-1.326,-0.009882999
-1.325,-0.009757314
-1.324,-0.009622433
-1.323,-0.009499813
-1.322,-0.009383325
-1.321,-0.009257641
-1.32,-0.009147284
-1.319,-0.009033861
-1.318,-0.008917372
-1.317,-0.00881008
-1.316,-0.008699723
-1.315,-0.008592431
-1.314,-0.008494335
-1.313,-0.008390109
-1.312,-0.008292013
-1.311,-0.008196983
-1.31,-0.008105019
-1.309,-0.008009989
-1.308,-0.00792109
-1.307,-0.007838323
-1.306,-0.007749423
-1.305,-0.007666655
-1.304,-0.007586952
-1.303,-0.007504185
-1.302,-0.007430613
-1.301,-0.007353975
-1.3,-0.007274273
-1.299,-0.007203767
-1.298,-0.007136327
-1.297,-0.007062755
-1.296,-0.006995314
-1.295,-0.006934005
-1.294,-0.006866564
-1.293,-0.006805255
-1.292,-0.00674701
-1.291,-0.00667957
-1.29,-0.006624391
-1.289,-0.006566147
-1.288,-0.006507902
-1.287,-0.00645579
-1.286,-0.006403676
-1.285,-0.006348498
-1.284,-0.00629945
-1.283,-0.006247337
-1.282,-0.006201354
-1.281,-0.006152307
-1.28,-0.006103259
-1.279,-0.006057276
-1.278,-0.006011295
-1.277,-0.005965312
-1.276,-0.005925461
-1.275,-0.005882544
-1.274,-0.005836562
-1.273,-0.005802842
-1.272,-0.005762991
-1.271,-0.005720073
-1.27,-0.005686353
-1.269,-0.005649568
-1.268,-0.00560665
-1.267,-0.005575996
-1.266,-0.005539211
-1.265,-0.005499359
-1.264,-0.005471769
-1.263,-0.005438049
-1.262,-0.005401264
-1.261,-0.005370609
-1.26,-0.005336888
-1.259,-0.005303168
-1.258,-0.005275579
-1.257,-0.005244924
-1.256,-0.005214269
-1.255,-0.005183614
-1.254,-0.005159091
-1.253,-0.00512537
-1.252,-0.005097781
-1.251,-0.005073257
-1.25,-0.005042602
-1.249,-0.005015012
-1.248,-0.004993554
-1.247,-0.0049629
-1.246,-0.004938376
-1.245,-0.004913852
-1.244,-0.004883197
-1.243,-0.004861739
-1.242,-0.004837214
-1.241,-0.004809625
-1.24,-0.004791233
-1.239,-0.004763643
-1.238,-0.004739119
-1.237,-0.004720726
-1.236,-0.004696202
-1.235,-0.004671679
-1.234,-0.00465022
-1.233,-0.004628762
-1.232,-0.004604238
-1.231,-0.004582779
-1.23,-0.004564387
-1.229,-0.004539863
-1.228,-0.00452147
-1.227,-0.004500012
-1.226,-0.004475488
-1.225,-0.004457095
-1.224,-0.004438702
-1.223,-0.004417243
-1.222,-0.004395785
-1.221,-0.004377393
-1.22,-0.004355934
-1.219,-0.004334475
-1.218,-0.004322214
-1.217,-0.004300755
-1.216,-0.004276231
-1.215,-0.004267035
-1.214,-0.004242511
-1.213,-0.004224118
-1.212,-0.004211857
-1.211,-0.004187332
-1.21,-0.004168939
-1.209,-0.004156678
-1.208,-0.004132153
-1.207,-0.004119892
-1.206,-0.004101499
-1.205,-0.00408004
-1.204,-0.004064713
-1.203,-0.004052451
-1.202,-0.004027927
-1.201,-0.004015665
-1.2,-0.003997272
-1.199,-0.003975814
-1.198,-0.003966617
-1.197,-0.003948225
-1.196,-0.003926767
-1.195,-0.00391757
-1.194,-0.003899177
-1.193,-0.003880784
-1.192,-0.003871588
-1.191,-0.003853195
-1.19,-0.003837867
-1.189,-0.003825605
-1.188,-0.003807213
-1.187,-0.003791885
-1.186,-0.003779623
-1.185,-0.00376123
-1.184,-0.003745903
-1.183,-0.003736707
-1.182,-0.003715248
-1.181,-0.003702986
-1.18,-0.003690724
-1.179,-0.003675397
-1.178,-0.003657004
-1.177,-0.003650873
-1.176,-0.00363248
-1.175,-0.003614087
-1.174,-0.003604891
-1.173,-0.003586498
-1.172,-0.003574236
-1.171,-0.003565039
-1.17,-0.003546647
-1.169,-0.003534385
-1.168,-0.003522123
-1.167,-0.003506796
-1.166,-0.003497599
-1.165,-0.003482271
-1.164,-0.003463879
-1.163,-0.003454682
-1.162,-0.003445486
-1.161,-0.003427093
-1.16,-0.003417896
-1.159,-0.0034087
-1.158,-0.003387242
-1.157,-0.003378045
-1.156,-0.003368848
-1.155,-0.00334739
-1.154,-0.003341259
-1.153,-0.003332063
-1.152,-0.00331367
-1.151,-0.003304473
-1.15,-0.003292212
-1.149,-0.003276884
-1.148,-0.003267688
-1.147,-0.003255426
-1.146,-0.003240098
-1.145,-0.003224771
-1.144,-0.00321864
-1.143,-0.003203312
-1.142,-0.003194116
-1.141,-0.003181854
-1.14,-0.003166527
-1.139,-0.00315733
-1.138,-0.003145068
-1.137,-0.003129741
-1.136,-0.00312361
-1.135,-0.003111348
-1.134,-0.003096021
-1.133,-0.003086824
-1.132,-0.003074562
-1.131,-0.003059235
-1.13,-0.003050038
-1.129,-0.003040842
-1.128,-0.003022449
-1.127,-0.003013253
-1.126,-0.003004056
-1.125,-0.002988729
-1.124,-0.002982598
-1.123,-0.002970336
-1.122,-0.002955008
-1.121,-0.002945812
-1.12,-0.00293355
-1.119,-0.002921288
-1.118,-0.002909026
-1.117,-0.002896764
-1.116,-0.002884502
-1.115,-0.002875306
-1.114,-0.002859978
-1.113,-0.002850782
-1.112,-0.002841586
-1.111,-0.002826258
-1.11,-0.002813996
-1.109,-0.0028048
-1.108,-0.002792538
-1.107,-0.002783341
-1.106,-0.002774145
-1.105,-0.002752687
-1.104,-0.002746556
-1.103,-0.002734293
-1.102,-0.002718966
-1.101,-0.002712835
-1.1,-0.002697508
-1.099,-0.00268218
-1.098,-0.002676049
-1.097,-0.002663787
-1.096,-0.00264846
-1.095,-0.002639264
-1.094,-0.002627002
-1.093,-0.002611674
-1.092,-0.002599412
-1.091,-0.002590216
-1.09,-0.002574889
-1.089,-0.002562626
-1.088,-0.002550365
-1.087,-0.002535037
-1.086,-0.002522775
-1.085,-0.002510513
-1.084,-0.002495186
-1.083,-0.002482924
-1.082,-0.002470662
-1.081,-0.002455335
-1.08,-0.002443073
-1.079,-0.002430811
-1.078,-0.002412418
-1.077,-0.002400156
-1.076,-0.002384829
-1.075,-0.002369501
-1.074,-0.002357239
-1.073,-0.002341912
-1.072,-0.002326585
-1.071,-0.002311257
-1.07,-0.002298995
-1.069,-0.002280602
-1.068,-0.002265275
-1.067,-0.002253013
-1.066,-0.00223462
-1.065,-0.002216227
-1.064,-0.002207031
-1.063,-0.002188638
-1.062,-0.002167179
-1.061,-0.002157983
-1.06,-0.002136525
-1.059,-0.002121197
-1.058,-0.002108935
-1.057,-0.002087477
-1.056,-0.002072149
-1.055,-0.002059887
-1.054,-0.002038429
-1.053,-0.002023102
-1.052,-0.002007774
-1.051,-0.001986316
-1.05,-0.001974054
-1.049,-0.001955661
-1.048,-0.001937268
-1.047,-0.001925006
-1.046,-0.001906613
-1.045,-0.001891286
-1.044,-0.001875959
-1.043,-0.001857566
-1.042,-0.001842238
-1.041,-0.001826911
-1.04,-0.001808518
-1.039,-0.001796256
-1.038,-0.001780929
-1.037,-0.001762536
-1.036,-0.001747208
-1.035,-0.001734946
-1.034,-0.001713488
-1.033,-0.001704292
-1.032,-0.00169203
-1.031,-0.001673637
-1.03,-0.001658309
-1.029,-0.001649113
-1.028,-0.001627655
-1.027,-0.001618458
-1.026,-0.001606196
-1.025,-0.001622855
-1.024,-0.001610593
-1.023,-0.001598331
-1.022,-0.001581471
-1.021,-0.001573194
-1.02,-0.001558173
-1.019,-0.001545911
-1.018,-0.001534262
-1.017,-0.001521387
-1.016,-0.001509739
-1.015,-0.001497783
-1.014,-0.001485521
-1.013,-0.001474486
-1.012,-0.00146253
-1.011,-0.001451188
-1.01,-0.001439539
-1.009,-0.00142881
-1.008,-0.001419307
-1.007,-0.001406432
-1.006,-0.001396009
-1.005,-0.001387732
-1.004,-0.001373325
-1.003,-0.001362902
-1.002,-0.001357691
-1.001,-0.00134267
-1,-0.001334393
-0.9990003,-0.001328569
-0.9980002,-0.001311708
-0.9970002,-0.001306497
-0.9960002,-0.001297301
-0.9950002,-0.001284426
-0.9940003,-0.001277988
-0.9930002,-0.001268485
-0.9920002,-0.00125561
-0.9910002,-0.00124856
-0.9900002,-0.001240896
-0.9890002,-0.001231086
-0.9880002,-0.001221583
-0.9870002,-0.001213613
-0.9860002,-0.001201045
-0.9850003,-0.00119522
-0.9840002,-0.001185717
-0.9830002,-0.001176214
-0.9820002,-0.001167937
-0.9810002,-0.001159967
-0.9800002,-0.001148012
-0.9790002,-0.001141574
-0.9780002,-0.001133604
-0.9770002,-0.001122262
-0.9760002,-0.001117663
-0.9750002,-0.001106628
-0.9740002,-0.001097738
-0.9730002,-0.001089768
-0.9720002,-0.001078425
-0.9710003,-0.001070761
-0.9700002,-0.001064324
-0.9690002,-0.001052675
-0.9680002,-0.001046544
-0.9670002,-0.001038267
-0.9660002,-0.001026925
-0.9650002,-0.001019874
-0.9640002,-0.001011291
-0.9630002,-0.001001175
-0.9620003,-0.0009922851
-0.9610002,-0.000984928
-0.9600002,-0.0009738922
-0.9590002,-0.0009656154
-0.9580002,-0.0009588713
-0.9570003,-0.0009484487
-0.9560002,-0.0009377195
-0.9550002,-0.000931895
-0.9540002,-0.0009220855
-0.9530002,-0.0009116629
-0.9520002,-0.0009049188
-0.9510002,-0.0008926569
-0.9500002,-0.0008849932
-0.9490002,-0.0008776361
-0.9480003,-0.0008653741
-0.9470002,-0.0008589366
-0.9460002,-0.0008506598
-0.9450002,-0.0008387044
-0.9440002,-0.0008325735
-0.9430002,-0.0008230705
-0.9420002,-0.0008123412
-0.9410002,-0.0008062103
-0.9400002,-0.0007954811
-0.9390002,-0.0007868978
-0.9380002,-0.0007804602
-0.9370002,-0.000769731
-0.9360002,-0.0007620673
-0.9350002,-0.0007540971
-0.9340003,-0.0007452072
-0.9330002,-0.0007369304
-0.9320002,-0.0007289601
-0.9310002,-0.0007197637
-0.9300002,-0.0007127131
-0.9290002,-0.0007068887
-0.9280002,-0.0006970791
-0.9270002,-0.0006891088
-0.9260002,-0.0006845106
-0.9250003,-0.0006743945
-0.9240002,-0.0006688767
-0.9230002,-0.000664585
-0.9220002,-0.0006547754
-0.9210002,-0.0006483379
-0.9200003,-0.0006446594
-0.9190002,-0.0006354629
-0.9180002,-0.0006314777
-0.9170002,-0.0006271861
-0.9160002,-0.0006189093
-0.9150002,-0.0006146176
-0.9140002,-0.0006121653
-0.9130002,-0.0006035819
-0.9120002,-0.0006014361
-0.9110003,-0.0005986771
-0.9100002,-0.0005900938
-0.9090002,-0.0005888676
-0.9080002,-0.0005830431
-0.9070002,-0.0005778318
-0.9060002,-0.000575686
-0.9050002,-0.0005704747
-0.9040002,-0.000566183
-0.9030002,-0.0005634241
-0.9020002,-0.0005575996
-0.9010002,-0.0005536145
-0.9000002,-0.0005493228
-0.8990002,-0.0005447246
-0.8980002,-0.0005395133
-0.8970003,-0.0005367543
-0.8960002,-0.0005324627
-0.8950002,-0.000528171
-0.8940002,-0.0005241859
-0.8930002,-0.0005177484
-0.8920002,-0.0005134566
-0.8910002,-0.0005094716
-0.8900002,-0.000503034
-0.8890002,-0.0004987424
-0.8880002,-0.0004950638
-0.8870002,-0.0004886262
-0.8860002,-0.0004852542
-0.8850002,-0.0004800429
-0.8840002,-0.0004729923
-0.8830003,-0.0004696203
-0.8820002,-0.0004650221
-0.8810002,-0.0004567453
-0.8800002,-0.0004536798
-0.8790002,-0.000448775
-0.8780002,-0.0004420309
-0.8770002,-0.0004377393
-0.8760002,-0.0004319148
-0.8750002,-0.0004251708
-0.8740003,-0.0004221053
-0.8730002,-0.0004147482
-0.8720002,-0.0004083106
-0.8710002,-0.000404632
-0.8700002,-0.0003975815
-0.8690003,-0.0003911439
-0.8680002,-0.0003868522
-0.8670002,-0.0003798016
-0.8660002,-0.0003736707
-0.8650002,-0.0003684594
-0.8640002,-0.0003623284
-0.8630002,-0.0003555843
-0.8620002,-0.0003494534
-0.8610002,-0.0003451617
-0.8600003,-0.0003362718
-0.8590002,-0.0003310605
-0.8580002,-0.000325236
-0.8570002,-0.0003160396
-0.8560002,-0.0003114414
-0.8550002,-0.0003046973
-0.8540002,-0.0002964205
-0.8530002,-0.0002915157
-0.8520002,-0.0002844651
-0.8510002,-0.0002758818
-0.8500002,-0.0002703639
-0.8490002,-0.0002611674
-0.8480002,-0.0002559561
-0.8470002,-0.0002489055
-0.8460003,-0.0002400156
-0.8450002,-0.0002332716
-0.8440002,-0.0002262209
-0.8430002,-0.0002170245
-0.8420002,-0.0002102804
-0.8410002,-0.0002023102
-0.8400002,-0.0001928072
-0.8390002,-0.00018545
-0.8380002,-0.0001771732
-0.8370003,-0.0001682833
-0.8360002,-0.0001597
-0.8350002,-0.0001511166
-0.8340002,-0.0001431464
-0.8330002,-0.0001355238
-0.8320003,-0.0001276762
-0.8310002,-0.0001184491
-0.8300002,-0.0001083023
-0.8290002,-9.996421E-05
-0.8280002,-8.902045E-05
-0.8270002,-7.930287E-05
-0.8260002,-7.124065E-05
-0.8250002,-5.989836E-05
-0.8240002,-4.993554E-05
-0.8230003,-3.966617E-05
-0.8220002,-2.918223E-05
-0.8210002,-1.91581E-05
-0.8200002,-8.643493E-06
-0.8190002,4.78332E-06
-0.8180002,1.499138E-05
-0.8170002,2.498485E-05
-0.8160002,3.700154E-05
-0.8150002,4.763876E-05
-0.8140002,5.796944E-05
-0.8130002,7.07525E-05
-0.8120002,8.181889E-05
-0.8110002,9.300791E-05
-0.8100002,0.0001060055
-0.8090003,0.00011698
-0.8080002,0.0001274333
-0.8070002,0.0001413506
-0.8060002,0.0001527542
-0.8050002,0.0001637592
-0.8040002,0.000178259
-0.8030002,0.0001897545
-0.8020002,0.0002012501
-0.8010002,0.0002155353
-0.8000003,0.0001770021
-0.8009998,0.000119555
-0.8019998,7.666889E-05
-0.8029998,3.574469E-05
-0.8039998,-1.102406E-06
-0.8049998,-3.393372E-05
-0.8059998,-6.707159E-05
-0.8069998,-9.699071E-05
-0.8079998,-0.0001245187
-0.8089998,-0.0001530584
-0.8099998,-0.0001784712
-0.8109998,-0.0002032403
-0.8119998,-0.0002278562
-0.8129998,-0.0002499889
-0.8139998,-0.0002730414
-0.8149998,-0.0002946837
-0.8159998,-0.0003111348
-0.8169998,-0.0003310605
-0.8179998,-0.0003515992
-0.8189998,-0.0003706052
-0.8199998,-0.0003893046
-0.8209998,-0.0004070844
-0.8219998,-0.0004239446
-0.8229998,-0.0004408048
-0.8239998,-0.0004570518
-0.8249998,-0.0004732989
-0.8259998,-0.0004883197
-0.8269998,-0.0005039537
-0.8279998,-0.0005195877
-0.8289998,-0.0005333824
-0.8299998,-0.0005480966
-0.8309998,-0.000562811
-0.8319998,-0.0005750729
-0.8329998,-0.0005894807
-0.8339998,-0.0006029688
-0.8349998,-0.0006152307
-0.8359998,-0.0006277992
-0.8369998,-0.0006406742
-0.8379998,-0.0006529361
-0.8389998,-0.0006648915
-0.8399998,-0.0006771535
-0.8409998,-0.0006881892
-0.8419998,-0.0006989184
-0.8429998,-0.0007124065
-0.8439998,-0.0007219095
-0.8449998,-0.0007344779
-0.8459998,-0.0007461268
-0.8469998,-0.0007550167
-0.8479998,-0.000766359
-0.8489998,-0.0007773947
-0.8499998,-0.0007862847
-0.8509998,-0.0007979335
-0.8519998,-0.0008083562
-0.8529998,-0.0008166329
-0.8539998,-0.0008273621
-0.8549998,-0.0008383978
-0.8559998,-0.0008454485
-0.8569998,-0.0008570973
-0.8579998,-0.0008666003
-0.8589998,-0.0008748771
-0.8599998,-0.0008862194
-0.8609998,-0.0008957224
-0.8619998,-0.0009030796
-0.8629998,-0.0009144219
-0.8639998,-0.0009226986
-0.8649998,-0.0009315885
-0.8659998,-0.0009413981
-0.8669998,-0.0009499814
-0.8679998,-0.0009579517
-0.8689998,-0.0009680677
-0.8699998,-0.0009763446
-0.8709998,-0.0009852345
-0.8719998,-0.0009947375
-0.8729998,-0.001002708
-0.8739998,-0.001011598
-0.8749998,-0.001019874
-0.8759998,-0.001028151
-0.8769998,-0.001037041
-0.8779998,-0.001046851
-0.8789998,-0.001054821
-0.8799998,-0.001062485
-0.8809998,-0.001071988
-0.8819998,-0.001080264
-0.8829998,-0.001087928
-0.8839998,-0.001097125
-0.8849998,-0.001106321
-0.8859998,-0.001112759
-0.8869998,-0.001123488
-0.8879998,-0.001130538
-0.8889998,-0.001139428
-0.8899998,-0.001148012
-0.8909998,-0.001155675
-0.8919998,-0.001164259
-0.8929998,-0.001174068
-0.8939998,-0.001181425
-0.8949998,-0.001190315
-0.8959998,-0.001198286
-0.8969998,-0.001206562
-0.8979998,-0.001215146
-0.8989998,-0.001224342
-0.8999998,-0.001233232
-0.9009998,-0.001239363
-0.9019998,-0.001251012
-0.9029998,-0.001257756
-0.9039998,-0.001266033
-0.9049998,-0.001276149
-0.9059998,-0.001282893
-0.9069998,-0.00129117
-0.9079998,-0.001301899
-0.9089998,-0.001308336
-0.9099998,-0.001318453
-0.9109998,-0.001327036
-0.9119998,-0.001333167
-0.9129998,-0.001342976
-0.9139998,-0.001353706
-0.9149998,-0.001360756
-0.9159998,-0.001370566
-0.9169998,-0.001379149
-0.9179998,-0.001387119
-0.9189998,-0.001396316
-0.9199998,-0.001405206
-0.9209998,-0.001414096
-0.9219998,-0.001422985
-0.9229998,-0.001431875
-0.9239998,-0.001441072
-0.9249998,-0.001450268
-0.9259998,-0.001460384
-0.9269998,-0.001468048
-0.9279998,-0.001478164
-0.9289998,-0.001486134
-0.9299998,-0.001495024
-0.9309998,-0.001503914
-0.9319998,-0.001516176
-0.9329998,-0.001523227
-0.9339998,-0.001533343
-0.9349998,-0.001541926
-0.9359998,-0.001549283
-0.9369998,-0.001561852
-0.9379998,-0.001569209
-0.9389998,-0.001578099
-0.9399998,-0.001590054
-0.9409998,-0.001598025
-0.9419998,-0.001607221
-0.9429998,-0.00161887
-0.9439998,-0.001626227
-0.9449998,-0.001635117
-0.9459998,-0.00164554
-0.9469998,-0.001654429
-0.9479998,-0.001663626
-0.9489998,-0.001673129
-0.9499998,-0.001684778
-0.9509998,-0.001692135
-0.9519998,-0.001701331
-0.9529998,-0.001712061
-0.9539998,-0.001719111
-0.9549998,-0.001731066
-0.9559998,-0.00173965
-0.9569998,-0.001749766
-0.9579998,-0.001761108
-0.9589998,-0.001768159
-0.9599998,-0.001778888
-0.9609998,-0.001789004
-0.9619998,-0.001796055
-0.9629998,-0.001807704
-0.9639998,-0.001819659
-0.9649998,-0.001825177
-0.9659998,-0.001834986
-0.9669998,-0.001846635
-0.9679998,-0.001853073
-0.9689998,-0.001864108
-0.9699998,-0.00187637
-0.9709998,-0.001881582
-0.9719998,-0.001894763
-0.9729998,-0.001904266
-0.9739998,-0.00191101
-0.9749998,-0.001922659
-0.9759998,-0.001932469
-0.9769998,-0.001939519
-0.9779998,-0.001951168
-0.9789998,-0.001960978
-0.9799998,-0.001969561
-0.9809998,-0.001980903
-0.9819998,-0.0019901
-0.9829998,-0.001995618
-0.9839998,-0.002008799
-0.9849998,-0.002016769
-0.9859998,-0.002026272
-0.9869998,-0.002037002
-0.9879998,-0.002044972
-0.9889998,-0.002052942
-0.9899998,-0.002064591
-0.9909998,-0.002072254
-0.9919998,-0.002079918
-0.9929998,-0.002090648
-0.9939998,-0.002099844
-0.9949998,-0.002109347
-0.9959998,-0.00211977
-0.9969998,-0.002124674
-0.9979998,-0.002134484
-0.9989998,-0.00214368
-0.9999998,-0.002150424
-1.001,-0.00216146
-1.002,-0.002170044
-1.003,-0.002175255
-1.004,-0.002187517
-1.005,-0.002195793
-1.006,-0.002201618
-1.007,-0.002210508
-1.008,-0.002219704
-1.009,-0.002226448
-1.01,-0.002235032
-1.011,-0.002244535
-1.012,-0.002250666
-1.013,-0.002258636
-1.014,-0.002267219
-1.015,-0.00227335
-1.016,-0.002280707
-1.017,-0.002290823
-1.018,-0.002296341
-1.019,-0.002303086
-1.02,-0.002312895
-1.021,-0.002319026
-1.022,-0.002326077
-1.023,-0.002334047
-1.024,-0.002342017
-1.025,-0.002347842
-1.026,-0.002355812
-1.027,-0.002361943
-1.028,-0.002368687
-1.029,-0.002376657
-1.03,-0.002382788
-1.031,-0.002390452
-1.032,-0.002396889
-1.033,-0.00240486
-1.034,-0.002411603
-1.035,-0.002418041
-1.036,-0.002424785
-1.037,-0.002429996
-1.038,-0.002440112
-1.039,-0.002445937
-1.04,-0.002450842
-1.041,-0.00246249
-1.042,-0.002466476
-1.043,-0.002473833
-1.044,-0.002483949
-1.045,-0.002487934
-1.046,-0.002497131
-1.047,-0.002506633
-1.048,-0.002509392
-1.049,-0.002521655
-1.05,-0.002530238
-1.051,-0.002534836
-1.052,-0.002548018
-1.053,-0.002557827
-1.054,-0.002560586
-1.055,-0.002574994
-1.056,-0.00258419
-1.057,-0.002589095
-1.058,-0.002604422
-1.059,-0.002614232
-1.06,-0.002621589
-1.061,-0.002636916
-1.062,-0.002650098
-1.063,-0.002658375
-1.064,-0.00267033
-1.065,-0.002684738
-1.066,-0.002695467
-1.067,-0.002708036
-1.068,-0.002726122
-1.069,-0.002737771
-1.07,-0.002753098
-1.071,-0.002766586
-1.072,-0.00278314
-1.073,-0.00280092
-1.074,-0.002816247
-1.075,-0.002832801
-1.076,-0.002855179
-1.077,-0.002869587
-1.078,-0.002888593
-1.079,-0.002908825
-1.08,-0.002926605
-1.081,-0.002948063
-1.082,-0.002970748
-1.083,-0.002993739
-1.084,-0.002976467
-1.085,-0.003000991
-1.086,-0.003025514
-1.087,-0.003043907
-1.088,-0.003065366
-1.089,-0.003092955
-1.09,-0.003114413
-1.091,-0.003138937
-1.092,-0.003163461
-1.093,-0.003184919
-1.094,-0.003209443
-1.095,-0.003233967
-1.096,-0.00325236
-1.097,-0.003276884
-1.098,-0.003298342
-1.099,-0.003316735
-1.1,-0.003344325
-1.101,-0.003356587
-1.102,-0.003378045
-1.103,-0.003396438
-1.104,-0.0034087
-1.105,-0.003427093
-1.106,-0.003439354
-1.107,-0.003448551
-1.108,-0.003457748
-1.109,-0.003470009
-1.11,-0.00347614
-1.111,-0.003482271
-1.112,-0.003488402
-1.113,-0.003491468
-1.114,-0.003491468
-1.115,-0.003497599
-1.116,-0.003494533
-1.117,-0.003497599
-1.118,-0.003497599
-1.119,-0.003494533
-1.12,-0.003494533
-1.121,-0.003494533
-1.122,-0.003485337
-1.123,-0.003488402
-1.124,-0.003485337
-1.125,-0.003479206
-1.126,-0.003479206
-1.127,-0.003479206
-1.128,-0.003473075
-1.129,-0.00347614
-1.13,-0.003473075
-1.131,-0.003466944
-1.132,-0.003473075
-1.133,-0.003470009
-1.134,-0.003473075
-1.135,-0.00347614
-1.136,-0.00347614
-1.137,-0.003473075
-1.138,-0.003482271
-1.139,-0.003479206
-1.14,-0.003482271
-1.141,-0.003488402
-1.142,-0.003488402
-1.143,-0.003494533
-1.144,-0.003500664
-1.145,-0.00350373
-1.146,-0.003509861
-1.147,-0.003515992
-1.148,-0.003515992
-1.149,-0.003522123
-1.15,-0.003528254
-1.151,-0.003531319
-1.152,-0.00353745
-1.153,-0.003549712
-1.154,-0.003549712
-1.155,-0.003555843
-1.156,-0.003568105
-1.157,-0.00357117
-1.158,-0.003577302
-1.159,-0.003589563
-1.16,-0.003586498
-1.161,-0.003601825
-1.162,-0.003607956
-1.163,-0.003607956
-1.164,-0.003620218
-1.165,-0.00363248
-1.166,-0.00363248
-1.167,-0.003647808
-1.168,-0.003650873
-1.169,-0.003657004
-1.17,-0.003669266
-1.171,-0.003678462
-1.172,-0.003684593
-1.173,-0.00369379
-1.174,-0.003699921
-1.175,-0.003702986
-1.176,-0.003721379
-1.177,-0.003724444
-1.178,-0.003730575
-1.179,-0.003742838
-1.18,-0.003752034
-1.181,-0.003758165
-1.182,-0.003770427
-1.183,-0.003776558
-1.184,-0.003782689
-1.185,-0.003794951
-1.186,-0.003801082
-1.187,-0.003810278
-1.188,-0.00382254
-1.189,-0.003825605
-1.19,-0.003834802
-1.191,-0.003847064
-1.192,-0.003850129
-1.193,-0.003859326
-1.194,-0.003871588
-1.195,-0.003880784
-1.196,-0.00388998
-1.197,-0.003896111
-1.198,-0.003905308
-1.199,-0.003914505
-1.2,-0.003923701
-1.201,-0.003932897
-1.202,-0.003945159
-1.203,-0.00395129
-1.204,-0.003960487
-1.205,-0.003969683
-1.206,-0.003981945
-1.207,-0.003991141
-1.208,-0.004000338
-1.209,-0.0040126
-1.21,-0.004021796
-1.211,-0.004030993
-1.212,-0.00404632
-1.213,-0.004055517
-1.214,-0.004067779
-1.215,-0.00408004
-1.216,-0.004089237
-1.217,-0.004104564
-1.218,-0.004116826
-1.219,-0.004122957
-1.22,-0.004138284
-1.221,-0.004150547
-1.222,-0.004159743
-1.223,-0.00417507
-1.224,-0.004193463
-1.225,-0.00420266
-1.226,-0.004221053
-1.227,-0.004233315
-1.228,-0.004242511
-1.229,-0.00426397
-1.23,-0.004279297
-1.231,-0.004291559
-1.232,-0.004309952
-1.233,-0.004325279
-1.234,-0.004340607
-1.235,-0.004362065
-1.236,-0.004377393
-1.237,-0.00439272
-1.238,-0.004417243
-1.239,-0.004432571
-1.24,-0.004450964
-1.241,-0.004472422
-1.242,-0.004493881
-1.243,-0.004515339
-1.244,-0.004542928
-1.245,-0.004561321
-1.246,-0.004585845
-1.247,-0.004613434
-1.248,-0.004634893
-1.249,-0.004659417
-1.25,-0.004693137
-1.251,-0.004717661
-1.252,-0.00474525
-1.253,-0.00477897
-1.254,-0.004812691
-1.255,-0.004843346
-1.256,-0.004874
-1.257,-0.004910786
-1.258,-0.004947572
-1.259,-0.004984358
-1.26,-0.005024209
-1.261,-0.005060995
-1.262,-0.005103912
-1.263,-0.005146828
-1.264,-0.005192811
-1.265,-0.005235727
-1.266,-0.00528171
-1.267,-0.005336888
-1.268,-0.005385936
-1.269,-0.005438049
-1.27,-0.005499359
-1.271,-0.005551472
-1.272,-0.005612782
-1.273,-0.005680223
-1.274,-0.005741532
-1.275,-0.005808973
-1.276,-0.005882544
-1.277,-0.005949985
-1.278,-0.006029687
-1.279,-0.00610939
-1.28,-0.006189092
-1.281,-0.006274926
-1.282,-0.006363825
-1.283,-0.006449659
-1.284,-0.006553885
-1.285,-0.00665198
-1.286,-0.006750076
-1.287,-0.006860433
-1.288,-0.006970791
-1.289,-0.007081148
-1.29,-0.007206833
-1.291,-0.007332517
-1.292,-0.007455137
-1.293,-0.007593083
-1.294,-0.007734096
-1.295,-0.007872042
-1.296,-0.008025317
-1.297,-0.008181657
-1.298,-0.00833493
-1.299,-0.008500466
-1.3,-0.008675199
-1.301,-0.008849931
-1.302,-0.00902773
-1.303,-0.009220854
-1.304,-0.009410915
-1.305,-0.009613236
-1.306,-0.009824755
-1.307,-0.01003014
-1.308,-0.01025086
-1.309,-0.0104777
-1.31,-0.01070455
-1.311,-0.01093753
-1.312,-0.01118276
-1.313,-0.01142494
-1.314,-0.01167631
-1.315,-0.01193687
-1.316,-0.01219131
-1.317,-0.012458
-1.318,-0.01273696
-1.319,-0.0130006
-1.32,-0.01328875
-1.321,-0.01357691
-1.322,-0.0138528
-1.323,-0.01415322
-1.324,-0.0144567
-1.325,-0.01475405
-1.326,-0.01507286
-1.327,-0.01538248
-1.328,-0.01568902
-1.329,-0.01601703
-1.33,-0.01633584
-1.331,-0.01666078
-1.332,-0.01699185
-1.333,-0.01731373
-1.334,-0.01764787
-1.335,-0.01798507
-1.336,-0.01831921
-1.337,-0.01866561
-1.338,-0.01901814
-1.339,-0.0193676
-1.34,-0.01970787
-1.341,-0.02005427
-1.342,-0.020416
-1.343,-0.0207624
-1.344,-0.02112719
-1.345,-0.02149198
-1.346,-0.02184758
-1.347,-0.02221237
-1.348,-0.02257103
-1.349,-0.02293276
-1.35,-0.02329755
-1.351,-0.02365928
-1.352,-0.02402407
-1.353,-0.02438273
-1.354,-0.02473526
-1.355,-0.02510618
-1.356,-0.02548017
-1.357,-0.0258419
-1.358,-0.02621282
-1.359,-0.02658068
-1.36,-0.02694241
-1.361,-0.02731946
-1.362,-0.02769652
-1.363,-0.02805518
-1.364,-0.02842304
-1.365,-0.02879089
-1.366,-0.02915875
-1.367,-0.02953581
-1.368,-0.0299006
-1.369,-0.03026846
-1.37,-0.03077628
-1.371,-0.03114414
-1.372,-0.03148134
-1.373,-0.03187985
-1.374,-0.03227837
-1.375,-0.03264622
-1.376,-0.03301408
-1.377,-0.03341259
-1.378,-0.03378045
-1.379,-0.03417896
-1.38,-0.03454682
-1.381,-0.03488402
-1.382,-0.03528254
-1.383,-0.03568105
-1.384,-0.03604891
-1.385,-0.03644742
-1.386,-0.03681528
-1.387,-0.03718314
-1.388,-0.03758165
-1.389,-0.03794951
-1.39,-0.03831736
-1.391,-0.03871588
-1.392,-0.03908373
-1.393,-0.03948225
-1.394,-0.03988076
-1.395,-0.04024862
-1.396,-0.04061648
-1.397,-0.04101499
-1.398,-0.04138285
-1.399,-0.04178136
-1.4,-0.04214922
-1.401,-0.04254773
-1.402,-0.04294625
-1.403,-0.0433141
-1.404,-0.04371261
-1.405,-0.04408047
-1.406,-0.04444833
-1.407,-0.04484684
-1.408,-0.0452147
-1.409,-0.04561321
-1.41,-0.04598107
-1.411,-0.04634893
-1.412,-0.04674744
-1.413,-0.04714596
-1.414,-0.04754447
-1.415,-0.04791233
-1.416,-0.04831084
-1.417,-0.04870935
-1.418,-0.04907721
-1.419,-0.04947572
-1.42,-0.04987423
-1.421,-0.05021144
-1.422,-0.05060995
-1.423,-0.05100846
-1.424,-0.05137632
-1.425,-0.05180549
-1.426,-0.05217335
-1.427,-0.05257186
-1.428,-0.05293972
-1.429,-0.05333823
-1.43,-0.05373674
-1.431,-0.05413526
-1.432,-0.05450311
-1.433,-0.05490163
-1.434,-0.05526949
-1.435,-0.055668
-1.436,-0.05606651
-1.437,-0.05643437
-1.438,-0.05683288
-1.439,-0.05720074
-1.44,-0.05759925
-1.441,-0.05799776
-1.442,-0.05836562
-1.443,-0.05876414
-1.444,-0.05913199
-1.445,-0.0595305
-1.446,-0.05992902
-1.447,-0.06029687
-1.448,-0.06069539
-1.449,-0.06106325
-1.45,-0.06146176
-1.451,-0.06186027
-1.452,-0.06225879
-1.453,-0.06262664
-1.454,-0.06302515
-1.455,-0.06345432
-1.456,-0.06379153
-1.457,-0.06419004
-1.458,-0.06458855
-1.459,-0.06495641
-1.46,-0.06538557
-1.461,-0.06575344
-1.462,-0.0661213
-1.463,-0.06655046
-1.464,-0.06694897
-1.465,-0.06731683
-1.466,-0.06768469
-1.467,-0.0680832
-1.468,-0.06848171
-1.469,-0.06888022
-1.47,-0.06924809
-1.471,-0.0696466
-1.472,-0.07007577
-1.473,-0.07044362
-1.474,-0.07084214
-1.475,-0.0712713
-1.476,-0.07163917
-1.477,-0.07203767
-1.478,-0.07240553
-1.479,-0.0728347
-1.48,-0.07323321
-1.481,-0.07363173
-1.482,-0.07403024
-1.483,-0.07442875
-1.484,-0.07479661
-1.485,-0.07519513
-1.486,-0.07556298
-1.487,-0.07599215
-1.488,-0.07639066
-1.489,-0.07678917
-1.49,-0.07718769
-1.491,-0.0775862
-1.492,-0.07798471
-1.493,-0.07841388
-1.494,-0.07878174
-1.495,-0.07918025
-1.496,-0.07964008
-1.497,-0.08003858
-1.498,-0.08043709
-1.499,-0.08083561
-1.5,-0.08095823
-1.499,-0.08052906
-1.498,-0.08006924
-1.497,-0.07957876
-1.496,-0.0791496
-1.495,-0.07868978
-1.494,-0.07819929
-1.493,-0.07780078
-1.492,-0.07734096
-1.491,-0.07685048
-1.49,-0.07642131
-1.489,-0.07596149
-1.488,-0.07553232
-1.487,-0.07510316
-1.486,-0.07470464
-1.485,-0.07424482
-1.484,-0.073785
-1.483,-0.07332518
-1.482,-0.07292666
-1.481,-0.07249749
-1.48,-0.07203767
-1.479,-0.07157785
-1.478,-0.07114869
-1.477,-0.07071952
-1.476,-0.07029035
-1.475001,-0.06986118
-1.474,-0.06940136
-1.473,-0.06897219
-1.472,-0.06854302
-1.471,-0.06811386
-1.47,-0.06771534
-1.469,-0.06728618
-1.468,-0.0667957
-1.467,-0.06639718
-1.466,-0.06593736
-1.465,-0.06553885
-1.464,-0.06510969
-1.463,-0.06468052
-1.462,-0.06425135
-1.461,-0.06379153
-1.46,-0.06339302
-1.459,-0.06296384
-1.458,-0.06253468
-1.457,-0.06210551
-1.456,-0.06167634
-1.455,-0.06124718
-1.454,-0.06084866
-1.453,-0.0604195
-1.452,-0.05999033
-1.451,-0.05959181
-1.45,-0.05916265
-1.449,-0.05873348
-1.448,-0.05830431
-1.447,-0.05787515
-1.446,-0.05747664
-1.445,-0.05704746
-1.444,-0.0566183
-1.443,-0.05621978
-1.442,-0.05582127
-1.441,-0.05536145
-1.44,-0.05496293
-1.439,-0.05456442
-1.438,-0.05413526
-1.437,-0.05373674
-1.436,-0.05330757
-1.435,-0.05287841
-1.434,-0.05247989
-1.433,-0.05205073
-1.432,-0.05162156
-1.431,-0.05122305
-1.43,-0.05085519
-1.429,-0.05042602
-1.428,-0.05002751
-1.427,-0.049629
-1.426,-0.04919983
-1.425,-0.04880131
-1.424,-0.04837215
-1.423,-0.04794298
-1.422,-0.04757512
-1.421,-0.04714596
-1.42,-0.04674744
-1.419,-0.04634893
-1.418,-0.04595042
-1.417,-0.04555191
-1.416,-0.04515339
-1.415,-0.04475488
-1.414,-0.04435637
-1.413,-0.04398851
-1.412,-0.04358999
-1.411,-0.04319149
-1.41,-0.04279297
-1.409,-0.04239446
-1.408,-0.04199595
-1.407,-0.04162809
-1.406,-0.04122957
-1.405,-0.04086172
-1.404,-0.04046321
-1.403,-0.04006469
-1.402,-0.03966618
-1.401,-0.03926767
-1.4,-0.03889981
-1.399,-0.03850129
-1.398,-0.03813344
-1.397,-0.03773492
-1.396,-0.03736707
-1.395,-0.03699921
-1.394,-0.03660069
-1.393,-0.03620218
-1.392,-0.03583432
-1.391,-0.03543581
-1.39,-0.03509861
-1.389,-0.0347001
-1.388,-0.03433224
-1.387,-0.03396438
-1.386,-0.03356587
-1.385,-0.03319801
-1.384,-0.03283015
-1.383,-0.0324623
-1.382,-0.03212509
-1.381,-0.03175723
-1.38,-0.03138937
-1.379,-0.03102152
-1.378,-0.03068431
-1.377,-0.03031646
-1.376,-0.0299486
-1.375,-0.02961139
-1.374,-0.02924354
-1.373,-0.02887568
-1.372,-0.02853847
-1.371,-0.02820127
-1.37,-0.02783342
-1.369,-0.02749621
-1.368,-0.02712835
-1.367,-0.02679115
-1.366,-0.02645395
-1.365,-0.02611674
-1.364,-0.02577954
-1.363,-0.02544234
-1.362,-0.02510513
-1.361,-0.02476793
-1.36,-0.02440007
-1.359,-0.02406287
-1.358,-0.02375632
-1.357,-0.02341912
-1.356,-0.02311257
-1.355,-0.02280602
-1.354,-0.02246882
-1.353,-0.02216227
-1.352,-0.02185572
-1.351,-0.02151852
-1.350001,-0.02121197
-1.349,-0.02090542
-1.348,-0.02056822
-1.347,-0.02026167
-1.346,-0.01995512
-1.345,-0.01964858
-1.344,-0.01934203
-1.343,-0.01906613
-1.342,-0.01875959
-1.341,-0.01845304
-1.34,-0.01817714
-1.339,-0.0178706
-1.338,-0.0175947
-1.337,-0.01731881
-1.336,-0.01701226
-1.335,-0.01673637
-1.334,-0.01646047
-1.333,-0.01618458
-1.332,-0.01601396
-1.331,-0.01575033
-1.33,-0.01548057
-1.329,-0.01522614
-1.328,-0.01497783
-1.327,-0.01471727
-1.326,-0.01447203
-1.325,-0.01422066
-1.324,-0.01396622
-1.323,-0.01373325
-1.322,-0.01348801
-1.321,-0.0132489
-1.32,-0.01302205
-1.319,-0.01278908
-1.318,-0.01255303
-1.317,-0.01233539
-1.316,-0.0121208
-1.315,-0.01189396
-1.314,-0.01169163
-1.313,-0.01148012
-1.312,-0.01126553
-1.311,-0.01106628
-1.31,-0.01086702
-1.309,-0.0106647
-1.308,-0.01047464
-1.307,-0.01027845
-1.306,-0.01008839
-1.305,-0.009907522
-1.304,-0.009726659
-1.303,-0.009545796
-1.302,-0.009374129
-1.301,-0.009208593
-1.3,-0.009036926
-1.299,-0.008868324
-1.298,-0.00871505
-1.297,-0.008555645
-1.296,-0.008405436
-1.295,-0.008255227
-1.294,-0.008105019
-1.293,-0.007964007
-1.292,-0.007829125
-1.291,-0.007691179
-1.29,-0.007565494
-1.289,-0.007433678
-1.288,-0.007307994
-1.287,-0.007185374
-1.286,-0.007065821
-1.285,-0.006949332
-1.284,-0.006832844
-1.283,-0.006728617
-1.282,-0.006615194
-1.281,-0.006517099
-1.28,-0.006415938
-1.279,-0.006311711
-1.278,-0.006216682
-1.277,-0.006127783
-1.276,-0.006032753
-1.275,-0.005949985
-1.274,-0.005864152
-1.273,-0.005778318
-1.272,-0.005698615
-1.271,-0.005625044
-1.27,-0.005545341
-1.269,-0.005474835
-1.268,-0.005404329
-1.267,-0.005330757
-1.266,-0.005266382
-1.265,-0.005205072
-1.264,-0.005137632
-1.263,-0.005079388
-1.262,-0.005018078
-1.261,-0.004959834
-1.26,-0.00490159
-1.259,-0.004849477
-1.258,-0.004797364
-1.257,-0.00474525
-1.256,-0.004696202
-1.255,-0.004647155
-1.254,-0.004601172
-1.253,-0.004558256
-1.252,-0.004512274
-1.251,-0.004469357
-1.25,-0.004429505
-1.249,-0.004389654
-1.248,-0.004349803
-1.247,-0.004313017
-1.246,-0.004273166
-1.245,-0.00423638
-1.244,-0.00420266
-1.243,-0.004172005
-1.242,-0.004129088
-1.241,-0.004101499
-1.24,-0.004070844
-1.239,-0.004034058
-1.238,-0.004006469
-1.237,-0.003972749
-1.236,-0.003945159
-1.235,-0.003920636
-1.234,-0.003886915
-1.233,-0.003862391
-1.232,-0.003840933
-1.231,-0.003810278
-1.23,-0.00378882
-1.229,-0.003764296
-1.228,-0.003733641
-1.227,-0.003712183
-1.226,-0.00369379
-1.225001,-0.003663135
-1.224,-0.003644742
-1.223,-0.003626349
-1.222,-0.00359876
-1.221,-0.003580367
-1.22,-0.003565039
-1.219,-0.003534385
-1.218,-0.003522123
-1.217,-0.00350373
-1.216,-0.003482271
-1.215,-0.003466944
-1.214,-0.003445486
-1.213,-0.003424027
-1.212,-0.003411765
-1.211,-0.003393373
-1.21,-0.003374979
-1.209,-0.003356587
-1.208,-0.003338194
-1.207,-0.003325932
-1.206,-0.003304473
-1.205,-0.003295277
-1.204,-0.003273819
-1.203,-0.003261557
-1.202,-0.003249295
-1.201,-0.003224771
-1.2,-0.00321864
-1.199,-0.003203312
-1.198,-0.003184919
-1.197,-0.003175723
-1.196,-0.00315733
-1.195,-0.003138937
-1.194,-0.003132806
-1.193,-0.003117479
-1.192,-0.003102152
-1.191,-0.003089889
-1.19,-0.003077628
-1.189,-0.0030623
-1.188,-0.003050038
-1.187,-0.003040842
-1.186,-0.003025514
-1.185,-0.003013253
-1.184,-0.003000991
-1.183,-0.002985663
-1.182,-0.002976467
-1.181,-0.002964205
-1.18,-0.002951943
-1.179,-0.002936616
-1.178,-0.00293355
-1.177,-0.002915157
-1.176,-0.002909026
-1.175,-0.00289983
-1.174,-0.002878371
-1.173,-0.002875306
-1.172,-0.002863044
-1.171,-0.002847716
-1.17,-0.002841586
-1.169,-0.002826258
-1.168,-0.002817062
-1.167,-0.002810931
-1.166,-0.002792538
-1.165,-0.002783341
-1.164,-0.002774145
-1.163,-0.002764949
-1.162,-0.002752687
-1.161,-0.00274349
-1.16,-0.002734293
-1.159,-0.002718966
-1.158,-0.002715901
-1.157,-0.002703639
-1.156,-0.002688312
-1.155,-0.002685246
-1.154,-0.002669919
-1.153,-0.002660722
-1.152,-0.002654591
-1.151,-0.002639264
-1.15,-0.002633133
-1.149,-0.002623936
-1.148,-0.002605543
-1.147,-0.002602478
-1.146,-0.002593281
-1.145,-0.002577954
-1.144,-0.002574889
-1.143,-0.002562626
-1.142,-0.002550365
-1.141,-0.002547299
-1.14,-0.002531972
-1.139,-0.00251971
-1.138,-0.002516645
-1.137,-0.002504382
-1.136,-0.00249212
-1.135,-0.00248599
-1.134,-0.002473728
-1.133,-0.002461466
-1.132,-0.002455335
-1.131,-0.002446138
-1.13,-0.002433876
-1.129,-0.00242468
-1.128,-0.002415484
-1.127,-0.002403222
-1.126,-0.002397091
-1.125,-0.002387894
-1.124,-0.002372567
-1.123,-0.002366436
-1.122,-0.002357239
-1.121,-0.002341912
-1.12,-0.002338846
-1.119,-0.002323519
-1.118,-0.002311257
-1.117,-0.002311257
-1.116,-0.002289799
-1.115,-0.002283668
-1.114,-0.002277537
-1.113,-0.002262209
-1.112,-0.002253013
-1.111,-0.002246882
-1.11,-0.002228489
-1.109,-0.002222358
-1.108,-0.002216227
-1.107,-0.0022009
-1.106,-0.002191703
-1.105,-0.002179441
-1.104,-0.002164114
-1.103,-0.002161048
-1.102,-0.002151852
-1.101,-0.002133459
-1.100001,-0.002130394
-1.099,-0.002121197
-1.098,-0.002099739
-1.097,-0.002099739
-1.096,-0.002087477
-1.095,-0.002069084
-1.094,-0.002062953
-1.093,-0.002053756
-1.092,-0.002035364
-1.091,-0.002032298
-1.09,-0.002020036
-1.089,-0.002004709
-1.088,-0.001998578
-1.087,-0.001986316
-1.086,-0.001970988
-1.085,-0.001964858
-1.084,-0.001952596
-1.083,-0.001940334
-1.082,-0.001931137
-1.081,-0.001918875
-1.08,-0.001903548
-1.079,-0.001894351
-1.078,-0.001885155
-1.077,-0.001869828
-1.076,-0.0018545
-1.075,-0.001848369
-1.074,-0.001836107
-1.073,-0.001823845
-1.072,-0.001811583
-1.071,-0.001802387
-1.07,-0.00178706
-1.069,-0.001774798
-1.068,-0.001762536
-1.067,-0.001750274
-1.066,-0.001741077
-1.065,-0.00172575
-1.064,-0.001716554
-1.063,-0.001704292
-1.062,-0.001688964
-1.061,-0.001679768
-1.06,-0.00166444
-1.059,-0.001652178
-1.058,-0.001646047
-1.057,-0.001627655
-1.056,-0.001615393
-1.055,-0.001606196
-1.054,-0.001590869
-1.053,-0.001614578
-1.052,-0.00160201
-1.051,-0.001591894
-1.05,-0.001579325
-1.049,-0.00156645
-1.048,-0.001553575
-1.047,-0.001544992
-1.046,-0.001529664
-1.045,-0.001519548
-1.044,-0.001504834
-1.043,-0.001494411
-1.042,-0.001482149
-1.041,-0.001470194
-1.04,-0.001457625
-1.039,-0.001443524
-1.038,-0.001436474
-1.037,-0.001422372
-1.036,-0.001406738
-1.035,-0.001400914
-1.034,-0.001386506
-1.033,-0.001374244
-1.032,-0.0013675
-1.031,-0.001352479
-1.03,-0.001338378
-1.029,-0.001332247
-1.028,-0.001315387
-1.027,-0.001304351
-1.026,-0.00130006
-1.025,-0.0012832
-1.024,-0.001268792
-1.023,-0.001265113
-1.022,-0.001247946
-1.021,-0.001239976
-1.02,-0.001231699
-1.019,-0.001218824
-1.018,-0.001205336
-1.017,-0.001197366
-1.016,-0.001186943
-1.015,-0.001174068
-1.014,-0.001167631
-1.013,-0.001155062
-1.012,-0.001141881
-1.011,-0.001134217
-1.01,-0.001123794
-1.009,-0.001112145
-1.008,-0.001105708
-1.007,-0.001093446
-1.006,-0.00108241
-1.005,-0.001073214
-1.004,-0.001061258
-1.003,-0.001053595
-1.002,-0.001046544
-1.001,-0.001032443
-1,-0.00102386
-0.9990004,-0.001018648
-0.9980004,-0.001003627
-0.9970005,-0.0009971899
-0.9960005,-0.0009886065
-0.9950004,-0.000976038
-0.9940004,-0.0009699071
-0.9930004,-0.0009604041
-0.9920005,-0.0009472225
-0.9910004,-0.0009423177
-0.9900004,-0.0009331212
-0.9890004,-0.0009208593
-0.9880005,-0.0009141153
-0.9870005,-0.0009055319
-0.9860004,-0.0008938831
-0.9850004,-0.0008846867
-0.9840004,-0.0008794753
-0.9830005,-0.0008656807
-0.9820005,-0.0008583235
-0.9810004,-0.0008543384
-0.9800004,-0.0008377847
-0.9790004,-0.0008347193
-0.9780005,-0.000826749
-0.9770004,-0.0008126478
-0.9760004,-0.0008083562
-0.9750004,-0.0007994662
-0.9740005,-0.0007859781
-0.9730005,-0.0007801537
-0.9720004,-0.0007718769
-0.9710004,-0.0007596149
-0.9700004,-0.0007544036
-0.9690005,-0.0007464333
-0.9680004,-0.000735091
-0.9670004,-0.000728347
-0.9660004,-0.0007206833
-0.9650005,-0.0007096475
-0.9640005,-0.0007007577
-0.9630004,-0.0006927875
-0.9620004,-0.0006829779
-0.9610004,-0.0006759273
-0.9600005,-0.0006682636
-0.9590005,-0.0006547754
-0.9580004,-0.0006492576
-0.9570004,-0.0006412873
-0.9560004,-0.0006293319
-0.9550005,-0.0006228944
-0.9540004,-0.000613698
-0.9530004,-0.0006023557
-0.9520004,-0.0005968378
-0.9510005,-0.000587948
-0.9500005,-0.0005775253
-0.9490004,-0.0005717009
-0.9480004,-0.0005615847
-0.9470004,-0.000550549
-0.9460005,-0.0005465639
-0.9450005,-0.0005355282
-0.9440004,-0.0005266382
-0.9430004,-0.0005208139
-0.9420004,-0.0005103912
-0.9410005,-0.0005011947
-0.9400004,-0.0004941442
-0.9390004,-0.0004864805
-0.9380004,-0.000477284
-0.9370005,-0.0004693137
-0.9360005,-0.0004641024
-0.9350004,-0.0004530667
-0.9340004,-0.0004463226
-0.9330004,-0.0004423375
-0.9320005,-0.0004285428
-0.9310004,-0.0004267035
-0.9300004,-0.0004193464
-0.9290004,-0.0004101499
-0.9280005,-0.0004061648
-0.9270005,-0.0003981945
-0.9260004,-0.0003908373
-0.9250004,-0.0003868522
-0.9240004,-0.0003782689
-0.9230005,-0.0003745903
-0.9220005,-0.0003684594
-0.9210004,-0.0003607956
-0.9200004,-0.0003580367
-0.9190004,-0.0003534385
-0.9180005,-0.000347001
-0.9170004,-0.0003445486
-0.9160004,-0.0003393373
-0.9150004,-0.0003338194
-0.9140005,-0.0003332063
-0.9130005,-0.0003286081
-0.9120004,-0.0003233968
-0.9110004,-0.0003206378
-0.9100004,-0.000318492
-0.9090005,-0.0003142003
-0.9080005,-0.0003105217
-0.9070004,-0.0003092955
-0.9060004,-0.0003053104
-0.9050004,-0.0003019384
-0.9040005,-0.0003007122
-0.9030004,-0.0002964205
-0.9020004,-0.0002927419
-0.9010004,-0.0002918223
-0.9000005,-0.0002872241
-0.8990005,-0.0002847717
-0.8980004,-0.0002841586
-0.8970004,-0.0002783342
-0.8960004,-0.0002768014
-0.8950005,-0.0002749621
-0.8940005,-0.0002706705
-0.8930004,-0.0002672984
-0.8920004,-0.0002648461
-0.8910004,-0.0002611674
-0.8900005,-0.0002571823
-0.8890004,-0.0002559561
-0.8880004,-0.0002507448
-0.8870004,-0.0002476793
-0.8860005,-0.000245227
-0.8850005,-0.0002400156
-0.8840004,-0.0002354174
-0.8830004,-0.000232965
-0.8820004,-0.0002286733
-0.8810005,-0.0002243817
-0.8800004,-0.0002219293
-0.8790004,-0.0002164114
-0.8780004,-0.0002127328
-0.8770005,-0.0002099739
-0.8760005,-0.0002020036
-0.8750004,-0.0001986316
-0.8740004,-0.0001952596
-0.8730004,-0.0001875959
-0.8720005,-0.0001848369
-0.8710005,-0.0001805453
-0.8700004,-0.0001728816
-0.8690004,-0.0001704292
-0.8680004,-0.0001646047
-0.8670005,-0.0001578607
-0.8660004,-0.0001541821
-0.8650004,-0.0001483577
-0.8640004,-0.0001422267
-0.8630005,-0.0001393863
-0.8620005,-0.0001343896
-0.8610004,-0.0001272777
-0.8600004,-0.0001215452
-0.8590004,-0.0001157208
-0.8580005,-0.0001074133
-0.8570005,-0.0001016809
-0.8560004,-9.67148E-05
-0.8550004,-8.803949E-05
-0.8540004,-8.190853E-05
-0.8530005,-7.590018E-05
-0.8520004,-6.719421E-05
-0.8510004,-6.057277E-05
-0.8500004,-5.367543E-05
-0.8490005,-4.625697E-05
-0.8480005,-3.770427E-05
-0.8470004,-3.163461E-05
-0.8460004,-2.249947E-05
-0.8450004,-1.385481E-05
-0.8440005,-7.018787E-06
-0.8430004,2.484208E-06
-0.8420004,1.020922E-05
-0.8410004,1.919109E-05
-0.8400005,2.878605E-05
-0.8390005,3.730809E-05
-0.8380004,4.638192E-05
-0.8370004,5.597688E-05
-0.8360004,6.422302E-05
-0.8350005,7.424715E-05
-0.8340005,8.451652E-05
-0.8330004,9.365166E-05
-0.8320004,0.0001033692
-0.8310004,0.0001146809
-0.8300005,0.0001230803
-0.8290004,0.0001329511
-0.8280004,0.0001460408
-0.8270004,0.0001544095
-0.8260005,0.0001650161
-0.8250005,0.0001770328
-0.8240004,0.0001865664
-0.8230004,0.0001976635
-0.8220004,0.0002096495
-0.8210005,0.0002197656
-0.8200005,0.0002311999
-0.8190004,0.0002456996
-0.8180004,0.0002551106
-0.8170004,0.0002674952
-0.8160005,0.000279144
-0.8150004,0.0002933784
-0.8140004,0.0003056403
-0.8130004,0.000316676
-0.8120005,0.0003286314
-0.8110005,0.0003405868
-0.8100004,0.0003519291
-0.8090004,0.0003648041
-0.8080004,0.0003752268
-0.8070005,0.0003881018
-0.8060004,0.0004003637
-0.8050004,0.0004110929
-0.8040004,0.0004236614
-0.8030005,0.0004359233
-0.8020005,0.0004481853
-0.8010004,0.0004589144
-0.8000004,0.0004113995
-0.8009996,0.0003387475
-0.8019996,0.0002823426
-0.8029996,0.0002317622
-0.8039996,0.0001851668
-0.8049996,0.0001419435
-0.8059996,0.0001017857
-0.8069996,5.931826E-05
-0.8079996,2.504616E-05
-0.8089996,-9.164625E-06
-0.8099996,-4.349803E-05
-0.8109996,-7.216029E-05
-0.8119996,-0.000102294
-0.8129996,-0.0001315694
-0.8139996,-0.0001571355
-0.8149996,-0.0001839278
-0.8159996,-0.0002094326
-0.8169996,-0.0002328222
-0.8179996,-0.0002567637
-0.8189996,-0.0002811649
-0.8199996,-0.0002991795
-0.8209996,-0.0003191051
-0.8219996,-0.0003399504
-0.8229996,-0.0003601825
-0.8239996,-0.0003782689
-0.8249996,-0.0003997273
-0.8259996,-0.0004165874
-0.8269996,-0.0004340607
-0.8279996,-0.0004527601
-0.8289996,-0.000467781
-0.8299996,-0.0004852542
-0.8309996,-0.0005018078
-0.8319996,-0.0005168287
-0.8329996,-0.0005333824
-0.8339996,-0.0005490163
-0.8349996,-0.0005625045
-0.8359996,-0.0005784449
-0.8369996,-0.0005940789
-0.8379996,-0.000604808
-0.8389996,-0.0006207486
-0.8399996,-0.0006336236
-0.8409996,-0.0006452725
-0.8419996,-0.0006596802
-0.8429996,-0.0006731683
-0.8439996,-0.0006838975
-0.8449996,-0.0006979987
-0.8459996,-0.0007099541
-0.8469996,-0.0007209898
-0.8479996,-0.0007329452
-0.8489996,-0.0007455137
-0.8499996,-0.0007562429
-0.8509996,-0.0007669721
-0.8519996,-0.0007795406
-0.8529996,-0.0007896567
-0.8539996,-0.0007997728
-0.8549996,-0.0008117282
-0.8559996,-0.0008215377
-0.8569996,-0.0008316538
-0.8579996,-0.0008426895
-0.8589996,-0.0008531122
-0.8599996,-0.0008623086
-0.8609996,-0.0008733444
-0.8619996,-0.0008831539
-0.8629996,-0.0008917373
-0.8639996,-0.0009018534
-0.8649996,-0.0009116629
-0.8659996,-0.0009205528
-0.8669996,-0.0009303623
-0.8679996,-0.0009395588
-0.8689996,-0.0009490618
-0.8699996,-0.0009582583
-0.8709996,-0.0009677612
-0.8719996,-0.0009745053
-0.8729996,-0.0009846214
-0.8739996,-0.0009953505
-0.8749996,-0.001001788
-0.8759996,-0.001011904
-0.8769996,-0.001022327
-0.8779996,-0.001028764
-0.8789996,-0.001038881
-0.8799996,-0.001047464
-0.8809996,-0.001054208
-0.8819996,-0.001065244
-0.8829996,-0.001074134
-0.8839996,-0.001081184
-0.8849996,-0.001090074
-0.8859996,-0.001098657
-0.8869996,-0.001106628
-0.8879996,-0.001115518
-0.8889996,-0.001124714
-0.8899996,-0.001132684
-0.8909996,-0.001141268
-0.8919996,-0.001150158
-0.8929996,-0.001155369
-0.8939996,-0.001168244
-0.8949996,-0.001174375
-0.8959996,-0.001182038
-0.8969996,-0.001192461
-0.8979996,-0.001200125
-0.8989996,-0.001207175
-0.8999996,-0.001218518
-0.9009996,-0.001224649
-0.9019996,-0.001232926
-0.9029996,-0.001243655
-0.9039996,-0.001249479
-0.9049996,-0.001258063
-0.9059996,-0.001268179
-0.9069996,-0.001275229
-0.9079996,-0.001285958
-0.9089996,-0.001294235
-0.9099996,-0.001299753
-0.9109996,-0.001311095
-0.9119996,-0.001319985
-0.9129996,-0.001327036
-0.9139996,-0.001337152
-0.9149996,-0.001345735
-0.9159996,-0.001353399
-0.9169996,-0.001363209
-0.9179996,-0.001372098
-0.9189996,-0.001379456
-0.9199996,-0.001387732
-0.9209996,-0.001397849
-0.9219996,-0.001406432
-0.9229996,-0.001414709
-0.9239996,-0.001425438
-0.9249996,-0.001433102
-0.9259996,-0.001441072
-0.9269996,-0.001451188
-0.9279996,-0.001459158
-0.9289996,-0.001469274
-0.9299996,-0.00147939
-0.9309996,-0.001486441
-0.9319996,-0.001497783
-0.9329996,-0.001506367
-0.9339996,-0.001514643
-0.9349996,-0.001524146
-0.9359996,-0.001533343
-0.9369996,-0.001542539
-0.9379996,-0.001553269
-0.9389996,-0.001562158
-0.9399996,-0.001569209
-0.9409996,-0.001582391
-0.9419996,-0.001590054
-0.9429996,-0.001598638
-0.9439996,-0.001609673
-0.9449996,-0.001619789
-0.9459996,-0.00162684
-0.9469996,-0.001638489
-0.9479996,-0.001647072
-0.9489996,-0.001656575
-0.9499996,-0.001668224
-0.9509996,-0.001677421
-0.9519996,-0.001685084
-0.9529996,-0.001696427
-0.9539996,-0.001708382
-0.9549996,-0.001716046
-0.9559996,-0.001727388
-0.9569996,-0.001736891
-0.9579996,-0.001747314
-0.9589996,-0.001756817
-0.9599996,-0.001767852
-0.9609996,-0.001775209
-0.9619996,-0.001788085
-0.9629996,-0.001796055
-0.9639996,-0.001805558
-0.9649996,-0.001818433
-0.9659996,-0.001826097
-0.9669996,-0.001838665
-0.9679996,-0.001849088
-0.9689996,-0.001856751
-0.9699996,-0.00186748
-0.9709996,-0.001879742
-0.9719996,-0.0018871
-0.9729996,-0.001899361
-0.9739996,-0.001910704
-0.9749996,-0.001917754
-0.9759996,-0.001927257
-0.9769996,-0.001941359
-0.9779996,-0.001949022
-0.9789996,-0.001957912
-0.9799996,-0.00197232
-0.9809996,-0.001979064
-0.9819996,-0.001988261
-0.9829996,-0.002001749
-0.9839996,-0.002008493
-0.9849996,-0.002020142
-0.9859996,-0.002032097
-0.9869996,-0.00203976
-0.9879996,-0.002049264
-0.9889996,-0.002059993
-0.9899996,-0.00206827
-0.9909996,-0.002079305
-0.9919996,-0.002090341
-0.9929996,-0.002098005
-0.9939996,-0.002107814
-0.9949996,-0.002120996
-0.9959996,-0.002127127
-0.9969996,-0.002137856
-0.9979996,-0.002148585
-0.9989996,-0.002156249
-0.9999996,-0.002166671
-1.001,-0.002176787
-1.002,-0.002185371
-1.003,-0.002192115
-1.004,-0.002203151
-1.005,-0.00221388
-1.006,-0.002218785
-1.007,-0.00223074
-1.008,-0.002239323
-1.009,-0.002246987
-1.01,-0.002258023
-1.011,-0.002266606
-1.012,-0.00227427
-1.013,-0.002284999
-1.014,-0.00229205
-1.015,-0.002301553
-1.016,-0.002308603
-1.017,-0.002318413
-1.018,-0.00232577
-1.019,-0.002334047
-1.02,-0.002344163
-1.021,-0.002350907
-1.022,-0.002361023
-1.023,-0.0023693
-1.024,-0.002376963
-1.025,-0.00238616
-1.026,-0.002394743
-1.027,-0.002400568
-1.028,-0.002411603
-1.029,-0.002415895
-1.03,-0.002425705
-1.031,-0.002437967
-1.032,-0.002441032
-1.033,-0.002449922
-1.034,-0.002463104
-1.035,-0.002467089
-1.036,-0.002476898
-1.037,-0.002488854
-1.038,-0.002493758
-1.039,-0.002503261
-1.04,-0.002515217
-1.041,-0.002520735
-1.042,-0.002529625
-1.043,-0.002542193
-1.044,-0.002550163
-1.045,-0.002556907
-1.046,-0.002567943
-1.047,-0.002580205
-1.048,-0.002588482
-1.049,-0.002595532
-1.05,-0.002605955
-1.051,-0.002617604
-1.052,-0.002626187
-1.053,-0.00263569
-1.054,-0.002647339
-1.055,-0.002658375
-1.056,-0.002667265
-1.057,-0.002679833
-1.058,-0.002689643
-1.059,-0.002700372
-1.06,-0.002712941
-1.061,-0.002724896
-1.062,-0.002736545
-1.063,-0.002748806
-1.064,-0.002761069
-1.065,-0.002773637
-1.066,-0.002784366
-1.067,-0.002798774
-1.068,-0.002812262
-1.069,-0.002822991
-1.07,-0.002837093
-1.071,-0.002850274
-1.072,-0.002863456
-1.073,-0.002879396
-1.074,-0.002892578
-1.075,-0.002905453
-1.076,-0.002919554
-1.077,-0.002935188
-1.078,-0.00294653
-1.079,-0.00296523
-1.08,-0.002976572
-1.081,-0.002990673
-1.082,-0.003011212
-1.083,-0.002985663
-1.084,-0.003004056
-1.085,-0.003019383
-1.086,-0.003031645
-1.087,-0.003046973
-1.088,-0.003059235
-1.089,-0.003071497
-1.09,-0.003086824
-1.091,-0.003099086
-1.092,-0.003111348
-1.093,-0.00312361
-1.094,-0.003138937
-1.095,-0.003145068
-1.096,-0.003160396
-1.097,-0.003169592
-1.098,-0.003178789
-1.099,-0.003187985
-1.1,-0.003197182
-1.101,-0.003200247
-1.102,-0.003212509
-1.103,-0.003212509
-1.104,-0.00321864
-1.105,-0.003224771
-1.106,-0.003224771
-1.107,-0.003224771
-1.108,-0.003233967
-1.109,-0.003230902
-1.11,-0.003230902
-1.111,-0.003233967
-1.112,-0.003224771
-1.113,-0.003224771
-1.114,-0.003227836
-1.115,-0.003215575
-1.116,-0.00321864
-1.117,-0.003215575
-1.118,-0.003206378
-1.119,-0.003206378
-1.12,-0.003200247
-1.121,-0.003194116
-1.122,-0.003194116
-1.123,-0.003187985
-1.124,-0.003184919
-1.125,-0.003178789
-1.126,-0.003181854
-1.127,-0.003178789
-1.128,-0.003172658
-1.129,-0.003172658
-1.13,-0.003166527
-1.131,-0.003166527
-1.132,-0.003169592
-1.133,-0.003163461
-1.134,-0.003166527
-1.135,-0.003169592
-1.136,-0.003163461
-1.137,-0.003172658
-1.138,-0.003172658
-1.139,-0.003169592
-1.14,-0.003175723
-1.141,-0.003181854
-1.142,-0.003178789
-1.143,-0.003184919
-1.144,-0.003184919
-1.145,-0.003187985
-1.146,-0.003197182
-1.147,-0.003197182
-1.148,-0.003200247
-1.149,-0.003209443
-1.15,-0.003212509
-1.151,-0.003215575
-1.152,-0.003224771
-1.153,-0.003227836
-1.154,-0.003230902
-1.155,-0.003240098
-1.156,-0.003246229
-1.157,-0.003246229
-1.158,-0.003261557
-1.159,-0.003264622
-1.16,-0.003264622
-1.161,-0.00327995
-1.162,-0.003283015
-1.163,-0.003286081
-1.164,-0.003298342
-1.165,-0.003304473
-1.166,-0.003307539
-1.167,-0.003316735
-1.168,-0.003322866
-1.169,-0.003328997
-1.17,-0.003338194
-1.171,-0.00334739
-1.172,-0.003350456
-1.173,-0.003356587
-1.174,-0.003368848
-1.175,-0.003371914
-1.176,-0.003378045
-1.177,-0.003387242
-1.178,-0.003393373
-1.179,-0.003399503
-1.18,-0.003414831
-1.181,-0.003414831
-1.182,-0.003424027
-1.183,-0.003433224
-1.184,-0.003433224
-1.185,-0.003445486
-1.186,-0.003454682
-1.187,-0.003457748
-1.188,-0.003470009
-1.189,-0.00347614
-1.19,-0.00347614
-1.191,-0.003491468
-1.192,-0.003497599
-1.193,-0.00350373
-1.194,-0.003519057
-1.195,-0.003522123
-1.196,-0.003528254
-1.197,-0.003543581
-1.198,-0.003549712
-1.199,-0.003555843
-1.2,-0.003568105
-1.201,-0.00357117
-1.202,-0.003580367
-1.203,-0.003601825
-1.204,-0.003604891
-1.205,-0.003611021
-1.206,-0.003629415
-1.207,-0.003635545
-1.208,-0.003644742
-1.209,-0.003663135
-1.21,-0.003669266
-1.211,-0.003678462
-1.212,-0.003696855
-1.213,-0.003706052
-1.214,-0.003715248
-1.215,-0.003733641
-1.216,-0.003742838
-1.217,-0.003752034
-1.218,-0.003770427
-1.219,-0.00378882
-1.22,-0.003798016
-1.221,-0.003813344
-1.222,-0.003825605
-1.223,-0.003843998
-1.224,-0.003862391
-1.225,-0.003871588
-1.226,-0.003893046
-1.227,-0.003911439
-1.228,-0.003926767
-1.229,-0.003954356
-1.23,-0.003969683
-1.231,-0.003985011
-1.232,-0.004009534
-1.233,-0.004034058
-1.234,-0.004049386
-1.235,-0.00408004
-1.236,-0.004101499
-1.237,-0.004122957
-1.238,-0.004150547
-1.239,-0.004178136
-1.24,-0.004199594
-1.241,-0.004233315
-1.242,-0.004260904
-1.243,-0.004285428
-1.244,-0.004325279
-1.245,-0.004352869
-1.246,-0.004383523
-1.247,-0.004423374
-1.248,-0.004457095
-1.249,-0.004493881
-1.25,-0.004536797
-1.251,-0.004576649
-1.252,-0.0046165
-1.253,-0.004659417
-1.254,-0.004708464
-1.255,-0.004751381
-1.256,-0.004803495
-1.257,-0.004858673
-1.258,-0.004904655
-1.259,-0.004969031
-1.26,-0.005027275
-1.261,-0.005079388
-1.262,-0.005146828
-1.263,-0.005214269
-1.264,-0.005275579
-1.265,-0.00534915
-1.266,-0.005422722
-1.267,-0.005496293
-1.268,-0.005579061
-1.269,-0.005664895
-1.27,-0.005747663
-1.271,-0.005833496
-1.272,-0.005928526
-1.273,-0.006026622
-1.274,-0.006124718
-1.275,-0.006235075
-1.276,-0.006339301
-1.277,-0.006452724
-1.278,-0.006572278
-1.279,-0.006691832
-1.28,-0.006817516
-1.281,-0.006949332
-1.282,-0.007078082
-1.283,-0.007225225
-1.284,-0.007375435
-1.285,-0.007519512
-1.286,-0.007675851
-1.287,-0.007838323
-1.288,-0.008000793
-1.289,-0.008172459
-1.29,-0.008350258
-1.291,-0.008531122
-1.292,-0.008721181
-1.293,-0.008923503
-1.294,-0.009116628
-1.295,-0.009328146
-1.296,-0.009539665
-1.297,-0.009754249
-1.298,-0.009978029
-1.299,-0.01021407
-1.3,-0.01044705
-1.301,-0.01068922
-1.302,-0.01094059
-1.303,-0.0111889
-1.304,-0.01144333
-1.305,-0.01171003
-1.306,-0.01197672
-1.307,-0.01224649
-1.308,-0.01252851
-1.309,-0.0128044
-1.31,-0.01308949
-1.311,-0.01338378
-1.312,-0.013675
-1.313,-0.01397235
-1.314,-0.0142789
-1.315,-0.01457932
-1.316,-0.01488587
-1.317,-0.01521081
-1.318,-0.01552655
-1.319,-0.01584536
-1.32,-0.01617644
-1.321,-0.01649524
-1.322,-0.01682938
-1.323,-0.01716965
-1.324,-0.01750379
-1.325,-0.01784406
-1.326,-0.01818433
-1.327,-0.01852153
-1.328,-0.01887406
-1.329,-0.01922352
-1.33,-0.01956379
-1.331,-0.01992552
-1.332,-0.02027805
-1.333,-0.02061832
-1.334,-0.02098311
-1.335,-0.02134484
-1.336,-0.0216943
-1.337,-0.0220499
-1.338,-0.02241469
-1.339,-0.02276109
-1.34,-0.02311669
-1.341,-0.02348454
-1.342,-0.02384014
-1.343,-0.0241988
-1.344,-0.02456973
-1.345,-0.02493758
-1.346,-0.02529931
-1.347,-0.02565797
-1.348,-0.02602276
-1.349,-0.02639062
-1.35,-0.02675848
-1.351,-0.02711101
-1.352,-0.0274758
-1.353,-0.02784979
-1.354,-0.02822378
-1.355,-0.0286039
-1.356,-0.02897482
-1.357,-0.02932735
-1.358,-0.02971667
-1.359,-0.03008453
-1.36,-0.03045239
-1.361,-0.03096021
-1.362,-0.03132806
-1.363,-0.03169592
-1.364,-0.03209443
-1.365,-0.0324623
-1.366,-0.03283015
-1.367,-0.03322866
-1.368,-0.03359652
-1.369,-0.03399504
-1.37,-0.03439355
-1.371,-0.03476141
-1.372,-0.03512926
-1.373,-0.03552778
-1.374,-0.03592629
-1.375,-0.0363248
-1.376,-0.03669266
-1.377,-0.03709117
-1.378,-0.03745903
-1.379,-0.03785754
-1.38,-0.0382254
-1.381,-0.03859326
-1.382,-0.03899177
-1.383,-0.03935963
-1.384,-0.03975814
-1.385,-0.04015666
-1.386,-0.04055517
-1.387,-0.04092303
-1.388,-0.04132154
-1.389,-0.04172005
-1.39,-0.04208791
-1.391,-0.04248642
-1.392,-0.04288493
-1.393,-0.04328345
-1.394,-0.04365131
-1.395,-0.04404982
-1.396,-0.04441768
-1.397,-0.04481619
-1.398,-0.04524536
-1.399,-0.04564387
-1.4,-0.04601173
-1.401,-0.04641024
-1.402,-0.0467781
-1.403,-0.04717661
-1.404,-0.04757512
-1.405,-0.04797364
-1.406,-0.04837215
-1.407,-0.04877066
-1.408,-0.04916918
-1.409,-0.04956769
-1.41,-0.04993555
-1.411,-0.05033405
-1.412,-0.05073257
-1.413,-0.05116174
-1.414,-0.05152959
-1.415,-0.05189746
-1.416,-0.05232662
-1.417,-0.05269448
-1.418,-0.05312365
-1.419,-0.0534915
-1.42,-0.05389002
-1.421,-0.05431918
-1.422,-0.05468704
-1.423,-0.0550549
-1.424,-0.05548407
-1.425,-0.05588258
-1.426,-0.0562811
-1.427,-0.05667961
-1.428,-0.05707812
-1.429,-0.05747664
-1.43,-0.05787515
-1.431,-0.05827365
-1.432,-0.05867217
-1.433,-0.05910134
-1.434,-0.05946919
-1.435,-0.05986771
-1.436,-0.06029687
-1.437,-0.06066473
-1.438,-0.06103259
-1.439,-0.06143111
-1.44,-0.06182962
-1.441,-0.06222813
-1.442,-0.06259599
-1.443,-0.0629945
-1.444,-0.06342367
-1.445,-0.06382218
-1.446,-0.06422069
-1.447,-0.06461921
-1.448,-0.06504837
-1.449,-0.06544688
-1.45,-0.06581475
-1.451,-0.06624391
-1.452,-0.06664243
-1.453,-0.06704094
-1.454,-0.06743945
-1.455,-0.06783796
-1.456,-0.06823648
-1.457,-0.06863499
-1.458,-0.0690335
-1.459,-0.06946267
-1.46,-0.06986118
-1.461,-0.0702597
-1.462,-0.07068887
-1.463,-0.07105672
-1.464,-0.07145523
-1.465,-0.0718844
-1.466,-0.07228291
-1.467,-0.07268143
-1.468,-0.07307994
-1.469,-0.07347845
-1.47,-0.07387697
-1.471,-0.07433679
-1.472,-0.07470464
-1.473,-0.07510316
-1.474,-0.07550167
-1.475,-0.07590018
-1.476,-0.0762987
-1.477,-0.07672786
-1.478,-0.07712638
-1.479,-0.07752489
-1.48,-0.07795405
-1.481,-0.07835257
-1.482,-0.07875108
-1.483,-0.0792109
-1.484,-0.07957876
-1.485,-0.07997727
-1.486,-0.08043709
-1.487,-0.08080496
-1.488,-0.08120347
-1.489,-0.08166329
-1.49,-0.0820618
-1.491,-0.08246031
-1.492,-0.08292013
-1.493,-0.083288
-1.494,-0.08368651
-1.495,-0.08414634
-1.496,-0.08454484
-1.497,-0.08494335
-1.498,-0.08537253
-1.499,-0.08574038
-1.5,-0.085863
-1.499001,-0.08546449
-1.498001,-0.08497401
-1.497001,-0.08451419
-1.496001,-0.08405437
-1.495001,-0.08353323
-1.494001,-0.08307341
-1.493001,-0.08264425
-1.492001,-0.08215377
-1.491001,-0.0817246
-1.490001,-0.08126478
-1.489001,-0.08080496
-1.488001,-0.08034513
-1.487001,-0.07991596
-1.486001,-0.07945614
-1.485001,-0.07893501
-1.484001,-0.07850584
-1.483001,-0.07804602
-1.482001,-0.0775862
-1.481001,-0.07715704
-1.480001,-0.07672786
-1.479001,-0.07626804
-1.478001,-0.07580822
-1.477001,-0.07537905
-1.476001,-0.07488858
-1.475001,-0.07449006
-1.474001,-0.07403024
-1.473001,-0.07357042
-1.472001,-0.07314125
-1.471001,-0.07268143
-1.470001,-0.07219095
-1.469001,-0.07176178
-1.468001,-0.07130196
-1.467001,-0.07084214
-1.466001,-0.07044362
-1.465001,-0.0699838
-1.464001,-0.06952398
-1.463001,-0.06909481
-1.462001,-0.06866565
-1.461001,-0.06820583
-1.460001,-0.06777665
-1.459001,-0.06734749
-1.458001,-0.06688767
-1.457001,-0.06645849
-1.456001,-0.06602933
-1.455001,-0.06556951
-1.454001,-0.06514034
-1.453001,-0.06471118
-1.452001,-0.064282
-1.451001,-0.06382218
-1.450001,-0.06339302
-1.449001,-0.06293319
-1.448001,-0.06253468
-1.447001,-0.06210551
-1.446001,-0.06167634
-1.445001,-0.06121652
-1.444001,-0.06078735
-1.443001,-0.06032753
-1.442001,-0.05989837
-1.441001,-0.05946919
-1.440001,-0.05904003
-1.439001,-0.05861086
-1.438001,-0.05818169
-1.437001,-0.05775253
-1.436001,-0.05735401
-1.435001,-0.05692485
-1.434001,-0.05649568
-1.433001,-0.05606651
-1.432001,-0.05563734
-1.431001,-0.05517752
-1.430001,-0.054779
-1.429001,-0.05434984
-1.428001,-0.05392068
-1.427001,-0.05352216
-1.426001,-0.05309299
-1.425001,-0.05266382
-1.424001,-0.05226531
-1.423001,-0.05183614
-1.422001,-0.05140698
-1.421001,-0.05100846
-1.420001,-0.05054864
-1.419001,-0.05015013
-1.418001,-0.04975162
-1.417001,-0.04932245
-1.416001,-0.04889328
-1.415001,-0.04849477
-1.414001,-0.0480656
-1.413001,-0.04766709
-1.412001,-0.04723792
-1.411001,-0.04680875
-1.410001,-0.04641024
-1.409001,-0.04601173
-1.408001,-0.04558256
-1.407001,-0.04518405
-1.406001,-0.04478553
-1.405001,-0.04435637
-1.404001,-0.04395786
-1.403001,-0.04358999
-1.402001,-0.04316083
-1.401001,-0.04279297
-1.400001,-0.0423638
-1.399001,-0.04196529
-1.398001,-0.04156678
-1.397001,-0.04116827
-1.396001,-0.04076975
-1.395001,-0.04037124
-1.394001,-0.03997273
-1.393001,-0.03957421
-1.392001,-0.03920636
-1.391001,-0.03880784
-1.390001,-0.03840933
-1.389001,-0.03801082
-1.388001,-0.0376123
-1.387001,-0.03721379
-1.386001,-0.03684593
-1.385001,-0.03647808
-1.384001,-0.03607956
-1.383001,-0.03571171
-1.382001,-0.03531319
-1.381001,-0.03491468
-1.380001,-0.03454682
-1.379001,-0.03420962
-1.378001,-0.0338111
-1.377001,-0.03344325
-1.376001,-0.03304474
-1.375001,-0.03264622
-1.374001,-0.03227837
-1.373001,-0.03187985
-1.372001,-0.03151199
-1.371001,-0.03114414
-1.370001,-0.03080693
-1.369001,-0.03043908
-1.368001,-0.03007122
-1.367001,-0.02970336
-1.366001,-0.0293355
-1.365001,-0.02896764
-1.364001,-0.02859978
-1.363001,-0.02823193
-1.362001,-0.02786407
-1.361001,-0.02752687
-1.360001,-0.02715901
-1.359001,-0.02682181
-1.358001,-0.0264846
-1.357001,-0.0261474
-1.356001,-0.02577954
-1.355001,-0.02547299
-1.354001,-0.02510513
-1.353001,-0.02473728
-1.352001,-0.02440007
-1.351001,-0.02406287
-1.350001,-0.02372567
-1.349001,-0.02341912
-1.348001,-0.02305126
-1.347001,-0.02274471
-1.346001,-0.02240751
-1.345001,-0.02207031
-1.344001,-0.02176376
-1.343001,-0.02145721
-1.342001,-0.02112001
-1.341001,-0.02081346
-1.340001,-0.02047626
-1.339001,-0.02016971
-1.338001,-0.0198325
-1.337001,-0.01952596
-1.336001,-0.01921941
-1.335001,-0.01891286
-1.334001,-0.01863697
-1.333001,-0.01829976
-1.332001,-0.01802387
-1.331001,-0.01771732
-1.330001,-0.01741077
-1.329001,-0.01713488
-1.328001,-0.01682833
-1.327001,-0.01652178
-1.326001,-0.01624589
-1.325001,-0.01597
-1.324001,-0.01578712
-1.323001,-0.01552349
-1.322001,-0.01525986
-1.321001,-0.01498396
-1.320001,-0.01472953
-1.319001,-0.0144659
-1.318001,-0.01420226
-1.317001,-0.01395089
-1.316001,-0.01370566
-1.315001,-0.01344816
-1.314001,-0.01320598
-1.313001,-0.01296994
-1.312001,-0.01271857
-1.311001,-0.01249479
-1.310001,-0.01225875
-1.309001,-0.01202271
-1.308001,-0.01179893
-1.307001,-0.01157821
-1.306001,-0.01135443
-1.305001,-0.01114291
-1.304001,-0.01093139
-1.303001,-0.01071988
-1.302001,-0.01051755
-1.301001,-0.01031217
-1.300001,-0.01010985
-1.299001,-0.009919784
-1.298001,-0.009723594
-1.297001,-0.009539665
-1.296001,-0.009352671
-1.295001,-0.009171807
-1.294001,-0.008997074
-1.293001,-0.008825407
-1.292001,-0.00865374
-1.291001,-0.008485138
-1.290001,-0.008322668
-1.289001,-0.008160197
-1.288001,-0.008003858
-1.287001,-0.00785365
-1.286001,-0.007703441
-1.285001,-0.007562429
-1.284001,-0.007421417
-1.283001,-0.00728347
-1.282001,-0.007151654
-1.281001,-0.00702597
-1.280001,-0.006897219
-1.279001,-0.006768468
-1.278001,-0.006655046
-1.277001,-0.006535492
-1.276001,-0.006419003
-1.275001,-0.006314777
-1.274001,-0.00620442
-1.273001,-0.006097128
-1.272001,-0.006002098
-1.271001,-0.005900937
-1.270001,-0.005802842
-1.269001,-0.005717008
-1.268001,-0.005628109
-1.267001,-0.005536145
-1.266001,-0.005456442
-1.265001,-0.005376739
-1.264001,-0.005290906
-1.263001,-0.005217335
-1.262001,-0.005140697
-1.261001,-0.00506406
-1.260001,-0.005002751
-1.259001,-0.004932245
-1.258001,-0.004864804
-1.257001,-0.00480656
-1.256001,-0.004742185
-1.255001,-0.004680875
-1.254001,-0.004628762
-1.253001,-0.004567452
-1.252001,-0.004512274
-1.251001,-0.004463226
-1.250001,-0.004411113
-1.249001,-0.004362065
-1.248001,-0.004319148
-1.247001,-0.004267035
-1.246001,-0.004221053
-1.245001,-0.004178136
-1.244001,-0.004138284
-1.243001,-0.004092303
-1.242001,-0.004055517
-1.241001,-0.0040126
-1.240001,-0.003975814
-1.239001,-0.003942094
-1.238001,-0.003899177
-1.237001,-0.003868522
-1.236001,-0.003837867
-1.235001,-0.003798016
-1.234001,-0.003773492
-1.233001,-0.003739772
-1.232001,-0.003706052
-1.231001,-0.003684593
-1.230001,-0.003653938
-1.229001,-0.003617153
-1.228001,-0.00359876
-1.227001,-0.00357117
-1.226001,-0.003540515
-1.225001,-0.003522123
-1.224001,-0.003497599
-1.223001,-0.003466944
-1.222001,-0.003448551
-1.221001,-0.003430158
-1.220001,-0.003402569
-1.219001,-0.00338111
-1.218001,-0.003362718
-1.217001,-0.003335128
-1.216001,-0.003316735
-1.215001,-0.003301408
-1.214001,-0.003273819
-1.213001,-0.003255426
-1.212001,-0.003240098
-1.211001,-0.003215575
-1.210001,-0.003197182
-1.209001,-0.003181854
-1.208001,-0.003160396
-1.207001,-0.003145068
-1.206001,-0.003129741
-1.205001,-0.003108283
-1.204001,-0.003096021
-1.203001,-0.003077628
-1.202001,-0.003056169
-1.201001,-0.003043907
-1.200001,-0.003031645
-1.199001,-0.003010187
-1.198001,-0.003000991
-1.197001,-0.002985663
-1.196001,-0.002964205
-1.195001,-0.002958074
-1.194001,-0.002939681
-1.193001,-0.002921288
-1.192001,-0.002912092
-1.191001,-0.00289983
-1.190001,-0.002881437
-1.189001,-0.00287224
-1.188001,-0.002859978
-1.187001,-0.002844651
-1.186001,-0.002832389
-1.185001,-0.002823193
-1.184001,-0.002801734
-1.183001,-0.002795603
-1.182001,-0.002783341
-1.181001,-0.002761883
-1.180001,-0.002755752
-1.179001,-0.00274349
-1.178001,-0.002728163
-1.177001,-0.002722032
-1.176001,-0.002706704
-1.175001,-0.002694442
-1.174001,-0.002685246
-1.173001,-0.002676049
-1.172001,-0.002657657
-1.171001,-0.002651526
-1.170001,-0.002642329
-1.169001,-0.002627002
-1.168001,-0.002617805
-1.167001,-0.002608609
-1.166001,-0.002593281
-1.165001,-0.002584085
-1.164001,-0.002571823
-1.163001,-0.002556496
-1.162001,-0.00255343
-1.161001,-0.002538103
-1.160001,-0.002528906
-1.159001,-0.002522775
-1.158001,-0.002507448
-1.157001,-0.002498251
-1.156001,-0.002489055
-1.155001,-0.002473728
-1.154001,-0.002467597
-1.153001,-0.0024584
-1.152001,-0.002443073
-1.151001,-0.002436942
-1.150001,-0.002427745
-1.149001,-0.002415484
-1.148001,-0.002403222
-1.147001,-0.002397091
-1.146001,-0.002381763
-1.145001,-0.002372567
-1.144001,-0.002372567
-1.143001,-0.002354174
-1.142001,-0.002341912
-1.141001,-0.002341912
-1.140001,-0.002320454
-1.139001,-0.002314323
-1.138001,-0.002311257
-1.137001,-0.002298995
-1.136001,-0.002286733
-1.135001,-0.002277537
-1.134001,-0.00226834
-1.133001,-0.002256078
-1.132001,-0.002249948
-1.131001,-0.002240751
-1.130001,-0.002228489
-1.129001,-0.002219293
-1.128001,-0.002210096
-1.127001,-0.002197834
-1.126001,-0.002188638
-1.125001,-0.002179441
-1.124001,-0.002170245
-1.123001,-0.002164114
-1.122001,-0.002148786
-1.121001,-0.00213959
-1.120001,-0.002130394
-1.119001,-0.002121197
-1.118001,-0.002108935
-1.117001,-0.002102804
-1.116001,-0.002090542
-1.115001,-0.00207828
-1.114001,-0.002072149
-1.113001,-0.002059887
-1.112001,-0.002047626
-1.111001,-0.00204456
-1.110001,-0.002029233
-1.109001,-0.002020036
-1.108001,-0.002013905
-1.107001,-0.001995512
-1.106001,-0.001989381
-1.105001,-0.001980185
-1.104001,-0.001964858
-1.103001,-0.001958727
-1.102001,-0.00194953
-1.101001,-0.001934203
-1.100001,-0.001928072
-1.099001,-0.00191581
-1.098001,-0.001900482
-1.097001,-0.001900482
-1.096001,-0.001885155
-1.095001,-0.001866762
-1.094001,-0.001863697
-1.093001,-0.001857566
-1.092001,-0.001839173
-1.091001,-0.001833042
-1.090001,-0.001826911
-1.089001,-0.001808518
-1.088001,-0.001802387
-1.087001,-0.001790125
-1.086001,-0.001774798
-1.085001,-0.001771732
-1.084001,-0.001756405
-1.083001,-0.001741077
-1.082001,-0.001734946
-1.081001,-0.00172575
-1.080001,-0.001713488
-1.079001,-0.001701226
-1.078001,-0.00169203
-1.077001,-0.001679768
-1.076001,-0.001667506
-1.075001,-0.001658309
-1.074001,-0.001646047
-1.073001,-0.001636851
-1.072001,-0.001627655
-1.071001,-0.001612327
-1.070001,-0.001603131
-1.069001,-0.001593934
-1.068001,-0.001613352
-1.067001,-0.001606608
-1.066001,-0.001597105
-1.065001,-0.001583923
-1.064001,-0.00157442
-1.063001,-0.001563385
-1.062001,-0.001551429
-1.061001,-0.001539474
-1.060001,-0.00153181
-1.059001,-0.001518015
-1.058001,-0.001505447
-1.057001,-0.001498703
-1.056001,-0.001483682
-1.055001,-0.001472953
-1.054001,-0.001465596
-1.053001,-0.001453027
-1.052001,-0.001440152
-1.051001,-0.001432489
-1.050001,-0.001417774
-1.049001,-0.001408271
-1.048001,-0.001400607
-1.047001,-0.001385893
-1.046001,-0.001375164
-1.045001,-0.001366887
-1.044001,-0.001349414
-1.043001,-0.001345735
-1.042001,-0.001335313
-1.041001,-0.001318453
-1.040001,-0.001310176
-1.039001,-0.001300979
-1.038001,-0.001286878
-1.037001,-0.001278601
-1.036001,-0.001266033
-1.035001,-0.001255304
-1.034001,-0.001244268
-1.033001,-0.001233539
-1.032001,-0.00122281
-1.031001,-0.001210548
-1.030001,-0.001201351
-1.029001,-0.001191848
-1.028001,-0.001178973
-1.027001,-0.001170083
-1.026001,-0.001159661
-1.025001,-0.001146785
-1.024001,-0.00113575
-1.023001,-0.001128699
-1.022001,-0.001116744
-1.021001,-0.001106934
-1.020001,-0.001096818
-1.019001,-0.001086395
-1.018001,-0.001076586
-1.017001,-0.001068309
-1.016001,-0.001055128
-1.015001,-0.001048077
-1.014001,-0.001037348
-1.013001,-0.001024166
-1.012001,-0.001017116
-1.011001,-0.001006999
-1.010001,-0.0009968834
-1.009001,-0.000988913
-1.008001,-0.0009821691
-1.007001,-0.0009680677
-1.006001,-0.0009585648
-1.005001,-0.0009509011
-1.004001,-0.0009386392
-1.003001,-0.0009303623
-1.002001,-0.000925151
-1.001001,-0.0009098236
-1.000001,-0.0009058384
-0.9990007,-0.0008957224
-0.9980007,-0.0008825408
-0.9970006,-0.0008788622
-0.9960006,-0.0008666003
-0.9950007,-0.0008574039
-0.9940007,-0.0008518859
-0.9930006,-0.0008393175
-0.9920006,-0.0008310407
-0.9910007,-0.0008242966
-0.9900007,-0.0008151002
-0.9890007,-0.0008059037
-0.9880006,-0.0007954811
-0.9870006,-0.000788737
-0.9860007,-0.0007773947
-0.9850007,-0.0007681983
-0.9840007,-0.0007620673
-0.9830006,-0.0007525643
-0.9820006,-0.0007445941
-0.9810007,-0.0007366238
-0.9800007,-0.0007243619
-0.9790006,-0.0007209898
-0.9780006,-0.0007102606
-0.9770007,-0.0007004511
-0.9760007,-0.0006952398
-0.9750007,-0.0006851237
-0.9740006,-0.0006762338
-0.9730006,-0.0006688767
-0.9720007,-0.0006575344
-0.9710007,-0.0006498707
-0.9700007,-0.0006443528
-0.9690006,-0.000632704
-0.9680007,-0.0006250403
-0.9670007,-0.0006176831
-0.9660007,-0.0006081801
-0.9650006,-0.0005999033
-0.9640006,-0.000591933
-0.9630007,-0.0005799776
-0.9620007,-0.0005772187
-0.9610007,-0.0005671026
-0.9600006,-0.0005542276
-0.9590006,-0.0005499359
-0.9580007,-0.0005416591
-0.9570007,-0.0005309299
-0.9560006,-0.0005244924
-0.9550006,-0.0005165222
-0.9540007,-0.000505793
-0.9530007,-0.0004972096
-0.9520007,-0.0004910787
-0.9510006,-0.0004818822
-0.9500006,-0.0004723792
-0.9490007,-0.0004680876
-0.9480007,-0.0004567453
-0.9470007,-0.0004493881
-0.9460006,-0.0004429506
-0.9450006,-0.000433141
-0.9440007,-0.0004251708
-0.9430007,-0.0004199595
-0.9420006,-0.0004104565
-0.9410006,-0.0004018731
-0.9400007,-0.0003939029
-0.9390007,-0.0003868522
-0.9380007,-0.0003791885
-0.9370006,-0.000372751
-0.9360006,-0.0003663135
-0.9350007,-0.0003568105
-0.9340007,-0.0003506796
-0.9330007,-0.0003448552
-0.9320006,-0.0003362718
-0.9310006,-0.0003298343
-0.9300007,-0.0003255426
-0.9290007,-0.0003172658
-0.9280006,-0.0003105217
-0.9270006,-0.0003053104
-0.9260007,-0.0002985664
-0.9250007,-0.0002924354
-0.9240007,-0.0002869175
-0.9230006,-0.0002817062
-0.9220006,-0.0002752687
-0.9210007,-0.0002703639
-0.9200007,-0.0002657657
-0.9190007,-0.0002611674
-0.9180006,-0.0002568758
-0.9170007,-0.0002538103
-0.9160007,-0.0002473728
-0.9150007,-0.0002443073
-0.9140006,-0.0002415484
-0.9130006,-0.000235724
-0.9120007,-0.0002344978
-0.9110007,-0.0002308192
-0.9100007,-0.0002249948
-0.9090006,-0.0002253013
-0.9080006,-0.0002210096
-0.9070007,-0.0002157983
-0.9060007,-0.0002151852
-0.9050006,-0.0002112001
-0.9040006,-0.0002090542
-0.9030007,-0.000207215
-0.9020007,-0.0002038429
-0.9010007,-0.0001995512
-0.9000006,-0.0001998578
-0.8990006,-0.0001955661
-0.8980007,-0.000191581
-0.8970007,-0.0001906613
-0.8960007,-0.0001888221
-0.8950006,-0.0001848369
-0.8940006,-0.0001833042
-0.8930007,-0.0001796256
-0.8920007,-0.0001744143
-0.8910006,-0.0001744143
-0.8900006,-0.0001701226
-0.8890007,-0.0001652178
-0.8880007,-0.0001652178
-0.8870007,-0.0001615393
-0.8860006,-0.0001557148
-0.8850006,-0.0001554083
-0.8840007,-0.000150197
-0.8830007,-0.0001449856
-0.8820007,-0.0001437595
-0.8810006,-0.0001382416
-0.8800007,-0.000136842
-0.8790007,-0.0001357997
-0.8780007,-0.0001298833
-0.8770006,-0.0001253771
-0.8760006,-0.0001228021
-0.8750007,-0.0001178973
-0.8740007,-0.000113575
-0.8730007,-0.0001097431
-0.8720006,-0.0001052062
-0.8710006,-9.932047E-05
-0.8700007,-9.432372E-05
-0.8690007,-9.193265E-05
-0.8680006,-8.475943E-05
-0.8670006,-8.089692E-05
-0.8660007,-7.672786E-05
-0.8650007,-6.943201E-05
-0.8640007,-6.449658E-05
-0.8630006,-6.008229E-05
-0.8620006,-5.263316E-05
-0.8610007,-5.011947E-05
-0.8600007,-4.282362E-05
-0.8590007,-3.611021E-05
-0.8580006,-3.080693E-05
-0.8570006,-2.476793E-05
-0.8560007,-1.722684E-05
-0.8550007,-1.100391E-05
-0.8540006,-6.252417E-06
-0.8530006,2.606828E-06
-0.8520007,7.174396E-06
-0.8510007,1.419435E-05
-0.8500007,2.30536E-05
-0.8490006,2.884736E-05
-0.8480006,3.568338E-05
-0.8470007,4.518638E-05
-0.8460007,5.058163E-05
-0.8450007,5.763223E-05
-0.8440006,6.830012E-05
-0.8430007,7.476829E-05
-0.8420007,8.209479E-05
-0.8410007,9.175106E-05
-0.8400006,9.748351E-05
-0.8390006,0.0001075383
-0.8380007,0.0001187886
-0.8370007,0.000123724
-0.8360007,0.0001333496
-0.8350006,0.0001428833
-0.8340006,0.0001502405
-0.8330007,0.0001599887
-0.8320007,0.0001711777
-0.8310006,0.0001785962
-0.8300006,0.0001887429
-0.8290007,0.000198154
-0.8280007,0.000207565
-0.8270007,0.0002178344
-0.8260006,0.0002282263
-0.8250006,0.0002375454
-0.8240007,0.0002481213
-0.8230007,0.0002587892
-0.8220007,0.0002684455
-0.8210006,0.0002793893
-0.8200006,0.0002936849
-0.8190007,0.0003053338
-0.8180007,0.0003148368
-0.8170006,0.0003270987
-0.8160006,0.0003359886
-0.8150007,0.0003467178
-0.8140007,0.0003595928
-0.8130007,0.0003681761
-0.8120006,0.0003810512
-0.8110006,0.0003923935
-0.8100007,0.0004018965
-0.8090007,0.0004141584
-0.8080007,0.0004258072
-0.8070006,0.0004359233
-0.8060006,0.0004475722
-0.8050007,0.000459221
-0.8040007,0.0004696437
-0.8030006,0.0004806794
-0.8020006,0.0004932479
-0.8010007,0.0005033639
-0.8000007,0.0004509442
-0.8009993,0.0003752268
-0.8019994,0.0003145302
-0.8029994,0.0002621105
-0.8039994,0.0002139824
-0.8049994,0.0001686132
-0.8059993,0.0001269227
-0.8069994,8.768448E-05
-0.8079994,4.748549E-05
-0.8089994,1.180327E-05
-0.8099993,-2.075215E-05
-0.8109994,-5.235727E-05
-0.8119994,-8.341061E-05
-0.8129994,-0.0001116437
-0.8139994,-0.0001394783
-0.8149993,-0.0001666078
-0.8159994,-0.0001917448
-0.8169994,-0.0002163299
-0.8179994,-0.0002413749
-0.8189994,-0.0002646419
-0.8199994,-0.0002866521
-0.8209994,-0.000305617
-0.8219994,-0.0003255426
-0.8229994,-0.0003454682
-0.8239993,-0.0003657004
-0.8249994,-0.0003850129
-0.8259994,-0.0004027928
-0.8269994,-0.0004214922
-0.8279994,-0.0004395786
-0.8289993,-0.0004555191
-0.8299994,-0.0004723792
-0.8309994,-0.0004895459
-0.8319994,-0.0005042602
-0.8329993,-0.0005205073
-0.8339994,-0.0005370609
-0.8349994,-0.000550549
-0.8359994,-0.0005652634
-0.8369994,-0.0005799776
-0.8379993,-0.0005940789
-0.8389994,-0.0006072604
-0.8399994,-0.0006207486
-0.8409994,-0.0006348498
-0.8419994,-0.0006464986
-0.8429993,-0.0006596802
-0.8439994,-0.0006734749
-0.8449994,-0.0006838975
-0.8459994,-0.0006967725
-0.8469993,-0.000709341
-0.8479994,-0.0007191506
-0.8489994,-0.0007320256
-0.8499994,-0.0007433679
-0.8509994,-0.0007540971
-0.8519993,-0.0007660525
-0.8529994,-0.0007764751
-0.8539994,-0.0007868978
-0.8549994,-0.000797627
-0.8559994,-0.0008083562
-0.8569994,-0.0008193919
-0.8579994,-0.0008288948
-0.8589994,-0.0008393175
-0.8599994,-0.0008500467
-0.8609993,-0.0008586301
-0.8619994,-0.0008693592
-0.8629994,-0.0008797819
-0.8639994,-0.0008877521
-0.8649994,-0.0008978682
-0.8659993,-0.0009076777
-0.8669994,-0.0009159546
-0.8679994,-0.0009263772
-0.8689994,-0.0009352671
-0.8699993,-0.0009438504
-0.8709994,-0.00095366
-0.8719994,-0.000963163
-0.8729994,-0.0009723594
-0.8739994,-0.0009809429
-0.8749993,-0.0009886065
-0.8759994,-0.0009971899
-0.8769994,-0.001007919
-0.8779994,-0.001016196
-0.8789994,-0.001023553
-0.8799993,-0.001033669
-0.8809994,-0.001041946
-0.8819994,-0.00104869
-0.8829994,-0.001059113
-0.8839993,-0.001068003
-0.8849994,-0.001074134
-0.8859994,-0.001085169
-0.8869994,-0.00109314
-0.8879994,-0.001098657
-0.8889993,-0.00111
-0.8899994,-0.00111889
-0.8909994,-0.001124714
-0.8919994,-0.00113483
-0.8929994,-0.00114372
-0.8939994,-0.001150771
-0.8949994,-0.001159661
-0.8959994,-0.001168244
-0.8969994,-0.001175908
-0.8979993,-0.001183878
-0.8989994,-0.001193074
-0.8999994,-0.001201045
-0.9009994,-0.001209015
-0.9019994,-0.001217598
-0.9029993,-0.001226181
-0.9039994,-0.001232006
-0.9049994,-0.001242735
-0.9059994,-0.001250705
-0.9069993,-0.001258676
-0.9079994,-0.001268485
-0.9089994,-0.001275536
-0.9099994,-0.001282586
-0.9109994,-0.001295461
-0.9119993,-0.001299447
-0.9129994,-0.00130803
-0.9139994,-0.001319066
-0.9149994,-0.00132581
-0.9159994,-0.001335006
-0.9169993,-0.001345122
-0.9179994,-0.00135156
-0.9189994,-0.001359837
-0.9199994,-0.00136934
-0.9209993,-0.001378536
-0.9219994,-0.001387119
-0.9229994,-0.001396009
-0.9239994,-0.001405512
-0.9249994,-0.001412563
-0.9259993,-0.001421759
-0.9269994,-0.001431262
-0.9279994,-0.001438006
-0.9289994,-0.001448736
-0.9299994,-0.001457319
-0.9309993,-0.001465289
-0.9319994,-0.001475099
-0.9329994,-0.001484602
-0.9339994,-0.001491959
-0.9349993,-0.001502995
-0.9359994,-0.001512498
-0.9369994,-0.001518322
-0.9379994,-0.00153181
-0.9389994,-0.001540087
-0.9399993,-0.001547138
-0.9409994,-0.001558173
-0.9419994,-0.001567983
-0.9429994,-0.001575646
-0.9439994,-0.001585763
-0.9449994,-0.001596492
-0.9459994,-0.001604462
-0.9469994,-0.001613659
-0.9479994,-0.001625921
-0.9489993,-0.001632664
-0.9499994,-0.001641248
-0.9509994,-0.001654736
-0.9519994,-0.00166148
-0.9529994,-0.001672516
-0.9539993,-0.001684778
-0.9549994,-0.001690296
-0.9559994,-0.001703784
-0.9569994,-0.001714513
-0.9579993,-0.001720644
-0.9589994,-0.001733519
-0.9599994,-0.001745168
-0.9609994,-0.001752525
-0.9619994,-0.001761721
-0.9629993,-0.00177337
-0.9639994,-0.001781647
-0.9649994,-0.001792376
-0.9659994,-0.001806477
-0.9669994,-0.001811689
-0.9679993,-0.001824564
-0.9689994,-0.001836826
-0.9699994,-0.001843876
-0.9709994,-0.001855525
-0.9719993,-0.001866561
-0.9729994,-0.001873611
-0.9739994,-0.001887406
-0.9749994,-0.001897522
-0.9759994,-0.00190396
-0.9769993,-0.001916222
-0.9779994,-0.001926951
-0.9789994,-0.00193768
-0.9799994,-0.001949635
-0.9809994,-0.001958219
-0.9819994,-0.001967109
-0.9829994,-0.00198213
-0.9839994,-0.001987647
-0.9849994,-0.00199899
-0.9859993,-0.002012478
-0.9869994,-0.002018609
-0.9879994,-0.002029951
-0.9889994,-0.002043439
-0.9899994,-0.00204865
-0.9909993,-0.002060299
-0.9919994,-0.002072254
-0.9929994,-0.002081144
-0.9939994,-0.002090648
-0.9949993,-0.002100457
-0.9959994,-0.002114252
-0.9969994,-0.002120076
-0.9979994,-0.002132951
-0.9989994,-0.002142761
-0.9999993,-0.002147359
-1.000999,-0.00216146
-1.001999,-0.002170657
-1.002999,-0.002176787
-1.003999,-0.002190276
-1.004999,-0.002198859
-1.005999,-0.002206216
-1.006999,-0.002218171
-1.007999,-0.002227061
-1.008999,-0.002235032
-1.009999,-0.002246374
-1.010999,-0.002254651
-1.011999,-0.002261702
-1.012999,-0.00227519
-1.013999,-0.002280094
-1.014999,-0.002288984
-1.015999,-0.0022991
-1.016999,-0.002307071
-1.017999,-0.002315347
-1.018999,-0.002326077
-1.019999,-0.002334047
-1.020999,-0.002341097
-1.021999,-0.00235244
-1.022999,-0.002359184
-1.023999,-0.002367461
-1.024999,-0.002378803
-1.025999,-0.002388306
-1.026999,-0.002391065
-1.027999,-0.002405779
-1.028999,-0.002412217
-1.029999,-0.002417122
-1.030999,-0.002433062
-1.031999,-0.002437354
-1.032999,-0.002445017
-1.033999,-0.002456973
-1.034999,-0.002461877
-1.035999,-0.002470767
-1.036999,-0.002483949
-1.037999,-0.002487321
-1.038999,-0.002498357
-1.039999,-0.002507553
-1.040999,-0.002516443
-1.041999,-0.002525639
-1.042999,-0.002538515
-1.043999,-0.002543419
-1.044999,-0.00255139
-1.045999,-0.002565491
-1.046999,-0.002570089
-1.047999,-0.002581431
-1.048999,-0.002595226
-1.049999,-0.002599211
-1.050999,-0.002611473
-1.051999,-0.002623122
-1.052999,-0.002629253
-1.053999,-0.002643661
-1.054999,-0.002655616
-1.055999,-0.002660827
-1.056999,-0.002677074
-1.057999,-0.00268719
-1.058999,-0.002693935
-1.059999,-0.002710488
-1.060999,-0.002721831
-1.061999,-0.002729494
-1.062999,-0.002746354
-1.063999,-0.002756777
-1.064999,-0.002762908
-1.065999,-0.002780381
-1.066999,-0.002790804
-1.067999,-0.002799387
-1.068999,-0.002815941
-1.069999,-0.00282759
-1.070999,-0.00283464
-1.071999,-0.002850887
-1.072999,-0.002864989
-1.073999,-0.002872652
-1.074999,-0.002889206
-1.075999,-0.002902387
-1.076999,-0.002906373
-1.077999,-0.002927524
-1.078999,-0.002937334
-1.079999,-0.002941013
-1.080999,-0.002961551
-1.081999,-0.0029732
-1.082999,-0.002945812
-1.083999,-0.002964205
-1.084999,-0.002970336
-1.085999,-0.002979532
-1.086999,-0.00299486
-1.087999,-0.003000991
-1.088999,-0.003010187
-1.089999,-0.003025514
-1.090999,-0.003031645
-1.091999,-0.003040842
-1.092999,-0.003053104
-1.093999,-0.003056169
-1.094999,-0.003065366
-1.095999,-0.003074562
-1.096999,-0.003077628
-1.097999,-0.003086824
-1.098999,-0.003089889
-1.099999,-0.003099086
-1.100999,-0.003099086
-1.101999,-0.003102152
-1.102999,-0.003105217
-1.103999,-0.003102152
-1.104999,-0.003111348
-1.105999,-0.003108283
-1.106999,-0.003108283
-1.107999,-0.003114413
-1.108999,-0.003105217
-1.109999,-0.003108283
-1.110999,-0.003108283
-1.111999,-0.003099086
-1.112999,-0.003102152
-1.113999,-0.003099086
-1.114999,-0.003089889
-1.115999,-0.003092955
-1.116999,-0.003089889
-1.117999,-0.003080693
-1.118999,-0.003080693
-1.119999,-0.003077628
-1.120999,-0.003065366
-1.121999,-0.003071497
-1.122999,-0.003068431
-1.123999,-0.003056169
-1.124999,-0.0030623
-1.125999,-0.0030623
-1.126999,-0.003050038
-1.127999,-0.003056169
-1.128999,-0.003053104
-1.129999,-0.003043907
-1.130999,-0.003046973
-1.131999,-0.003050038
-1.132999,-0.003046973
-1.133999,-0.003043907
-1.134999,-0.003053104
-1.135999,-0.003046973
-1.136999,-0.003043907
-1.137999,-0.003059235
-1.138999,-0.003053104
-1.139999,-0.003056169
-1.140999,-0.0030623
-1.141999,-0.003059235
-1.142999,-0.003065366
-1.143999,-0.003068431
-1.144999,-0.003068431
-1.145999,-0.003080693
-1.146999,-0.003080693
-1.147999,-0.003083759
-1.148999,-0.003089889
-1.149999,-0.003096021
-1.150999,-0.003102152
-1.151999,-0.003102152
-1.152999,-0.003114413
-1.153999,-0.003114413
-1.154999,-0.00312361
-1.155999,-0.003135872
-1.156999,-0.003129741
-1.157999,-0.003145068
-1.158999,-0.003151199
-1.159999,-0.003151199
-1.160999,-0.003163461
-1.161999,-0.003172658
-1.162999,-0.003169592
-1.163999,-0.003184919
-1.164999,-0.003191051
-1.165999,-0.003194116
-1.166999,-0.003209443
-1.167999,-0.003209443
-1.168999,-0.003209443
-1.169999,-0.003230902
-1.170999,-0.003230902
-1.171999,-0.003240098
-1.172999,-0.003249295
-1.173999,-0.00325236
-1.174999,-0.003261557
-1.175999,-0.003273819
-1.176999,-0.003276884
-1.177999,-0.003283015
-1.178999,-0.003295277
-1.179999,-0.003304473
-1.180999,-0.003304473
-1.181999,-0.003322866
-1.182999,-0.003328997
-1.183999,-0.003328997
-1.184999,-0.003344325
-1.185999,-0.003350456
-1.186999,-0.003353521
-1.187999,-0.003368848
-1.188999,-0.003374979
-1.189999,-0.003378045
-1.190999,-0.003393373
-1.191999,-0.003399503
-1.192999,-0.003402569
-1.193999,-0.003420962
-1.194999,-0.003427093
-1.195999,-0.003430158
-1.196999,-0.003445486
-1.197999,-0.003454682
-1.198999,-0.003460813
-1.199999,-0.00347614
-1.200999,-0.003485337
-1.201999,-0.003491468
-1.202999,-0.00350373
-1.203999,-0.003519057
-1.204999,-0.003525188
-1.205999,-0.003540515
-1.206999,-0.003552777
-1.207999,-0.003558908
-1.208999,-0.00357117
-1.209999,-0.003586498
-1.210999,-0.003592629
-1.211999,-0.003614087
-1.212999,-0.003626349
-1.213999,-0.00363248
-1.214999,-0.003653938
-1.215999,-0.003669266
-1.216999,-0.003675397
-1.217999,-0.00369379
-1.218999,-0.003715248
-1.219999,-0.003721379
-1.220999,-0.003745903
-1.221999,-0.00376123
-1.222999,-0.003776558
-1.223999,-0.003794951
-1.224999,-0.003816409
-1.225999,-0.003828671
-1.226999,-0.003853195
-1.227999,-0.003871588
-1.228999,-0.003893046
-1.229999,-0.003911439
-1.230999,-0.003939028
-1.231999,-0.003954356
-1.232999,-0.003985011
-1.233999,-0.0040126
-1.234999,-0.004030993
-1.235999,-0.004064713
-1.236999,-0.004086172
-1.237999,-0.004113761
-1.238999,-0.004153612
-1.239999,-0.004178136
-1.240999,-0.004205726
-1.241999,-0.004242511
-1.242999,-0.004276231
-1.243999,-0.004309952
-1.244999,-0.004352869
-1.245999,-0.004386589
-1.246999,-0.004423374
-1.247999,-0.004466291
-1.248999,-0.004506143
-1.249999,-0.00455519
-1.250999,-0.004604238
-1.251999,-0.004644089
-1.252999,-0.004699268
-1.253999,-0.004751381
-1.254999,-0.004800429
-1.255999,-0.004861739
-1.256999,-0.004923048
-1.257999,-0.004978227
-1.258999,-0.005045668
-1.259999,-0.005113108
-1.260999,-0.005177483
-1.261999,-0.005247989
-1.262999,-0.005330757
-1.263999,-0.005398198
-1.264999,-0.005480966
-1.265999,-0.005569865
-1.266999,-0.005655698
-1.267999,-0.005750729
-1.268999,-0.005839627
-1.269999,-0.005937723
-1.270999,-0.006041949
-1.271999,-0.00614311
-1.272999,-0.006253468
-1.273999,-0.006373021
-1.274999,-0.006483379
-1.275999,-0.006612129
-1.276999,-0.006740879
-1.277999,-0.006872695
-1.278999,-0.007007576
-1.279999,-0.007151654
-1.280999,-0.007298797
-1.281999,-0.007449006
-1.282999,-0.007608411
-1.283999,-0.007767816
-1.284999,-0.007933352
-1.285999,-0.008120347
-1.286999,-0.008292013
-1.287999,-0.008472877
-1.288999,-0.008672133
-1.289999,-0.008865259
-1.290999,-0.009064515
-1.291999,-0.009272968
-1.292999,-0.009484487
-1.293999,-0.009705201
-1.294999,-0.009938178
-1.295999,-0.01015889
-1.296999,-0.010398
-1.297999,-0.01064017
-1.298999,-0.01088541
-1.299999,-0.01113985
-1.300999,-0.01139735
-1.301999,-0.01165485
-1.302999,-0.01193074
-1.303999,-0.0122097
-1.304999,-0.01247333
-1.305999,-0.01277068
-1.306999,-0.0130619
-1.307999,-0.01334393
-1.308999,-0.01364741
-1.309999,-0.01394783
-1.310999,-0.01424212
-1.311999,-0.01455479
-1.312999,-0.01486747
-1.313999,-0.01517402
-1.314999,-0.01549896
-1.315999,-0.01582084
-1.316999,-0.01613658
-1.317999,-0.01647072
-1.318999,-0.01680179
-1.319999,-0.01712367
-1.320999,-0.01746394
-1.321999,-0.01780727
-1.322999,-0.01813221
-1.323999,-0.01848781
-1.324999,-0.01882808
-1.325999,-0.01917448
-1.326999,-0.01952394
-1.327999,-0.01986728
-1.328999,-0.0202198
-1.329999,-0.02057847
-1.330999,-0.02093406
-1.331999,-0.02129886
-1.332999,-0.02166365
-1.333999,-0.02201618
-1.334999,-0.0223779
-1.335999,-0.02274576
-1.336999,-0.02310136
-1.337999,-0.02345696
-1.338999,-0.02382788
-1.339999,-0.02418654
-1.340999,-0.02455133
-1.341999,-0.02491612
-1.342999,-0.02528092
-1.343999,-0.02565184
-1.344999,-0.02602276
-1.345999,-0.02638143
-1.346999,-0.02674622
-1.347999,-0.02712327
-1.348999,-0.02748806
-1.349999,-0.02785899
-1.350999,-0.02822991
-1.351999,-0.0285947
-1.352999,-0.02896869
-1.353999,-0.02934575
-1.354999,-0.02971667
-1.355999,-0.0300784
-1.356999,-0.03045852
-1.357999,-0.03096021
-1.358999,-0.03132806
-1.359999,-0.03169592
-1.360999,-0.03209443
-1.361999,-0.0324623
-1.362999,-0.03286081
-1.363999,-0.03322866
-1.364999,-0.03362718
-1.365999,-0.03399504
-1.366999,-0.03439355
-1.367999,-0.03476141
-1.368999,-0.03515992
-1.369999,-0.03555843
-1.370999,-0.03592629
-1.371999,-0.0363248
-1.372999,-0.03672331
-1.373999,-0.03709117
-1.374999,-0.03748969
-1.375999,-0.03785754
-1.376999,-0.03825606
-1.377999,-0.03865457
-1.378999,-0.03905308
-1.379999,-0.0394516
-1.380999,-0.03981945
-1.381999,-0.04021796
-1.382999,-0.04061648
-1.383999,-0.04101499
-1.384999,-0.04138285
-1.385999,-0.04178136
-1.386999,-0.04217988
-1.387999,-0.04257839
-1.388999,-0.04294625
-1.389999,-0.04337541
-1.390999,-0.04374327
-1.391999,-0.04414178
-1.392999,-0.0445403
-1.393999,-0.04490815
-1.394999,-0.04530666
-1.395999,-0.04570518
-1.396999,-0.04610369
-1.397999,-0.04653286
-1.398999,-0.04693137
-1.399999,-0.04732988
-1.400999,-0.04769774
-1.401999,-0.04812691
-1.402999,-0.04852542
-1.403999,-0.04889328
-1.404999,-0.04932245
-1.405999,-0.04972096
-1.406999,-0.05011947
-1.407999,-0.05051799
-1.408999,-0.0509165
-1.409999,-0.05131501
-1.410999,-0.05174418
-1.411999,-0.05214269
-1.412999,-0.0525412
-1.413999,-0.05293972
-1.414999,-0.05333823
-1.415999,-0.05370609
-1.416999,-0.05413526
-1.417999,-0.05453377
-1.418999,-0.05493228
-1.419999,-0.05536145
-1.420999,-0.05575996
-1.421999,-0.05615847
-1.422999,-0.05655699
-1.423999,-0.05698615
-1.424999,-0.05735401
-1.425999,-0.05775253
-1.426999,-0.05818169
-1.427999,-0.05858021
-1.428999,-0.05900937
-1.429999,-0.05940789
-1.430999,-0.0598064
-1.431999,-0.06020491
-1.432999,-0.06063408
-1.433999,-0.06103259
-1.434999,-0.06146176
-1.435999,-0.06186027
-1.436999,-0.06225879
-1.437999,-0.0626573
-1.438999,-0.06305581
-1.439999,-0.06345432
-1.440999,-0.06388349
-1.441999,-0.064282
-1.442999,-0.06468052
-1.443999,-0.06510969
-1.444999,-0.06550819
-1.445999,-0.06590671
-1.446999,-0.06633588
-1.447999,-0.06676505
-1.448999,-0.06716356
-1.449999,-0.06759273
-1.450999,-0.06799124
-1.451999,-0.0683591
-1.452999,-0.06878826
-1.453999,-0.06918678
-1.454999,-0.06958529
-1.455999,-0.07001445
-1.456999,-0.07044362
-1.457999,-0.07084214
-1.458999,-0.07124065
-1.459999,-0.07166982
-1.460999,-0.07209899
-1.461999,-0.07249749
-1.462999,-0.07289601
-1.463999,-0.07332518
-1.464999,-0.07375435
-1.465999,-0.07418352
-1.466999,-0.07458203
-1.467999,-0.07498054
-1.468999,-0.0754097
-1.469999,-0.07580822
-1.470999,-0.07620674
-1.471999,-0.0766359
-1.472999,-0.07703441
-1.473999,-0.07746358
-1.474999,-0.07786209
-1.475999,-0.0782606
-1.476999,-0.07868978
-1.477999,-0.07908829
-1.478999,-0.0794868
-1.479999,-0.07991596
-1.480999,-0.08037578
-1.481999,-0.0807743
-1.482999,-0.08117282
-1.483999,-0.08163264
-1.484999,-0.08203115
-1.485999,-0.08242966
-1.486999,-0.08288948
-1.487999,-0.083288
-1.488999,-0.08371716
-1.489999,-0.08414634
-1.490999,-0.08454484
-1.491999,-0.08497401
-1.492999,-0.08540318
-1.493999,-0.08580169
-1.494999,-0.08623086
-1.495999,-0.08666003
-1.496999,-0.0870892
-1.497999,-0.08748771
-1.498999,-0.08794753
-1.499999,-0.08807015
-1.499001,-0.08761033
-1.498001,-0.08715051
-1.497001,-0.08666003
-1.496001,-0.0862002
-1.495001,-0.08574038
-1.494001,-0.08528056
-1.493001,-0.08479008
-1.492001,-0.08436092
-1.491001,-0.08387043
-1.490001,-0.08341061
-1.489001,-0.08298145
-1.488001,-0.08249097
-1.487001,-0.08203115
-1.486001,-0.08160198
-1.485001,-0.08111151
-1.484001,-0.08065169
-1.483001,-0.08022251
-1.482001,-0.07970139
-1.481001,-0.07927221
-1.480001,-0.0788737
-1.479001,-0.07835257
-1.478001,-0.0779234
-1.477001,-0.07746358
-1.476001,-0.07700375
-1.475001,-0.07657459
-1.474001,-0.07611477
-1.473001,-0.07562429
-1.472001,-0.07522578
-1.471001,-0.07476595
-1.470001,-0.07430613
-1.469001,-0.07384631
-1.468001,-0.07338648
-1.467001,-0.07292666
-1.466001,-0.07249749
-1.465001,-0.07203767
-1.464001,-0.07157785
-1.463001,-0.07114869
-1.462001,-0.07068887
-1.461001,-0.0702597
-1.460001,-0.06979987
-1.459001,-0.06934005
-1.458001,-0.06891088
-1.457001,-0.06848171
-1.456001,-0.06802189
-1.455001,-0.06759273
-1.454001,-0.06713291
-1.453001,-0.06667308
-1.452001,-0.06624391
-1.451001,-0.06581475
-1.450001,-0.06535492
-1.449001,-0.06492575
-1.448001,-0.06449659
-1.447001,-0.06403676
-1.446001,-0.0636076
-1.445001,-0.06317843
-1.444001,-0.06268796
-1.443001,-0.06228944
-1.442001,-0.06189093
-1.441001,-0.06143111
-1.440001,-0.06103259
-1.439001,-0.06057277
-1.438001,-0.06011295
-1.437001,-0.05971443
-1.436001,-0.05925461
-1.435001,-0.05882544
-1.434001,-0.05839628
-1.433001,-0.05796711
-1.432001,-0.05753794
-1.431001,-0.05710877
-1.430001,-0.05667961
-1.429001,-0.05621978
-1.428001,-0.05579061
-1.427001,-0.05533079
-1.426001,-0.05490163
-1.425001,-0.05450311
-1.424001,-0.05407395
-1.423001,-0.05364478
-1.422001,-0.05324627
-1.421001,-0.0528171
-1.420001,-0.05235728
-1.419001,-0.05195877
-1.418001,-0.05152959
-1.417001,-0.05106977
-1.416001,-0.05067126
-1.415001,-0.05027274
-1.414001,-0.04981292
-1.413001,-0.04941441
-1.412001,-0.04895459
-1.411001,-0.04852542
-1.410001,-0.04815757
-1.409001,-0.0477284
-1.408001,-0.04729923
-1.407001,-0.04687006
-1.406001,-0.04647155
-1.405001,-0.04604238
-1.404001,-0.04564387
-1.403001,-0.04524536
-1.402001,-0.04481619
-1.401001,-0.04441768
-1.400001,-0.04401916
-1.399001,-0.04358999
-1.398001,-0.04319149
-1.397001,-0.04279297
-1.396001,-0.0423638
-1.395001,-0.04196529
-1.394001,-0.04159743
-1.393001,-0.04116827
-1.392001,-0.04076975
-1.391001,-0.04037124
-1.390001,-0.03997273
-1.389001,-0.03957421
-1.388001,-0.03914505
-1.387001,-0.03874653
-1.386001,-0.03837867
-1.385001,-0.03798017
-1.384001,-0.03758165
-1.383001,-0.03718314
-1.382001,-0.03678463
-1.381001,-0.03635546
-1.380001,-0.0359876
-1.379001,-0.03561974
-1.378001,-0.03522123
-1.377001,-0.03485337
-1.376001,-0.03445486
-1.375001,-0.034087
-1.374001,-0.03368849
-1.373001,-0.03332063
-1.372001,-0.03292212
-1.371001,-0.03255426
-1.370001,-0.0321864
-1.369001,-0.03178789
-1.368001,-0.03142003
-1.367001,-0.03105217
-1.366001,-0.03065366
-1.365001,-0.0302858
-1.364001,-0.02991794
-1.363001,-0.02955008
-1.362001,-0.02918223
-1.361001,-0.02881437
-1.360001,-0.02844651
-1.359001,-0.02810931
-1.358001,-0.02774145
-1.357001,-0.02740425
-1.356001,-0.02703639
-1.355001,-0.02669919
-1.354001,-0.02633133
-1.353001,-0.02596347
-1.352001,-0.02562627
-1.351001,-0.02525841
-1.350001,-0.02492121
-1.349001,-0.024584
-1.348001,-0.02421615
-1.347001,-0.02387894
-1.346001,-0.02354174
-1.345001,-0.02320454
-1.344001,-0.02286733
-1.343001,-0.02253013
-1.342001,-0.02219293
-1.341001,-0.02185572
-1.340001,-0.02151852
-1.339001,-0.02121197
-1.338001,-0.02087477
-1.337001,-0.02056822
-1.336001,-0.02023102
-1.335001,-0.01992447
-1.334001,-0.01961792
-1.333001,-0.01931137
-1.332001,-0.01900483
-1.331001,-0.01869828
-1.330001,-0.01836107
-1.329001,-0.01808518
-1.328001,-0.01777863
-1.327001,-0.01747208
-1.326001,-0.01716554
-1.325001,-0.01685899
-1.324001,-0.01658309
-1.323001,-0.01627655
-1.322001,-0.01600065
-1.321001,-0.0158239
-1.320001,-0.01554801
-1.319001,-0.01527518
-1.318001,-0.01500542
-1.317001,-0.01474179
-1.316001,-0.01447509
-1.315001,-0.01421453
-1.314001,-0.01395703
-1.313001,-0.01369339
-1.312001,-0.01343896
-1.311001,-0.01319372
-1.310001,-0.01293929
-1.309001,-0.01270324
-1.308001,-0.01247333
-1.307001,-0.01222809
-1.306001,-0.01200431
-1.305001,-0.01176827
-1.304001,-0.01152916
-1.303001,-0.01131151
-1.302001,-0.0110908
-1.301001,-0.01086395
-1.300001,-0.01065857
-1.299001,-0.01045318
-1.298001,-0.01024166
-1.297001,-0.0100424
-1.296001,-0.009843147
-1.295001,-0.009640826
-1.294001,-0.009459963
-1.293001,-0.009266837
-1.292001,-0.009079843
-1.291001,-0.008914307
-1.290001,-0.008730377
-1.289001,-0.008561776
-1.288001,-0.008393174
-1.287001,-0.008227638
-1.286001,-0.008062102
-1.285001,-0.007908828
-1.284001,-0.007746358
-1.283001,-0.00760228
-1.282001,-0.007464333
-1.281001,-0.007320256
-1.280001,-0.007179243
-1.279001,-0.007047428
-1.278001,-0.00690335
-1.277001,-0.006783796
-1.276001,-0.006658111
-1.275001,-0.006538557
-1.274001,-0.006422069
-1.273001,-0.006308646
-1.272001,-0.006195223
-1.271001,-0.006087931
-1.270001,-0.005983705
-1.269001,-0.005882544
-1.268001,-0.005781383
-1.267001,-0.00569555
-1.266001,-0.005594389
-1.265001,-0.005502424
-1.264001,-0.005422722
-1.263001,-0.005330757
-1.262001,-0.005247989
-1.261001,-0.005174418
-1.260001,-0.00509165
-1.259001,-0.005018078
-1.258001,-0.004950637
-1.257001,-0.004877066
-1.256001,-0.004809625
-1.255001,-0.004748316
-1.254001,-0.00467781
-1.253001,-0.0046165
-1.252001,-0.004564387
-1.251001,-0.004500012
-1.250001,-0.004444833
-1.249001,-0.004395785
-1.248001,-0.004337541
-1.247001,-0.004285428
-1.246001,-0.004242511
-1.245001,-0.004187332
-1.244001,-0.00414135
-1.243001,-0.004098434
-1.242001,-0.004055517
-1.241001,-0.004009534
-1.240001,-0.003972749
-1.239001,-0.003932897
-1.238001,-0.00388998
-1.237001,-0.00385626
-1.236001,-0.003819474
-1.235001,-0.003779623
-1.234001,-0.003748968
-1.233001,-0.003712183
-1.232001,-0.003681528
-1.231001,-0.003653938
-1.230001,-0.003614087
-1.229001,-0.003589563
-1.228001,-0.003558908
-1.227001,-0.003522123
-1.226001,-0.00350373
-1.225001,-0.00347614
-1.224001,-0.003445486
-1.223001,-0.003427093
-1.222001,-0.003399503
-1.221001,-0.003368848
-1.220001,-0.003350456
-1.219001,-0.003325932
-1.218001,-0.003298342
-1.217001,-0.003283015
-1.216001,-0.003255426
-1.215001,-0.003230902
-1.214001,-0.003215575
-1.213001,-0.003191051
-1.212001,-0.003166527
-1.211001,-0.003151199
-1.210001,-0.003135872
-1.209001,-0.003111348
-1.208001,-0.003096021
-1.207001,-0.003074562
-1.206001,-0.003050038
-1.205001,-0.003043907
-1.204001,-0.003019383
-1.203001,-0.003000991
-1.202001,-0.002988729
-1.201001,-0.002970336
-1.200001,-0.002948877
-1.199001,-0.002939681
-1.198001,-0.002918222
-1.197001,-0.002902895
-1.196001,-0.002890633
-1.195001,-0.00287224
-1.194001,-0.002856913
-1.193001,-0.002844651
-1.192001,-0.002832389
-1.191001,-0.002813996
-1.190001,-0.002801734
-1.189001,-0.002786407
-1.188001,-0.002768014
-1.187001,-0.002758818
-1.186001,-0.002746556
-1.185001,-0.002728163
-1.184001,-0.002718966
-1.183001,-0.002703639
-1.182001,-0.002688312
-1.181001,-0.002679115
-1.180001,-0.002666853
-1.179001,-0.002651526
-1.178001,-0.002639264
-1.177001,-0.002627002
-1.176001,-0.002611674
-1.175001,-0.002599412
-1.174001,-0.002593281
-1.173001,-0.002577954
-1.172001,-0.002565692
-1.171001,-0.00255343
-1.170001,-0.002541168
-1.169001,-0.002528906
-1.168001,-0.00251971
-1.167001,-0.002504382
-1.166001,-0.002495186
-1.165001,-0.00248599
-1.164001,-0.002467597
-1.163001,-0.0024584
-1.162001,-0.002452269
-1.161001,-0.002433876
-1.160001,-0.002427745
-1.159001,-0.002418549
-1.158001,-0.002400156
-1.157001,-0.002397091
-1.156001,-0.002381763
-1.155001,-0.002366436
-1.154001,-0.002366436
-1.153001,-0.002351108
-1.152001,-0.002338846
-1.151001,-0.002335781
-1.150001,-0.002320454
-1.149001,-0.002308191
-1.148001,-0.002302061
-1.147001,-0.002289799
-1.146001,-0.002277537
-1.145001,-0.00226834
-1.144001,-0.002262209
-1.143001,-0.002246882
-1.142001,-0.002237685
-1.141001,-0.002231555
-1.140001,-0.002216227
-1.139001,-0.002207031
-1.138001,-0.0022009
-1.137001,-0.002185572
-1.136001,-0.002176376
-1.135001,-0.002170245
-1.134001,-0.002157983
-1.133001,-0.002145721
-1.132001,-0.002142655
-1.131001,-0.002130394
-1.130001,-0.002118132
-1.129001,-0.002112001
-1.128001,-0.002096673
-1.127001,-0.002087477
-1.126001,-0.002081346
-1.125001,-0.002066019
-1.124001,-0.002056822
-1.123001,-0.002047626
-1.122001,-0.002035364
-1.121001,-0.002029233
-1.120001,-0.002020036
-1.119001,-0.002007774
-1.118001,-0.002001643
-1.117001,-0.001992447
-1.116001,-0.001980185
-1.115001,-0.001970988
-1.114001,-0.001961792
-1.113001,-0.001952596
-1.112001,-0.001940334
-1.111001,-0.001934203
-1.110001,-0.001918875
-1.109001,-0.001912744
-1.108001,-0.001900482
-1.107001,-0.00188822
-1.106001,-0.00188209
-1.105001,-0.001869828
-1.104001,-0.001857566
-1.103001,-0.001848369
-1.102001,-0.001836107
-1.101001,-0.001826911
-1.100001,-0.001817714
-1.099001,-0.001808518
-1.098001,-0.001796256
-1.097001,-0.001783994
-1.096001,-0.001777863
-1.095001,-0.001762536
-1.094001,-0.001753339
-1.093001,-0.001747208
-1.092001,-0.001734946
-1.091001,-0.00172575
-1.090001,-0.001716554
-1.089001,-0.001701226
-1.088001,-0.001695095
-1.087001,-0.001685899
-1.086001,-0.001670571
-1.085001,-0.001661375
-1.084001,-0.001652178
-1.083001,-0.001639916
-1.082001,-0.00163072
-1.081001,-0.001621523
-1.080001,-0.001609262
-1.079001,-0.001600065
-1.078001,-0.001622855
-1.077001,-0.001614578
-1.076001,-0.001604156
-1.075001,-0.001594039
-1.074001,-0.001581164
-1.073001,-0.001572274
-1.072001,-0.001564304
-1.071001,-0.001552349
-1.070001,-0.001544379
-1.069001,-0.001531197
-1.068001,-0.001516483
-1.067001,-0.00151403
-1.066001,-0.001502075
-1.065001,-0.001488893
-1.064001,-0.001480617
-1.063001,-0.001470807
-1.062001,-0.001458545
-1.061001,-0.001449962
-1.060001,-0.001440152
-1.059001,-0.001428197
-1.058001,-0.001416548
-1.057001,-0.001407965
-1.056001,-0.001399994
-1.055001,-0.001383441
-1.054001,-0.001379762
-1.053001,-0.0013675
-1.052001,-0.00135156
-1.051001,-0.001348494
-1.050001,-0.0013347
-1.049001,-0.001323051
-1.048001,-0.00131692
-1.047001,-0.001301592
-1.046001,-0.001291783
-1.045001,-0.001282893
-1.044001,-0.001268792
-1.043001,-0.001261128
-1.042001,-0.001251932
-1.041001,-0.001237217
-1.040001,-0.001232313
-1.039001,-0.001220051
-1.038001,-0.001206562
-1.037001,-0.001199818
-1.036001,-0.001187863
-1.035001,-0.001176214
-1.034001,-0.001170083
-1.033001,-0.001156595
-1.032001,-0.001144027
-1.031001,-0.001139122
-1.030001,-0.001125021
-1.029001,-0.001114904
-1.028001,-0.001106321
-1.027001,-0.001095592
-1.026001,-0.001083943
-1.025001,-0.001076892
-1.024001,-0.00106555
-1.023001,-0.001053595
-1.022001,-0.001046851
-1.021001,-0.001036735
-1.020001,-0.001020488
-1.019001,-0.001019261
-1.018001,-0.00100516
-1.017001,-0.0009910589
-1.016001,-0.0009892196
-1.015001,-0.0009754249
-1.014001,-0.0009643892
-1.013001,-0.0009625499
-1.012001,-0.0009459963
-1.011001,-0.0009358802
-1.010001,-0.0009328147
-1.009001,-0.0009187135
-1.008001,-0.0009110498
-1.007001,-0.0009052254
-1.006001,-0.0008923503
-1.005001,-0.0008846867
-1.004001,-0.0008745705
-1.003001,-0.0008662938
-1.002001,-0.0008577104
-1.001001,-0.000849127
-1.000001,-0.0008387044
-0.9990008,-0.0008301211
-0.9980009,-0.0008249097
-0.9970009,-0.0008141805
-0.9960009,-0.0008022251
-0.9950009,-0.0007991597
-0.9940009,-0.0007862847
-0.9930009,-0.0007798471
-0.9920009,-0.0007740227
-0.9910009,-0.0007617608
-0.9900008,-0.0007550167
-0.9890009,-0.0007479661
-0.9880009,-0.0007360107
-0.9870009,-0.000728347
-0.9860009,-0.0007231357
-0.9850008,-0.000709341
-0.9840009,-0.000702597
-0.9830009,-0.0006976922
-0.9820009,-0.0006838975
-0.9810008,-0.0006805255
-0.9800009,-0.0006731683
-0.9790009,-0.0006602933
-0.9780009,-0.0006563082
-0.9770009,-0.0006474183
-0.9760008,-0.000636076
-0.9750009,-0.0006293319
-0.9740009,-0.0006222813
-0.9730009,-0.0006100194
-0.9720009,-0.0006029688
-0.9710009,-0.0005983706
-0.9700009,-0.0005854955
-0.9690009,-0.0005805907
-0.9680009,-0.0005738467
-0.9670008,-0.0005606651
-0.9660009,-0.0005554538
-0.9650009,-0.0005487097
-0.9640009,-0.0005364478
-0.9630009,-0.0005309299
-0.9620008,-0.0005241859
-0.9610009,-0.0005097781
-0.9600009,-0.0005070192
-0.9590009,-0.0005005816
-0.9580009,-0.0004864805
-0.9570009,-0.0004843346
-0.9560009,-0.0004754447
-0.9550009,-0.0004644089
-0.9540009,-0.0004607304
-0.9530008,-0.0004512274
-0.9520009,-0.0004408048
-0.9510009,-0.0004362065
-0.9500009,-0.0004291559
-0.9490009,-0.0004175071
-0.9480008,-0.0004132154
-0.9470009,-0.0004076975
-0.9460009,-0.0003954356
-0.9450009,-0.0003926767
-0.9440009,-0.0003840933
-0.9430009,-0.0003739772
-0.9420009,-0.000369379
-0.9410009,-0.0003607956
-0.9400009,-0.0003506796
-0.9390008,-0.0003482272
-0.9380009,-0.0003384176
-0.9370009,-0.0003307539
-0.9360009,-0.0003270753
-0.9350009,-0.0003172658
-0.9340008,-0.0003099086
-0.9330009,-0.0003050039
-0.9320009,-0.0002976467
-0.9310009,-0.0002905961
-0.9300008,-0.000286611
-0.9290009,-0.0002795603
-0.9280009,-0.0002715901
-0.9270009,-0.0002669919
-0.9260009,-0.0002611674
-0.9250008,-0.000255343
-0.9240009,-0.0002507448
-0.9230009,-0.000245227
-0.9220009,-0.0002375632
-0.9210009,-0.0002341912
-0.9200009,-0.0002302061
-0.9190009,-0.0002243817
-0.9180009,-0.00022009
-0.9170009,-0.0002179441
-0.9160008,-0.0002115066
-0.9150009,-0.0002093608
-0.9140009,-0.000204456
-0.9130009,-0.0002004709
-0.9120009,-0.0001974054
-0.9110008,-0.0001921941
-0.9100009,-0.0001900483
-0.9090009,-0.0001872893
-0.9080009,-0.0001814649
-0.9070009,-0.0001817715
-0.9060009,-0.0001780929
-0.9050009,-0.0001731881
-0.9040009,-0.000172575
-0.9030009,-0.0001688964
-0.9020008,-0.0001649113
-0.9010009,-0.000163072
-0.9000009,-0.0001609262
-0.8990009,-0.0001569411
-0.8980009,-0.0001563279
-0.8970008,-0.0001520363
-0.8960009,-0.000147438
-0.8950009,-0.000146825
-0.8940009,-0.0001431464
-0.8930008,-0.000141011
-0.8920009,-0.0001402447
-0.8910009,-0.000136842
-0.8900009,-0.0001322131
-0.8890009,-0.0001296381
-0.8880008,-0.000127339
-0.8870009,-0.0001225568
-0.8860009,-0.00011943
-0.8850009,-0.000116855
-0.8840009,-0.0001108467
-0.8830009,-0.0001086702
-0.8820009,-0.0001060645
-0.8810009,-0.000100424
-0.8800009,-9.787969E-05
-0.8790008,-9.432372E-05
-0.8780009,-8.923503E-05
-0.8770009,-8.567907E-05
-0.8760009,-8.083561E-05
-0.8750009,-7.556297E-05
-0.8740008,-7.41222E-05
-0.8730009,-6.799123E-05
-0.8720009,-6.284122E-05
-0.8710009,-5.983705E-05
-0.8700009,-5.398198E-05
-0.8690009,-4.877066E-05
-0.8680009,-4.536797E-05
-0.8670009,-3.966617E-05
-0.8660009,-3.454682E-05
-0.8650008,-3.142003E-05
-0.8640009,-2.525841E-05
-0.8630009,-1.940334E-05
-0.8620009,-1.581672E-05
-0.8610009,-9.992305E-06
-0.8600008,-2.788422E-06
-0.8590009,1.779147E-06
-0.8580009,6.377371E-06
-0.8570009,1.379584E-05
-0.8560008,1.89152E-05
-0.8550009,2.385062E-05
-0.8540009,3.249528E-05
-0.8530009,3.697089E-05
-0.8520009,4.408281E-05
-0.8510008,5.248223E-05
-0.8500009,5.683522E-05
-0.8490009,6.474416E-05
-0.8480009,7.240786E-05
-0.8470009,7.749657E-05
-0.8460009,8.681563E-05
-0.8450009,9.242546E-05
-0.8440009,9.981328E-05
-0.8430009,0.0001081207
-0.8420008,0.0001146196
-0.8410009,0.0001227431
-0.8400009,0.0001316636
-0.8390009,0.0001392047
-0.8380009,0.0001467458
-0.8370008,0.0001555744
-0.8360009,0.0001646482
-0.8350009,0.0001728944
-0.8340009,0.0001813245
-0.8330009,0.0001905209
-0.8320009,0.0001982153
-0.8310009,0.0002085153
-0.8300009,0.0002177424
-0.8290009,0.0002244865
-0.8280008,0.000236871
-0.8270009,0.0002443815
-0.8260009,0.0002527502
-0.8250009,0.0002647362
-0.8240009,0.0002727065
-0.8230008,0.0002863278
-0.8220009,0.0002973635
-0.8210009,0.0003047207
-0.8200009,0.0003160629
-0.8190009,0.0003286314
-0.8180009,0.0003375213
-0.8170009,0.0003476374
-0.8160009,0.0003580601
-0.8150009,0.0003672565
-0.8140008,0.0003776792
-0.8130009,0.0003899411
-0.8120009,0.0003985244
-0.8110009,0.0004098667
-0.8100009,0.0004205959
-0.8090008,0.000430712
-0.8080009,0.0004420543
-0.8070009,0.0004540097
-0.8060009,0.000462593
-0.8050008,0.0004742419
-0.8040009,0.0004861972
-0.8030009,0.0004957002
-0.8020009,0.0005070425
-0.8010009,0.0005177717
-0.8000008,0.0004613668
-0.8009992,0.0003850363
-0.8019992,0.000322807
-0.8029991,0.0002682414
-0.8039991,0.0002188871
-0.8049992,0.0001738245
-0.8059992,0.0001309078
-0.8069991,9.166961E-05
-0.8079991,5.085752E-05
-0.8089992,1.532858E-05
-0.8099992,-1.921941E-05
-0.8109992,-4.975162E-05
-0.8119991,-8.169394E-05
-0.8129991,-0.0001107854
-0.8139992,-0.0001374857
-0.8149992,-0.0001655042
-0.8159992,-0.0001905799
-0.8169991,-0.0002151037
-0.8179991,-0.0002392291
-0.8189992,-0.0002646419
-0.8199992,-0.0002853033
-0.8209991,-0.0003040842
-0.8219991,-0.0003246229
-0.8229992,-0.000344242
-0.8239992,-0.0003635546
-0.8249992,-0.0003840933
-0.8259991,-0.00040126
-0.8269991,-0.0004193464
-0.8279992,-0.0004383524
-0.8289992,-0.0004536798
-0.8299991,-0.0004702334
-0.8309991,-0.0004877066
-0.8319992,-0.0005024209
-0.8329992,-0.0005189746
-0.8339992,-0.0005346085
-0.8349991,-0.0005480966
-0.8359991,-0.0005625045
-0.8369992,-0.000579058
-0.8379992,-0.0005907068
-0.8389992,-0.0006060342
-0.8399991,-0.0006201355
-0.8409991,-0.0006314777
-0.8419992,-0.0006458855
-0.8429992,-0.0006581475
-0.8439991,-0.0006688767
-0.8449991,-0.0006829779
-0.8459992,-0.0006961594
-0.8469992,-0.000705969
-0.8479992,-0.0007176179
-0.8489991,-0.0007298798
-0.8499991,-0.0007403024
-0.8509992,-0.000753484
-0.8519992,-0.0007645197
-0.8529992,-0.0007731031
-0.8539991,-0.0007850585
-0.8549991,-0.0007964008
-0.8559992,-0.0008055972
-0.8569992,-0.0008166329
-0.8579991,-0.0008273621
-0.8589991,-0.0008359455
-0.8599992,-0.0008466747
-0.8609992,-0.0008570973
-0.8619992,-0.0008656807
-0.8629991,-0.0008757967
-0.8639991,-0.0008856063
-0.8649992,-0.0008948027
-0.8659992,-0.0009046123
-0.8669991,-0.0009138088
-0.8679991,-0.0009226986
-0.8689992,-0.0009322016
-0.8699992,-0.0009413981
-0.8709992,-0.000950288
-0.8719991,-0.0009588713
-0.8729991,-0.0009680677
-0.8739992,-0.0009754249
-0.8749992,-0.0009858476
-0.8759992,-0.0009953505
-0.8769991,-0.001002708
-0.8779991,-0.001011291
-0.8789992,-0.001021407
-0.8799992,-0.001026925
-0.8809991,-0.001037961
-0.8819991,-0.001047464
-0.8829992,-0.001053288
-0.8839992,-0.001063711
-0.8849992,-0.001071988
-0.8859991,-0.001077812
-0.8869991,-0.001087928
-0.8879992,-0.001096818
-0.8889992,-0.001103562
-0.8899992,-0.001112452
-0.8909991,-0.001119809
-0.8919991,-0.001130232
-0.8929992,-0.001136363
-0.8939992,-0.001145866
-0.8949991,-0.001151997
-0.8959991,-0.001159354
-0.8969992,-0.001171003
-0.8979992,-0.001175908
-0.8989992,-0.001186024
-0.8999991,-0.001196446
-0.9009991,-0.001201045
-0.9019992,-0.001210854
-0.9029992,-0.001220357
-0.9039991,-0.001224955
-0.9049991,-0.001235071
-0.9059991,-0.001245187
-0.9069992,-0.001249786
-0.9079992,-0.001259902
-0.9089991,-0.001269098
-0.9099991,-0.001276455
-0.9109992,-0.001284119
-0.9119992,-0.001293622
-0.9129992,-0.001300979
-0.9139991,-0.00130711
-0.9149991,-0.001319372
-0.9159992,-0.00132489
-0.9169992,-0.0013347
-0.9179991,-0.001345429
-0.9189991,-0.001350947
-0.9199992,-0.001360756
-0.9209992,-0.001370872
-0.9219992,-0.00137639
-0.9229991,-0.001387732
-0.9239991,-0.001396316
-0.9249992,-0.001402447
-0.9259992,-0.001413176
-0.9269992,-0.001422985
-0.9279991,-0.001428197
-0.9289991,-0.001440765
-0.9299992,-0.001448429
-0.9309992,-0.001454866
-0.9319991,-0.001465902
-0.9329991,-0.001475405
-0.9339992,-0.001481536
-0.9349992,-0.001494718
-0.9359992,-0.001502995
-0.9369991,-0.001509739
-0.9379991,-0.001522614
-0.9389992,-0.001529971
-0.9399992,-0.001538248
-0.9409992,-0.001549283
-0.9419991,-0.00155756
-0.9429991,-0.001567676
-0.9439992,-0.001577179
-0.9449992,-0.001584843
-0.9459991,-0.001595266
-0.9469991,-0.001605075
-0.9479992,-0.001614272
-0.9489992,-0.001622855
-0.9499992,-0.001633278
-0.9509991,-0.001644007
-0.9519991,-0.001651364
-0.9529992,-0.001663932
-0.9539992,-0.001673435
-0.9549991,-0.001681406
-0.9559991,-0.001693974
-0.9569992,-0.001701331
-0.9579992,-0.001712061
-0.9589992,-0.00172279
-0.9599991,-0.00173168
-0.9609991,-0.001744248
-0.9619992,-0.001754364
-0.9629992,-0.001760802
-0.9639992,-0.001772144
-0.9649991,-0.001784406
-0.9659991,-0.001791763
-0.9669992,-0.001801879
-0.9679992,-0.001814141
-0.9689991,-0.001822724
-0.9699991,-0.001833454
-0.9709992,-0.001844489
-0.9719992,-0.001854299
-0.9729992,-0.001863189
-0.9739991,-0.00187637
-0.9749991,-0.001885873
-0.9759992,-0.00189323
-0.9769992,-0.001907638
-0.9779992,-0.001917141
-0.9789991,-0.001923579
-0.9799991,-0.001939826
-0.9809992,-0.001947796
-0.9819992,-0.001954847
-0.9829991,-0.00197232
-0.9839991,-0.001977531
-0.9849992,-0.001988567
-0.9859992,-0.002002055
-0.9869992,-0.00200788
-0.9879991,-0.002019222
-0.9889991,-0.002032097
-0.9899992,-0.002038228
-0.9909992,-0.002051409
-0.9919991,-0.002061832
-0.9929991,-0.002068576
-0.9939992,-0.002080838
-0.9949992,-0.00209218
-0.9959992,-0.002099844
-0.9969991,-0.002111799
-0.9979991,-0.002123142
-0.9989992,-0.00212682
-0.9999992,-0.002141228
-1.000999,-0.002151344
-1.001999,-0.002156249
-1.002999,-0.002169737
-1.003999,-0.002180466
-1.004999,-0.002185677
-1.005999,-0.002200085
-1.006999,-0.002209282
-1.007999,-0.002214799
-1.008999,-0.002229514
-1.009999,-0.002234725
-1.010999,-0.002241469
-1.011999,-0.002258636
-1.012999,-0.002263847
-1.013999,-0.002271818
-1.014999,-0.002283773
-1.015999,-0.002290517
-1.016999,-0.002300326
-1.017999,-0.002311056
-1.018999,-0.00231688
-1.019999,-0.002326996
-1.020999,-0.002337112
-1.021999,-0.002343856
-1.022999,-0.002354892
-1.023999,-0.002360716
-1.024999,-0.002373898
-1.025999,-0.002380029
-1.026999,-0.002386467
-1.027999,-0.002398728
-1.028999,-0.00240302
-1.029999,-0.002414976
-1.030999,-0.002424479
-1.031999,-0.002427237
-1.032999,-0.002441645
-1.033999,-0.002448083
-1.034999,-0.002454827
-1.035999,-0.002468622
-1.036999,-0.002475979
-1.037999,-0.002480577
-1.038999,-0.002494371
-1.039999,-0.002498357
-1.040999,-0.002507553
-1.041999,-0.0025238
-1.042999,-0.002529012
-1.043999,-0.002536675
-1.044999,-0.00255139
-1.045999,-0.002554761
-1.046999,-0.00256733
-1.047999,-0.002580512
-1.048999,-0.002586029
-1.049999,-0.002598598
-1.050999,-0.00260994
-1.051999,-0.002615458
-1.052999,-0.002630786
-1.053999,-0.002641515
-1.054999,-0.002648259
-1.055999,-0.00266328
-1.056999,-0.002674929
-1.057999,-0.002680753
-1.058999,-0.002697
-1.059999,-0.002707116
-1.060999,-0.002715086
-1.061999,-0.002728574
-1.062999,-0.002742369
-1.063999,-0.002748806
-1.064999,-0.002763521
-1.065999,-0.002778848
-1.066999,-0.00278222
-1.067999,-0.002802146
-1.068999,-0.002813488
-1.069999,-0.002821152
-1.070999,-0.002838012
-1.071999,-0.002846289
-1.072999,-0.002855179
-1.073999,-0.002871733
-1.074999,-0.002881542
-1.075999,-0.002890125
-1.076999,-0.002905453
-1.077999,-0.002914956
-1.078999,-0.002921087
-1.079999,-0.002937027
-1.080999,-0.002946837
-1.081999,-0.002952968
-1.082999,-0.002967682
-1.083999,-0.002977185
-1.084999,-0.002984236
-1.085999,-0.002997111
-1.086999,-0.002970336
-1.087999,-0.002976467
-1.088999,-0.002988729
-1.089999,-0.002991794
-1.090999,-0.002997925
-1.091999,-0.003010187
-1.092999,-0.003013253
-1.093999,-0.003019383
-1.094999,-0.00302858
-1.095999,-0.003031645
-1.096999,-0.003037777
-1.097999,-0.003046973
-1.098999,-0.003043907
-1.099999,-0.003046973
-1.100999,-0.003053104
-1.101999,-0.003050038
-1.102999,-0.003053104
-1.103999,-0.003056169
-1.104999,-0.003050038
-1.105999,-0.003053104
-1.106999,-0.003056169
-1.107999,-0.003046973
-1.108999,-0.003053104
-1.109999,-0.003050038
-1.110999,-0.003040842
-1.111999,-0.003043907
-1.112999,-0.003043907
-1.113999,-0.003034711
-1.114999,-0.003034711
-1.115999,-0.003031645
-1.116999,-0.003022449
-1.117999,-0.003022449
-1.118999,-0.003025514
-1.119999,-0.003010187
-1.120999,-0.003013253
-1.121999,-0.003010187
-1.122999,-0.003004056
-1.123999,-0.003007122
-1.124999,-0.003004056
-1.125999,-0.002997925
-1.126999,-0.00299486
-1.127999,-0.00299486
-1.128999,-0.002991794
-1.129999,-0.00299486
-1.130999,-0.002991794
-1.131999,-0.002988729
-1.132999,-0.00299486
-1.133999,-0.002991794
-1.134999,-0.002991794
-1.135999,-0.002997925
-1.136999,-0.00299486
-1.137999,-0.002997925
-1.138999,-0.003004056
-1.139999,-0.003000991
-1.140999,-0.003007122
-1.141999,-0.003013253
-1.142999,-0.003010187
-1.143999,-0.003016318
-1.144999,-0.003025514
-1.145999,-0.003022449
-1.146999,-0.00302858
-1.147999,-0.003037777
-1.148999,-0.003034711
-1.149999,-0.003046973
-1.150999,-0.003056169
-1.151999,-0.003046973
-1.152999,-0.003065366
-1.153999,-0.003071497
-1.154999,-0.003068431
-1.155999,-0.003086824
-1.156999,-0.003089889
-1.157999,-0.003086824
-1.158999,-0.003105217
-1.159999,-0.003108283
-1.160999,-0.003111348
-1.161999,-0.003120545
-1.162999,-0.003126675
-1.163999,-0.003132806
-1.164999,-0.003145068
-1.165999,-0.003154265
-1.166999,-0.003151199
-1.167999,-0.003172658
-1.168999,-0.003175723
-1.169999,-0.003178789
-1.170999,-0.003194116
-1.171999,-0.003200247
-1.172999,-0.003200247
-1.173999,-0.00321864
-1.174999,-0.003221706
-1.175999,-0.003227836
-1.176999,-0.003237033
-1.177999,-0.003249295
-1.178999,-0.00325236
-1.179999,-0.003264622
-1.180999,-0.003276884
-1.181999,-0.003276884
-1.182999,-0.003286081
-1.183999,-0.003304473
-1.184999,-0.003307539
-1.185999,-0.003316735
-1.186999,-0.003328997
-1.187999,-0.003332063
-1.188999,-0.003341259
-1.189999,-0.003353521
-1.190999,-0.003356587
-1.191999,-0.003371914
-1.192999,-0.00338111
-1.193999,-0.003387242
-1.194999,-0.003399503
-1.195999,-0.003411765
-1.196999,-0.003417896
-1.197999,-0.003430158
-1.198999,-0.00344242
-1.199999,-0.003451617
-1.200999,-0.003463879
-1.201999,-0.00347614
-1.202999,-0.003482271
-1.203999,-0.003497599
-1.204999,-0.003509861
-1.205999,-0.003515992
-1.206999,-0.003534385
-1.207999,-0.003549712
-1.208999,-0.003558908
-1.209999,-0.00357117
-1.210999,-0.003583432
-1.211999,-0.00359876
-1.212999,-0.003611021
-1.213999,-0.003629415
-1.214999,-0.003638611
-1.215999,-0.003657004
-1.216999,-0.003672331
-1.217999,-0.003687659
-1.218999,-0.003702986
-1.219999,-0.003724444
-1.220999,-0.003739772
-1.221999,-0.003755099
-1.222999,-0.003776558
-1.223999,-0.003794951
-1.224999,-0.003810278
-1.225999,-0.003831736
-1.226999,-0.00385626
-1.227999,-0.003874653
-1.228999,-0.003902242
-1.229999,-0.003923701
-1.230999,-0.003942094
-1.231999,-0.003969683
-1.232999,-0.003997272
-1.233999,-0.004018731
-1.234999,-0.00404632
-1.235999,-0.00408004
-1.236999,-0.004101499
-1.237999,-0.004135219
-1.238999,-0.004168939
-1.239999,-0.004193463
-1.240999,-0.004230249
-1.241999,-0.004267035
-1.242999,-0.00429769
-1.243999,-0.004340607
-1.244999,-0.004377393
-1.245999,-0.004420309
-1.246999,-0.00446016
-1.247999,-0.004503077
-1.248999,-0.00455519
-1.249999,-0.004591976
-1.250999,-0.004647155
-1.251999,-0.004696202
-1.252999,-0.00474525
-1.253999,-0.00480656
-1.254999,-0.004858673
-1.255999,-0.004916917
-1.256999,-0.004987423
-1.257999,-0.005042602
-1.258999,-0.005110043
-1.259999,-0.005183614
-1.260999,-0.00525412
-1.261999,-0.005330757
-1.262999,-0.005413526
-1.263999,-0.005487097
-1.264999,-0.005575996
-1.265999,-0.005671026
-1.266999,-0.00575686
-1.267999,-0.005854954
-1.268999,-0.00595305
-1.269999,-0.006054211
-1.270999,-0.006161503
-1.271999,-0.006277991
-1.272999,-0.006385284
-1.273999,-0.006507902
-1.274999,-0.006630522
-1.275999,-0.006753141
-1.276999,-0.006894153
-1.277999,-0.007032101
-1.278999,-0.007170047
-1.279999,-0.007326386
-1.280999,-0.007482726
-1.281999,-0.00762987
-1.282999,-0.007801536
-1.283999,-0.007970138
-1.284999,-0.00813874
-1.285999,-0.008322668
-1.286999,-0.008518859
-1.287999,-0.008696658
-1.288999,-0.008902045
-1.289999,-0.009104366
-1.290999,-0.009300557
-1.291999,-0.009524337
-1.292999,-0.009745052
-1.293999,-0.009962701
-1.294999,-0.01020487
-1.295999,-0.01043479
-1.296999,-0.01068003
-1.297999,-0.01092833
-1.298999,-0.0111797
-1.299999,-0.01144026
-1.300999,-0.0117039
-1.301999,-0.01197059
-1.302999,-0.01224342
-1.303999,-0.01252238
-1.304999,-0.01281053
-1.305999,-0.01309256
-1.306999,-0.01338685
-1.307999,-0.01368726
-1.308999,-0.01397542
-1.309999,-0.01428503
-1.310999,-0.01459465
-1.311999,-0.01490119
-1.312999,-0.01522001
-1.313999,-0.01553575
-1.314999,-0.01585149
-1.315999,-0.01619176
-1.316999,-0.01651364
-1.317999,-0.01683858
-1.318999,-0.01718498
-1.319999,-0.01751605
-1.320999,-0.01785325
-1.321999,-0.01821191
-1.322999,-0.01854605
-1.323999,-0.01889245
-1.324999,-0.01924805
-1.325999,-0.01958832
-1.326999,-0.01994085
-1.327999,-0.02030564
-1.328999,-0.02065204
-1.329999,-0.02100457
-1.330999,-0.02136323
-1.331999,-0.02171883
-1.332999,-0.02207136
-1.333999,-0.02243615
-1.334999,-0.02279481
-1.335999,-0.02314734
-1.336999,-0.0235152
-1.337999,-0.02387693
-1.338999,-0.02423252
-1.339999,-0.02460345
-1.340999,-0.0249805
-1.341999,-0.02533303
-1.342999,-0.02570395
-1.343999,-0.02606262
-1.344999,-0.02641821
-1.345999,-0.02679526
-1.346999,-0.02716312
-1.347999,-0.02752792
-1.348999,-0.02790804
-1.349999,-0.0282667
-1.350999,-0.02864375
-1.351999,-0.02901774
-1.352999,-0.0293856
-1.353999,-0.02975652
-1.354999,-0.03013358
-1.355999,-0.0305137
-1.356999,-0.03099086
-1.357999,-0.03138937
-1.358999,-0.03175723
-1.359999,-0.03212509
-1.360999,-0.0325236
-1.361999,-0.03289146
-1.362999,-0.03328998
-1.363999,-0.03368849
-1.364999,-0.03405635
-1.365999,-0.03445486
-1.366999,-0.03482271
-1.367999,-0.03522123
-1.368999,-0.03558908
-1.369999,-0.0359876
-1.370999,-0.03638611
-1.371999,-0.03678463
-1.372999,-0.03715248
-1.373999,-0.037551
-1.374999,-0.03794951
-1.375999,-0.03834802
-1.376999,-0.03871588
-1.377999,-0.03911439
-1.378999,-0.0395129
-1.379999,-0.03991142
-1.380999,-0.04030993
-1.381999,-0.0407391
-1.382999,-0.04110695
-1.383999,-0.04153612
-1.384999,-0.04193464
-1.385999,-0.04230249
-1.386999,-0.04273166
-1.387999,-0.04313017
-1.388999,-0.04349803
-1.389999,-0.04389654
-1.390999,-0.04429505
-1.391999,-0.04469357
-1.392999,-0.04509208
-1.393999,-0.0454906
-1.394999,-0.04588911
-1.395999,-0.04628762
-1.396999,-0.04665548
-1.397999,-0.04708464
-1.398999,-0.04748316
-1.399999,-0.04791233
-1.400999,-0.04828018
-1.401999,-0.0486787
-1.402999,-0.04910786
-1.403999,-0.04950638
-1.404999,-0.04990489
-1.405999,-0.0503034
-1.406999,-0.05070192
-1.407999,-0.05113108
-1.408999,-0.05152959
-1.409999,-0.05192811
-1.410999,-0.05235728
-1.411999,-0.05275579
-1.412999,-0.05312365
-1.413999,-0.05355281
-1.414999,-0.05395133
-1.415999,-0.05434984
-1.416999,-0.05474835
-1.417999,-0.05517752
-1.418999,-0.05557603
-1.419999,-0.0560052
-1.420999,-0.05643437
-1.421999,-0.05680222
-1.422999,-0.05723139
-1.423999,-0.05766056
-1.424999,-0.05805907
-1.425999,-0.05845758
-1.426999,-0.05888676
-1.427999,-0.05928526
-1.428999,-0.05968378
-1.429999,-0.06011295
-1.430999,-0.0604808
-1.431999,-0.06090998
-1.432999,-0.0613698
-1.433999,-0.06173765
-1.434999,-0.06216682
-1.435999,-0.06259599
-1.436999,-0.0629945
-1.437999,-0.06342367
-1.438999,-0.06382218
-1.439999,-0.06422069
-1.440999,-0.06464987
-1.441999,-0.06504837
-1.442999,-0.06544688
-1.443999,-0.06590671
-1.444999,-0.06630522
-1.445999,-0.0667344
-1.446999,-0.06716356
-1.447999,-0.06759273
-1.448999,-0.06799124
-1.449999,-0.0684204
-1.450999,-0.06881892
-1.451999,-0.06921744
-1.452999,-0.0696466
-1.453999,-0.07004511
-1.454999,-0.07044362
-1.455999,-0.07087279
-1.456999,-0.07130196
-1.457999,-0.07170048
-1.458999,-0.0721603
-1.459999,-0.07255881
-1.460999,-0.07298797
-1.461999,-0.07341714
-1.462999,-0.07381566
-1.463999,-0.07424482
-1.464999,-0.07467399
-1.465999,-0.07510316
-1.466999,-0.07550167
-1.467999,-0.07593083
-1.468999,-0.07632935
-1.469999,-0.07675852
-1.470999,-0.07718769
-1.471999,-0.0775862
-1.472999,-0.07801536
-1.473999,-0.07847519
-1.474999,-0.07884305
-1.475999,-0.07930287
-1.476999,-0.07973204
-1.477999,-0.08013055
-1.478999,-0.08059037
-1.479999,-0.08098888
-1.480999,-0.08141805
-1.481999,-0.08181657
-1.482999,-0.08227639
-1.483999,-0.0826749
-1.484999,-0.08310407
-1.485999,-0.08353323
-1.486999,-0.0839624
-1.487999,-0.08439157
-1.488999,-0.08482074
-1.489999,-0.0852499
-1.490999,-0.08567908
-1.491999,-0.08610824
-1.492999,-0.08650675
-1.493999,-0.08693592
-1.494999,-0.08739574
-1.495999,-0.08779426
-1.496999,-0.08822342
-1.497999,-0.08868324
-1.498999,-0.08911242
-1.499999,-0.08923503
-1.499001,-0.08877521
-1.498001,-0.08831539
-1.497001,-0.08788622
-1.496001,-0.08739574
-1.495001,-0.08690526
-1.494001,-0.08644544
-1.493001,-0.08601627
-1.492001,-0.0855258
-1.491001,-0.08506598
-1.490001,-0.08460616
-1.489001,-0.08411568
-1.488001,-0.08368651
-1.487001,-0.08319604
-1.486001,-0.08270555
-1.485001,-0.08230704
-1.484001,-0.08184722
-1.483001,-0.08138739
-1.482001,-0.08092757
-1.481001,-0.08046775
-1.480001,-0.08000793
-1.479001,-0.07954811
-1.478001,-0.07908829
-1.477001,-0.07862847
-1.476001,-0.07816864
-1.475001,-0.07770882
-1.474001,-0.077249
-1.473001,-0.07681983
-1.472001,-0.07636001
-1.471001,-0.07586952
-1.470001,-0.07547101
-1.469001,-0.07501119
-1.468001,-0.07455137
-1.467001,-0.07409155
-1.466001,-0.07366238
-1.465001,-0.07320256
-1.464001,-0.07277339
-1.463001,-0.07234422
-1.462001,-0.07185375
-1.461001,-0.07139393
-1.460001,-0.0709341
-1.459001,-0.07047428
-1.458001,-0.07007577
-1.457001,-0.0696466
-1.456001,-0.06918678
-1.455001,-0.0686963
-1.454001,-0.06826713
-1.453001,-0.06780731
-1.452001,-0.06737814
-1.451001,-0.06694897
-1.450001,-0.0665198
-1.449001,-0.06605998
-1.448001,-0.06563082
-1.447001,-0.065171
-1.446001,-0.06474183
-1.445001,-0.064282
-1.444001,-0.06382218
-1.443001,-0.06336236
-1.442001,-0.06293319
-1.441001,-0.06250402
-1.440001,-0.0620442
-1.439001,-0.06161503
-1.438001,-0.06118587
-1.437001,-0.06072604
-1.436001,-0.06029687
-1.435001,-0.05989837
-1.434001,-0.05943854
-1.433001,-0.05897872
-1.432001,-0.05854955
-1.431001,-0.05812038
-1.430001,-0.05769122
-1.429001,-0.05726204
-1.428001,-0.05683288
-1.427001,-0.05640372
-1.426001,-0.05594389
-1.425001,-0.05551472
-1.424001,-0.05508556
-1.423001,-0.05465639
-1.422001,-0.05422722
-1.421001,-0.05379805
-1.420001,-0.05336889
-1.419001,-0.05297038
-1.418001,-0.0525412
-1.417001,-0.05208138
-1.416001,-0.05165222
-1.415001,-0.05122305
-1.414001,-0.05082453
-1.413001,-0.05039537
-1.412001,-0.0499662
-1.411001,-0.04953703
-1.410001,-0.04913852
-1.409001,-0.04870935
-1.408001,-0.04828018
-1.407001,-0.04785102
-1.406001,-0.04742185
-1.405001,-0.04699268
-1.404001,-0.04656351
-1.403001,-0.046165
-1.402001,-0.04576649
-1.401001,-0.04533732
-1.400001,-0.04493881
-1.399001,-0.04450964
-1.398001,-0.04414178
-1.397001,-0.04371261
-1.396001,-0.0433141
-1.395001,-0.04291559
-1.394001,-0.04248642
-1.393001,-0.04208791
-1.392001,-0.04165874
-1.391001,-0.04126023
-1.390001,-0.04086172
-1.389001,-0.04043255
-1.388001,-0.04003404
-1.387001,-0.03963552
-1.386001,-0.03923701
-1.385001,-0.03880784
-1.384001,-0.03840933
-1.383001,-0.03801082
-1.382001,-0.0376123
-1.381001,-0.03721379
-1.380001,-0.03684593
-1.379001,-0.03641677
-1.378001,-0.03604891
-1.377001,-0.0356504
-1.376001,-0.03525188
-1.375001,-0.03485337
-1.374001,-0.03448552
-1.373001,-0.034087
-1.372001,-0.03371914
-1.371001,-0.03332063
-1.370001,-0.03295277
-1.369001,-0.03255426
-1.368001,-0.0321864
-1.367001,-0.03178789
-1.366001,-0.03142003
-1.365001,-0.03105217
-1.364001,-0.03068431
-1.363001,-0.0302858
-1.362001,-0.0299486
-1.361001,-0.02955008
-1.360001,-0.02918223
-1.359001,-0.02881437
-1.358001,-0.02844651
-1.357001,-0.02810931
-1.356001,-0.02774145
-1.355001,-0.02737359
-1.354001,-0.02700574
-1.353001,-0.02666853
-1.352001,-0.02630067
-1.351001,-0.02596347
-1.350001,-0.02559561
-1.349001,-0.02522776
-1.348001,-0.02489055
-1.347001,-0.02452269
-1.346001,-0.02418549
-1.345001,-0.02384829
-1.344001,-0.02351108
-1.343001,-0.02317388
-1.342001,-0.02283668
-1.341001,-0.02249948
-1.340001,-0.02213162
-1.339001,-0.02182507
-1.338001,-0.02148787
-1.337001,-0.02115066
-1.336001,-0.02084411
-1.335001,-0.02050691
-1.334001,-0.02016971
-1.333001,-0.0198325
-1.332001,-0.01952596
-1.331001,-0.01918875
-1.330001,-0.01888221
-1.329001,-0.01857566
-1.328001,-0.01826911
-1.327001,-0.01796256
-1.326001,-0.01765601
-1.325001,-0.01734946
-1.324001,-0.01704292
-1.323001,-0.01673637
-1.322001,-0.01646047
-1.321001,-0.01618458
-1.320001,-0.01599251
-1.319001,-0.01571661
-1.318001,-0.01545298
-1.317001,-0.01518015
-1.316001,-0.01490733
-1.315001,-0.01464676
-1.314001,-0.014377
-1.313001,-0.01410723
-1.312001,-0.0138528
-1.311001,-0.0135953
-1.310001,-0.01333473
-1.309001,-0.01308643
-1.308001,-0.01284426
-1.307001,-0.01259595
-1.306001,-0.01235071
-1.305001,-0.0121208
-1.304001,-0.01187863
-1.303001,-0.01165178
-1.302001,-0.01142494
-1.301001,-0.01119809
-1.300001,-0.01098044
-1.299001,-0.01076279
-1.298001,-0.01055127
-1.297001,-0.01033669
-1.296001,-0.01013744
-1.295001,-0.009935113
-1.294001,-0.009735856
-1.293001,-0.009545796
-1.292001,-0.009349605
-1.291001,-0.00916261
-1.290001,-0.008984813
-1.289001,-0.008803949
-1.288001,-0.008623085
-1.287001,-0.008454484
-1.286001,-0.008288948
-1.285001,-0.008120347
-1.284001,-0.007967073
-1.283001,-0.007813798
-1.282001,-0.007657459
-1.281001,-0.007510316
-1.280001,-0.007366238
-1.279001,-0.007219094
-1.278001,-0.007087279
-1.277001,-0.006955463
-1.276001,-0.006820582
-1.275001,-0.006694897
-1.274001,-0.006575344
-1.273001,-0.006452724
-1.272001,-0.006336236
-1.271001,-0.006225878
-1.270001,-0.006112455
-1.269001,-0.006002098
-1.268001,-0.005907068
-1.267001,-0.005802842
-1.266001,-0.005701681
-1.265001,-0.005612782
-1.264001,-0.005511621
-1.263001,-0.005428853
-1.262001,-0.005346085
-1.261001,-0.005257186
-1.260001,-0.005177483
-1.259001,-0.005103912
-1.258001,-0.005021143
-1.257001,-0.004953703
-1.256001,-0.004886262
-1.255001,-0.00480656
-1.254001,-0.004751381
-1.253001,-0.004683941
-1.252001,-0.004610369
-1.251001,-0.004558256
-1.250001,-0.004503077
-1.249001,-0.004438702
-1.248001,-0.00439272
-1.247001,-0.004337541
-1.246001,-0.004279297
-1.245001,-0.00423638
-1.244001,-0.004187332
-1.243001,-0.004138284
-1.242001,-0.004095368
-1.241001,-0.004049386
-1.240001,-0.004006469
-1.239001,-0.003963552
-1.238001,-0.003923701
-1.237001,-0.00388385
-1.236001,-0.003843998
-1.235001,-0.003810278
-1.234001,-0.003770427
-1.233001,-0.003739772
-1.232001,-0.003706052
-1.231001,-0.003669266
-1.230001,-0.003635545
-1.229001,-0.003604891
-1.228001,-0.00357117
-1.227001,-0.003546647
-1.226001,-0.003512926
-1.225001,-0.003482271
-1.224001,-0.003457748
-1.223001,-0.003430158
-1.222001,-0.003402569
-1.221001,-0.003378045
-1.220001,-0.003350456
-1.219001,-0.003325932
-1.218001,-0.003298342
-1.217001,-0.00327995
-1.216001,-0.003249295
-1.215001,-0.003227836
-1.214001,-0.003212509
-1.213001,-0.003178789
-1.212001,-0.003160396
-1.211001,-0.003145068
-1.210001,-0.003117479
-1.209001,-0.003099086
-1.208001,-0.003080693
-1.207001,-0.003056169
-1.206001,-0.003040842
-1.205001,-0.003022449
-1.204001,-0.003000991
-1.203001,-0.002985663
-1.202001,-0.00296727
-1.201001,-0.002945812
-1.200001,-0.002930485
-1.199001,-0.002915157
-1.198001,-0.002893699
-1.197001,-0.002884502
-1.196001,-0.002863044
-1.195001,-0.00283852
-1.194001,-0.002835455
-1.193001,-0.002813996
-1.192001,-0.002792538
-1.191001,-0.002789472
-1.190001,-0.002768014
-1.189001,-0.002749621
-1.188001,-0.00274349
-1.187001,-0.002718966
-1.186001,-0.002706704
-1.185001,-0.002694442
-1.184001,-0.002676049
-1.183001,-0.002660722
-1.182001,-0.002651526
-1.181001,-0.002636198
-1.180001,-0.002620871
-1.179001,-0.002611674
-1.178001,-0.002596347
-1.177001,-0.002577954
-1.176001,-0.002571823
-1.175001,-0.002556496
-1.174001,-0.002541168
-1.173001,-0.002535037
-1.172001,-0.00251971
-1.171001,-0.002504382
-1.170001,-0.002498251
-1.169001,-0.002479859
-1.168001,-0.002464531
-1.167001,-0.0024584
-1.166001,-0.002443073
-1.165001,-0.002430811
-1.164001,-0.00242468
-1.163001,-0.002412418
-1.162001,-0.00239096
-1.161001,-0.00239096
-1.160001,-0.002375632
-1.159001,-0.002360305
-1.158001,-0.002354174
-1.157001,-0.002335781
-1.156001,-0.002323519
-1.155001,-0.002320454
-1.154001,-0.002308191
-1.153001,-0.002289799
-1.152001,-0.002289799
-1.151001,-0.002274471
-1.150001,-0.002256078
-1.149001,-0.002259144
-1.148001,-0.002240751
-1.147001,-0.002225423
-1.146001,-0.002225423
-1.145001,-0.002207031
-1.144001,-0.002194769
-1.143001,-0.002188638
-1.142001,-0.002176376
-1.141001,-0.002164114
-1.140001,-0.002157983
-1.139001,-0.002145721
-1.138001,-0.002133459
-1.137001,-0.002130394
-1.136001,-0.002115066
-1.135001,-0.002102804
-1.134001,-0.002096673
-1.133001,-0.002084411
-1.132001,-0.002069084
-1.131001,-0.002066019
-1.130001,-0.002056822
-1.129001,-0.002041495
-1.128001,-0.002035364
-1.127001,-0.002023102
-1.126001,-0.00201084
-1.125001,-0.002007774
-1.124001,-0.001995512
-1.123001,-0.00198325
-1.122001,-0.00197712
-1.121001,-0.001964858
-1.120001,-0.001955661
-1.119001,-0.001946465
-1.118001,-0.001937268
-1.117001,-0.001925006
-1.116001,-0.00191581
-1.115001,-0.001906613
-1.114001,-0.001894351
-1.113001,-0.00188209
-1.112001,-0.001875959
-1.111001,-0.001863697
-1.110001,-0.0018545
-1.109001,-0.001848369
-1.108001,-0.001833042
-1.107001,-0.001823845
-1.106001,-0.001817714
-1.105001,-0.001802387
-1.104001,-0.00179319
-1.103001,-0.001783994
-1.102001,-0.001771732
-1.101001,-0.001762536
-1.100001,-0.001753339
-1.099001,-0.001744143
-1.098001,-0.001731881
-1.097001,-0.001722684
-1.096001,-0.001713488
-1.095001,-0.001698161
-1.094001,-0.00169203
-1.093001,-0.001679768
-1.092001,-0.00166444
-1.091001,-0.001661375
-1.090001,-0.001652178
-1.089001,-0.001636851
-1.088001,-0.001627655
-1.087001,-0.001618458
-1.086001,-0.001603131
-1.085001,-0.001630519
-1.084001,-0.001623161
-1.083001,-0.001610593
-1.082001,-0.00160201
-1.081001,-0.001591281
-1.080001,-0.001581164
-1.079001,-0.001571661
-1.078001,-0.001561239
-1.077001,-0.001553269
-1.076001,-0.001537328
-1.075001,-0.001530584
-1.074001,-0.001524759
-1.073001,-0.00150698
-1.072001,-0.001502688
-1.071001,-0.001491652
-1.070001,-0.001478471
-1.069001,-0.00147234
-1.068001,-0.001457625
-1.067001,-0.001450575
-1.066001,-0.001443218
-1.065001,-0.001427277
-1.064001,-0.001421146
-1.063001,-0.001412869
-1.062001,-0.001397849
-1.061001,-0.001389572
-1.060001,-0.001381295
-1.059001,-0.001369646
-1.058001,-0.001361676
-1.057001,-0.001351866
-1.056001,-0.001337152
-1.055001,-0.001331021
-1.054001,-0.001321518
-1.053001,-0.001306191
-1.052001,-0.001297914
-1.051001,-0.00129025
-1.050001,-0.001275536
-1.049001,-0.001267872
-1.048001,-0.001259595
-1.047001,-0.001245494
-1.046001,-0.001236911
-1.045001,-0.00123078
-1.044001,-0.001215759
-1.043001,-0.001205336
-1.042001,-0.001202271
-1.041001,-0.001185104
-1.040001,-0.001178053
-1.039001,-0.001170083
-1.038001,-0.00115353
-1.037001,-0.001145559
-1.036001,-0.001137282
-1.035001,-0.001124714
-1.034001,-0.001116744
-1.033001,-0.001104788
-1.032001,-0.001096511
-1.031001,-0.001085476
-1.030001,-0.001075666
-1.029001,-0.001066776
-1.028001,-0.001053288
-1.027001,-0.001046851
-1.026001,-0.001037041
-1.025001,-0.001024473
-1.024001,-0.001014663
-1.023001,-0.001004854
-1.022001,-0.000994431
-1.021001,-0.0009873803
-1.020001,-0.0009757315
-1.019001,-0.0009662285
-1.018001,-0.0009591779
-1.017001,-0.0009490618
-1.016001,-0.0009355737
-1.015001,-0.0009334278
-1.014001,-0.0009199397
-1.013001,-0.0009082909
-1.012001,-0.0009033861
-1.011001,-0.0008920438
-1.010001,-0.0008788622
-1.009001,-0.0008754902
-1.008001,-0.000864761
-1.007001,-0.0008528056
-1.006001,-0.0008469812
-1.005001,-0.0008380913
-1.004001,-0.000826749
-1.003001,-0.0008181657
-1.002001,-0.0008126478
-1.001001,-0.0007997728
-1.000001,-0.0007933353
-0.9990011,-0.0007881239
-0.9980011,-0.0007746358
-0.9970011,-0.0007681983
-0.9960011,-0.0007605346
-0.9950011,-0.0007494989
-0.9940011,-0.0007433679
-0.9930011,-0.000735091
-0.9920011,-0.0007237488
-0.9910011,-0.0007160851
-0.9900011,-0.000709341
-0.9890011,-0.0006967725
-0.9880011,-0.0006909482
-0.9870011,-0.0006860433
-0.9860011,-0.0006725552
-0.9850011,-0.0006664242
-0.9840011,-0.0006621326
-0.9830011,-0.0006480314
-0.9820011,-0.0006437397
-0.9810011,-0.0006363826
-0.9800011,-0.0006219748
-0.9790011,-0.0006179896
-0.9780011,-0.0006118587
-0.9770011,-0.0005977575
-0.9760011,-0.0005956116
-0.9750011,-0.0005882545
-0.9740011,-0.0005753795
-0.9730011,-0.0005686354
-0.9720011,-0.0005621978
-0.9710011,-0.0005502424
-0.9700011,-0.000547177
-0.9690011,-0.0005395133
-0.9680011,-0.0005275579
-0.9670011,-0.0005238793
-0.9660011,-0.0005165222
-0.9650011,-0.0005048733
-0.9640011,-0.0004993554
-0.9630011,-0.0004926114
-0.9620011,-0.0004815757
-0.9610011,-0.000477284
-0.9600011,-0.0004687006
-0.9590011,-0.0004576649
-0.9580011,-0.0004533732
-0.9570011,-0.0004469357
-0.9560011,-0.0004346738
-0.9550011,-0.0004303821
-0.9540011,-0.0004217988
-0.9530011,-0.0004119892
-0.9520011,-0.0004098434
-0.9510011,-0.0004009535
-0.9500011,-0.0003889981
-0.9490011,-0.0003896112
-0.9480011,-0.0003776558
-0.9470011,-0.0003678463
-0.9460011,-0.0003663135
-0.9450011,-0.0003568105
-0.9440011,-0.0003476141
-0.9430011,-0.0003448552
-0.9420011,-0.0003350456
-0.9410011,-0.0003270753
-0.9400011,-0.0003203313
-0.9390011,-0.0003142003
-0.9380011,-0.0003080693
-0.9370011,-0.0002988729
-0.9360011,-0.0002951943
-0.9350011,-0.0002863044
-0.9340011,-0.0002789472
-0.9330011,-0.000277108
-0.9320011,-0.0002657657
-0.9310011,-0.0002633133
-0.9300011,-0.0002590216
-0.9290011,-0.0002482924
-0.9280011,-0.00024584
-0.9270011,-0.0002406287
-0.9260011,-0.0002317388
-0.9250011,-0.0002305126
-0.9240011,-0.0002231555
-0.9230011,-0.0002164114
-0.9220011,-0.0002130394
-0.9210011,-0.0002084412
-0.9200011,-0.0002026167
-0.9190011,-0.0001986316
-0.9180011,-0.0001934203
-0.9170011,-0.0001906613
-0.9160011,-0.0001851435
-0.9150011,-0.0001823845
-0.9140011,-0.0001765601
-0.9130011,-0.0001728816
-0.9120011,-0.0001731881
-0.9110011,-0.0001661375
-0.9100011,-0.0001633786
-0.9090011,-0.000163072
-0.9080011,-0.0001541821
-0.9070011,-0.0001547952
-0.9060011,-0.000153569
-0.9050011,-0.000146825
-0.9040011,-0.0001452922
-0.9030011,-0.0001422267
-0.9020011,-0.0001376285
-0.9010011,-0.0001348696
-0.9000011,-0.0001341137
-0.8990011,-0.0001330101
-0.8980011,-0.0001277068
-0.8970011,-0.0001259902
-0.8960011,-0.0001235378
-0.8950011,-0.0001189702
-0.8940011,-0.0001178053
-0.8930011,-0.0001129312
-0.8920011,-0.000109314
-0.8910011,-0.0001071374
-0.8900011,-0.0001034282
-0.8890011,-9.876868E-05
-0.8880011,-9.7941E-05
-0.8870011,-9.31895E-05
-0.8860011,-8.862193E-05
-0.8850011,-8.666002E-05
-0.8840011,-8.120346E-05
-0.8830011,-7.721834E-05
-0.8820011,-7.50725E-05
-0.8810011,-7.047428E-05
-0.8800011,-6.612129E-05
-0.8790011,-6.323974E-05
-0.8780011,-5.922396E-05
-0.8770011,-5.456442E-05
-0.8760011,-4.99662E-05
-0.8750011,-4.662482E-05
-0.8740011,-4.073909E-05
-0.8730011,-3.617152E-05
-0.8720011,-3.310604E-05
-0.8710011,-2.783341E-05
-0.8700011,-2.142655E-05
-0.8690011,-1.857566E-05
-0.8680011,-1.342565E-05
-0.8670011,-7.049443E-06
-0.8660011,-5.026224E-06
-0.8650011,2.637482E-06
-0.8640011,7.205052E-06
-0.8630011,1.158869E-05
-0.8620011,1.912978E-05
-0.8610011,2.317622E-05
-0.8600011,2.896998E-05
-0.8590011,3.47944E-05
-0.8580011,4.052684E-05
-0.8570011,4.638192E-05
-0.8560011,5.303402E-05
-0.8550011,5.956349E-05
-0.8540011,6.449892E-05
-0.8530011,7.053792E-05
-0.8520011,7.893734E-05
-0.8510011,8.332099E-05
-0.8500011,8.957457E-05
-0.8490011,9.953738E-05
-0.8480011,0.0001021124
-0.8470011,0.0001115541
-0.8460011,0.0001183594
-0.8450011,0.0001232335
-0.8440011,0.0001330738
-0.8430011,0.0001401244
-0.8420011,0.0001453663
-0.8410011,0.0001555744
-0.8400011,0.0001625637
-0.8390011,0.0001701968
-0.8380011,0.0001783203
-0.8370011,0.0001858001
-0.8360011,0.0001941995
-0.8350011,0.0002018019
-0.8340011,0.0002106305
-0.8330011,0.0002190299
-0.8320011,0.0002269695
-0.8310011,0.000236871
-0.8300011,0.0002450558
-0.8290011,0.0002530874
-0.8280011,0.0002638779
-0.8270011,0.0002717256
-0.8260011,0.0002801863
-0.8250011,0.0002908235
-0.8240011,0.0003025748
-0.8230011,0.0003108516
-0.8220011,0.0003215808
-0.8210011,0.0003307773
-0.8200011,0.0003402802
-0.8190011,0.0003522356
-0.8180011,0.0003620452
-0.8170011,0.0003700154
-0.8160011,0.0003810512
-0.8150011,0.0003905542
-0.8140011,0.0003997506
-0.8130011,0.0004113995
-0.8120011,0.0004215155
-0.8110011,0.000430712
-0.8100011,0.0004420543
-0.8090011,0.0004509442
-0.8080011,0.0004601406
-0.8070011,0.0004727091
-0.8060011,0.0004825187
-0.8050011,0.0004929413
-0.8040011,0.000503977
-0.8030011,0.00051348
-0.8020011,0.0005235961
-0.8010011,0.000535858
