EXPID. 1159
[电化学]: CV : 0 >> 0.7 >> 0 >> 0(V) @ 0.01(V/s) X 10(Seg)
起始电位 (V),0
上限电位 (V),0.7
下限电位 (V),0
终止电位 (V),0
扫速 (V/s),0.01
电解液 信息:
KOH,1
0.001,8.761265E-06
0.002,9.564422E-06
0.003,1.018671E-05
0.004,1.08366E-05
0.005,1.132401E-05
0.006,1.1698E-05
0.007,1.220993E-05
0.008,1.25502E-05
0.009,1.298857E-05
0.01,1.340854E-05
0.011,1.378253E-05
0.012,1.420556E-05
0.013,1.454583E-05
0.014,1.486158E-05
0.015,1.530301E-05
0.016,1.564327E-05
0.017,1.599274E-05
0.018,1.64311E-05
0.019,1.676217E-05
0.02,1.715149E-05
0.021,1.758066E-05
0.022,1.791173E-05
0.023,1.822441E-05
0.024,1.861066E-05
0.025,1.898465E-05
0.026,1.935251E-05
0.027,1.968358E-05
0.028,2.007903E-05
0.029,2.039171E-05
0.03,2.072891E-05
0.031,2.113662E-05
0.032,2.145236E-05
0.033,2.182022E-05
0.034,2.217888E-05
0.035,2.247317E-05
0.036,2.285329E-05
0.037,2.315371E-05
0.038,2.341734E-05
0.039,2.379746E-05
0.04,2.446372E-05
0.041,2.470896E-05
0.042,2.510747E-05
0.043,2.538336E-05
0.044,2.568991E-05
0.045,2.611908E-05
0.046,2.642563E-05
0.047,2.679348E-05
0.048,2.7192E-05
0.049,2.762116E-05
0.05,2.801968E-05
0.051,2.829557E-05
0.052,2.869408E-05
0.053,2.903129E-05
0.054,2.936849E-05
0.055,2.9767E-05
0.056,3.001224E-05
0.057,3.041075E-05
0.058,3.090123E-05
0.059,3.142237E-05
0.06,3.185153E-05
0.061,3.221939E-05
0.062,3.255659E-05
0.063,3.298576E-05
0.064,3.344558E-05
0.065,3.399737E-05
0.066,3.45185E-05
0.067,3.494767E-05
0.068,3.54688E-05
0.069,3.5806E-05
0.07,3.635779E-05
0.071,3.697089E-05
0.072,3.758398E-05
0.073,3.810511E-05
0.074,3.86569E-05
0.075,3.914738E-05
0.076,3.982179E-05
0.077,4.040423E-05
0.078,4.113995E-05
0.079,4.187566E-05
0.08,4.258072E-05
0.081,4.310185E-05
0.082,4.386822E-05
0.083,4.454263E-05
0.084,4.527835E-05
0.085,4.610602E-05
0.086,4.693371E-05
0.087,4.782269E-05
0.088,4.865037E-05
0.089,4.950871E-05
0.09,5.045901E-05
0.091,5.125604E-05
0.092,5.223699E-05
0.093,5.306467E-05
0.094,5.407628E-05
0.095,5.524116E-05
0.096,5.628342E-05
0.097,5.744831E-05
0.098,5.861319E-05
0.099,5.965546E-05
0.1,6.091231E-05
0.101,6.204653E-05
0.102,6.336469E-05
0.103,6.474416E-05
0.104,6.59397E-05
0.105,6.728851E-05
0.106,6.875994E-05
0.107,7.013941E-05
0.108,7.161083E-05
0.109,7.308227E-05
0.11,7.461501E-05
0.111,7.620906E-05
0.112,7.77418E-05
0.113,7.945847E-05
0.114,8.117515E-05
0.115,8.298378E-05
0.116,8.497635E-05
0.117,8.675433E-05
0.118,8.871623E-05
0.119,9.083142E-05
0.12,9.279333E-05
0.121,9.500048E-05
0.122,9.736089E-05
0.123,9.935346E-05
0.124,0.0001017139
0.125,0.0001039823
0.126,0.0001064041
0.127,0.0001090097
0.128,0.0001115234
0.129,0.0001141904
0.13,0.0001171026
0.131,0.0001198309
0.132,0.000122835
0.133,0.0001257166
0.134,0.0001287514
0.135,0.0001318476
0.136,0.0001350357
0.137,0.0001383157
0.138,0.0001417797
0.139,0.0001452131
0.14,0.0001490143
0.141,0.0001526009
0.142,0.0001563101
0.143,0.0001603565
0.144,0.0001642497
0.145,0.0001682655
0.146,0.0001724959
0.147,0.0001766956
0.148,0.0001811712
0.149,0.0001855242
0.15,0.0001899385
0.151,0.0001947206
0.152,0.0001993495
0.153,0.0002041316
0.154,0.0002090977
0.155,0.0002139412
0.156,0.0002191525
0.157,0.0002241799
0.158,0.0002292993
0.159,0.0002347252
0.16,0.0002400284
0.161,0.0002453931
0.162,0.0002510335
0.163,0.0002565208
0.164,0.0002623452
0.165,0.0002678937
0.166,0.0002737181
0.167,0.0002796651
0.168,0.0002855202
0.169,0.0002914979
0.17,0.0003010421
0.171,0.0003071731
0.172,0.000313304
0.173,0.000319435
0.174,0.000325566
0.175,0.0003320035
0.176,0.0003381344
0.177,0.0003445719
0.178,0.0003510095
0.179,0.0003571404
0.18,0.0003638845
0.181,0.000370322
0.182,0.0003770661
0.183,0.0003838101
0.184,0.0003905542
0.185,0.0003972982
0.186,0.0004046554
0.187,0.0004110929
0.188,0.0004184501
0.189,0.0004258072
0.19,0.0004328578
0.191,0.000440215
0.192,0.0004475722
0.193,0.0004549293
0.194,0.000462593
0.195,0.0004702567
0.196,0.000478227
0.197,0.0004861972
0.198,0.0004941675
0.199,0.0005027509
0.2,0.0005110276
0.201,0.000519611
0.202,0.0005288074
0.203,0.0005376973
0.204,0.0005475069
0.205,0.0005570099
0.206,0.0005668194
0.207,0.0005772421
0.208,0.0005876647
0.209,0.0005983939
0.21,0.0006097362
0.211,0.0006210785
0.212,0.0006333404
0.213,0.0006459089
0.214,0.0006584774
0.215,0.0006719655
0.216,0.0006854536
0.217,0.0006995549
0.218,0.0007145757
0.219,0.0007289835
0.22,0.000744924
0.221,0.000761171
0.222,0.0007777247
0.223,0.0007951979
0.224,0.0008129777
0.225,0.000831064
0.226,0.00085007
0.227,0.0008693826
0.228,0.0008902278
0.229,0.00091046
0.23,0.0009313053
0.231,0.0009539899
0.232,0.0009763679
0.233,0.0009999721
0.234,0.001024189
0.235,0.001048407
0.236,0.001074463
0.237,0.001100826
0.238,0.00112719
0.239,0.001155392
0.24,0.001183595
0.241,0.001213023
0.242,0.001243678
0.243,0.001274333
0.244,0.00130652
0.245,0.001338708
0.246,0.001372428
0.247,0.001407681
0.248,0.001442321
0.249,0.001479107
0.25,0.001516506
0.251,0.001554211
0.252,0.001594676
0.253,0.001634834
0.254,0.001675604
0.255,0.001719134
0.256,0.001762358
0.257,0.001807114
0.258,0.001853709
0.259,0.001899998
0.26,0.001949352
0.261,0.001998706
0.262,0.002049593
0.263,0.002102013
0.264,0.00215474
0.265,0.002210225
0.266,0.00226663
0.267,0.002323647
0.268,0.002384038
0.269,0.002444428
0.27,0.002506964
0.271,0.002571032
0.272,0.002635407
0.273,0.002703461
0.274,0.002771821
0.275,0.002842634
0.276,0.002916818
0.277,0.002988857
0.278,0.003096254
0.279,0.003175956
0.28,0.003252594
0.281,0.003335362
0.282,0.00341813
0.283,0.003503963
0.284,0.003592863
0.285,0.003681761
0.286,0.003776791
0.287,0.003871821
0.288,0.003969917
0.289,0.004071078
0.29,0.004175304
0.291,0.00427953
0.292,0.004386822
0.293,0.00449718
0.294,0.004610602
0.295,0.004730156
0.296,0.00484971
0.297,0.004972329
0.298,0.005098014
0.299,0.005223699
0.3,0.00535858
0.301,0.005493461
0.302,0.005631408
0.303,0.005772421
0.304,0.005916498
0.305,0.006063641
0.306,0.006216915
0.307,0.006373255
0.308,0.00653266
0.309,0.006692065
0.31,0.006854536
0.311,0.007023137
0.312,0.007191739
0.313,0.007366471
0.314,0.007538138
0.315,0.007715936
0.316,0.007899866
0.317,0.008080728
0.318,0.008261592
0.319,0.008451653
0.32,0.008638646
0.321,0.008831772
0.322,0.009021832
0.323,0.009218022
0.324,0.009414214
0.325,0.009607339
0.326,0.00980353
0.327,0.00999972
0.328,0.01019591
0.329,0.0103921
0.33,0.01058829
0.331,0.01078448
0.332,0.01098067
0.333,0.01117073
0.334,0.01136079
0.335,0.01155085
0.336,0.01173172
0.337,0.01192484
0.338,0.01209958
0.339,0.01227737
0.34,0.01245824
0.341,0.01261764
0.342,0.01278624
0.343,0.01294871
0.344,0.01309892
0.345,0.01325833
0.346,0.01340547
0.347,0.01354648
0.348,0.0136875
0.349,0.01381625
0.35,0.013945
0.351,0.01407375
0.352,0.01419024
0.353,0.01430059
0.354,0.01441401
0.355,0.01451211
0.356,0.01461021
0.357,0.01470217
0.358,0.01478494
0.359,0.01487077
0.36,0.01494434
0.361,0.01501178
0.362,0.01507616
0.363,0.0151344
0.364,0.01518652
0.365,0.0152233
0.366,0.01526315
0.367,0.01529381
0.368,0.0153122
0.369,0.01533059
0.37,0.01533979
0.371,0.01533366
0.372,0.01532753
0.373,0.01530914
0.374,0.01527848
0.375,0.01524783
0.376,0.01519878
0.377,0.01514667
0.378,0.01508842
0.379,0.01500565
0.38,0.01493515
0.381,0.01484012
0.382,0.01473589
0.383,0.01463166
0.384,0.01450904
0.385,0.01438336
0.386,0.01425768
0.387,0.01410747
0.388,0.01396032
0.389,0.01380398
0.39,0.01363538
0.391,0.01346678
0.392,0.01328898
0.393,0.01310199
0.394,0.01291806
0.395,0.01273107
0.396,0.01253181
0.397,0.01233562
0.398,0.01213023
0.399,0.01192484
0.4,0.01171946
0.401,0.01151713
0.402,0.01130868
0.403,0.01110329
0.404,0.01090404
0.405,0.01069559
0.406,0.0104902
0.407,0.01029707
0.408,0.01009475
0.409,0.009907756
0.41,0.009726893
0.411,0.009536833
0.412,0.009352904
0.413,0.009175106
0.414,0.009000373
0.415,0.008834838
0.416,0.008672367
0.417,0.008519093
0.418,0.008365818
0.419,0.008218676
0.42,0.008080728
0.421,0.007942782
0.422,0.007817097
0.423,0.007691412
0.424,0.007565727
0.425,0.007458436
0.426,0.007345013
0.427,0.007234655
0.428,0.00713656
0.429,0.007035399
0.43,0.006940369
0.431,0.00685147
0.432,0.006759506
0.433,0.006679803
0.434,0.006597036
0.435,0.006520398
0.436,0.006449892
0.437,0.00637632
0.438,0.006305814
0.439,0.006241439
0.44,0.006173999
0.441,0.006115754
0.442,0.006054445
0.443,0.005999266
0.444,0.005944087
0.445,0.005888909
0.446,0.005839861
0.447,0.005787748
0.448,0.005741765
0.449,0.005695784
0.45,0.005649801
0.451,0.00560995
0.452,0.005573164
0.453,0.005527182
0.454,0.005493461
0.455,0.005456676
0.456,0.00541989
0.457,0.0053923
0.458,0.005361645
0.459,0.005330991
0.46,0.005309533
0.461,0.005288074
0.462,0.00526355
0.463,0.005245158
0.464,0.005226764
0.465,0.005214503
0.466,0.005202241
0.467,0.00519611
0.468,0.005193044
0.469,0.005189979
0.47,0.005189979
0.471,0.005193044
0.472,0.005199175
0.473,0.005217568
0.474,0.005232896
0.475,0.005254354
0.476,0.005285008
0.477,0.005309533
0.478,0.005349384
0.479,0.0053923
0.48,0.005438283
0.481,0.005499593
0.482,0.005563968
0.483,0.005628342
0.484,0.005711111
0.485,0.005793879
0.486,0.005882777
0.487,0.005987004
0.488,0.006097361
0.489,0.006219981
0.49,0.006345665
0.491,0.006483613
0.492,0.006630755
0.493,0.006787095
0.494,0.006952631
0.495,0.007130429
0.496,0.007311293
0.497,0.007510548
0.498,0.007709805
0.499,0.007924389
0.5,0.008148169
0.501,0.008371949
0.502,0.008614123
0.503,0.008862427
0.504,0.009113796
0.505,0.009383559
0.506,0.009650256
0.507,0.009923084
0.508,0.0102143
0.509,0.01049939
0.51,0.01079981
0.511,0.01110636
0.512,0.01141597
0.513,0.01173172
0.514,0.01205359
0.515,0.01237547
0.516,0.01271267
0.517,0.01304681
0.518,0.01338401
0.519,0.01373348
0.52,0.01407681
0.521,0.01442628
0.522,0.01478494
0.523,0.01514053
0.524,0.01550533
0.525,0.01587318
0.526,0.01624104
0.527,0.0166181
0.528,0.01698902
0.529,0.01737221
0.53,0.01774619
0.531,0.01813551
0.532,0.01851563
0.533,0.01890495
0.534,0.01929733
0.535,0.01969277
0.536,0.02008209
0.537,0.02048367
0.538,0.02087912
0.539,0.02127763
0.54,0.02168534
0.541,0.02208692
0.542,0.02249156
0.543,0.02289927
0.544,0.02331311
0.545,0.02371469
0.546,0.02413466
0.547,0.02454543
0.548,0.02495928
0.549,0.02537925
0.55,0.02579002
0.551,0.02621306
0.552,0.02663609
0.553,0.027053
0.554,0.02747604
0.555,0.02790214
0.556,0.02831905
0.557,0.02874821
0.558,0.02917431
0.559,0.02959429
0.56,0.03002959
0.561,0.03123844
0.562,0.03163695
0.563,0.03209677
0.564,0.03252594
0.565,0.03295511
0.566,0.03338427
0.567,0.03384409
0.568,0.03427326
0.569,0.03473309
0.57,0.03516225
0.571,0.03559142
0.572,0.03605124
0.573,0.03651107
0.574,0.03694023
0.575,0.03740006
0.576,0.03782922
0.577,0.03828905
0.578,0.03874887
0.579,0.03920869
0.58,0.03963786
0.581,0.04009768
0.582,0.0405575
0.583,0.04101732
0.584,0.04144649
0.585,0.04190632
0.586,0.04236614
0.587,0.04282596
0.588,0.04328578
0.589,0.04371495
0.59,0.04417477
0.591,0.0446346
0.592,0.04509442
0.593,0.04555424
0.594,0.04601406
0.595,0.04647389
0.596,0.04693371
0.597,0.04739353
0.598,0.04785335
0.599,0.04831317
0.6,0.048773
0.601,0.04923282
0.602,0.04969264
0.603,0.05015246
0.604,0.05061228
0.605,0.05107211
0.606,0.05153193
0.607,0.05199176
0.608,0.05248223
0.609,0.05294205
0.61,0.05340188
0.611,0.05389235
0.612,0.05435218
0.613,0.054812
0.614,0.05530247
0.615,0.0557623
0.616,0.05622212
0.617,0.0567126
0.618,0.05714176
0.619,0.05763224
0.62,0.05812272
0.621,0.05855189
0.622,0.05904236
0.623,0.05953284
0.624,0.059962
0.625,0.06045249
0.626,0.06094296
0.627,0.06137213
0.628,0.06186261
0.629,0.06235309
0.63,0.06281291
0.631,0.06327273
0.632,0.06376321
0.633,0.06422303
0.634,0.06471351
0.635,0.06517333
0.636,0.06563315
0.637,0.06612363
0.638,0.06658345
0.639,0.06704327
0.64,0.06753375
0.641,0.06799357
0.642,0.06848405
0.643,0.06897452
0.644,0.06943435
0.645,0.06992482
0.646,0.07038464
0.647,0.07087513
0.648,0.0713656
0.649,0.07182543
0.65,0.0723159
0.651,0.07277572
0.652,0.0732662
0.653,0.07375668
0.654,0.07421651
0.655,0.07470698
0.656,0.07519746
0.657,0.07565728
0.658,0.07614776
0.659,0.07660758
0.66,0.07709806
0.661,0.07758854
0.662,0.07807901
0.663,0.07853883
0.664,0.07899866
0.665,0.07948913
0.666,0.07997961
0.667,0.08043943
0.668,0.08092991
0.669,0.08138973
0.67,0.0818802
0.671,0.08237069
0.672,0.08283051
0.673,0.08329033
0.674,0.08378081
0.675,0.08427128
0.676,0.08476176
0.677,0.08525224
0.678,0.08571207
0.679,0.08620254
0.68,0.08669301
0.681,0.0871835
0.682,0.08764332
0.683,0.0881338
0.684,0.08862427
0.685,0.08911475
0.686,0.08957457
0.687,0.09003439
0.688,0.09055553
0.689,0.09101535
0.69,0.09150583
0.691,0.0919963
0.692,0.09245612
0.693,0.0929466
0.694,0.09346773
0.695,0.09392755
0.696,0.09441803
0.697,0.09490851
0.698,0.09539898
0.699,0.09588946
0.7,0.09601208
0.6990001,0.09558292
0.6980001,0.09509244
0.6970001,0.09463262
0.6960001,0.09414214
0.6950001,0.09368231
0.6940001,0.09322249
0.6930001,0.09273202
0.6920001,0.09227219
0.6910001,0.09181237
0.6900001,0.09132189
0.6890001,0.09086207
0.6880001,0.09040225
0.6870001,0.08994243
0.6860001,0.08945195
0.6850001,0.08902278
0.6840001,0.08853231
0.6830001,0.08807249
0.6820001,0.08761266
0.6810001,0.08712219
0.6800001,0.08666236
0.6790001,0.08620254
0.6780001,0.08571207
0.6770001,0.08525224
0.6760001,0.08476176
0.6750001,0.08430194
0.6740001,0.08381146
0.6730001,0.08335164
0.6720001,0.08286116
0.6710001,0.08240134
0.6700001,0.08194152
0.6690001,0.08145104
0.6680001,0.08102188
0.6670001,0.08050074
0.6660001,0.08004092
0.6650001,0.0795811
0.6640001,0.07909062
0.6630001,0.07860014
0.6620001,0.07814032
0.6610001,0.07764985
0.6600001,0.07719002
0.6590001,0.07669955
0.6580001,0.07623972
0.6570001,0.07574924
0.6560001,0.07528942
0.6550001,0.07479894
0.6540001,0.07430847
0.6530001,0.07384864
0.6520001,0.07335817
0.6510001,0.07289835
0.6500001,0.07243852
0.6490001,0.07194804
0.6480001,0.07148822
0.6470001,0.0710284
0.6460001,0.07053792
0.6450001,0.0700781
0.6440001,0.06958763
0.6430001,0.06909715
0.6420001,0.06863733
0.6410001,0.06817751
0.6400001,0.06768703
0.6390001,0.06722721
0.6380001,0.06676738
0.6370001,0.0662769
0.6360001,0.06581708
0.6350001,0.06535726
0.6340001,0.06486678
0.6330001,0.06440695
0.6320001,0.06394713
0.6310001,0.06348731
0.6300001,0.06299683
0.6290001,0.06256767
0.6280001,0.06207719
0.6270001,0.06161737
0.6260001,0.06115754
0.6250001,0.06066707
0.6240001,0.0602379
0.6230001,0.05977808
0.6220001,0.0592876
0.6210001,0.05882778
0.6200001,0.05836796
0.6190001,0.05790814
0.6180001,0.05744831
0.6170001,0.05698849
0.6160001,0.05655932
0.6150001,0.05606885
0.6140001,0.05560903
0.6130001,0.05517985
0.6120001,0.05472003
0.6110001,0.05426021
0.6100001,0.05380039
0.6090001,0.05334057
0.6080001,0.05288074
0.6070001,0.05242092
0.6060001,0.0519611
0.6050001,0.05153193
0.6040001,0.05107211
0.6030001,0.05064294
0.6020001,0.05021377
0.6010001,0.04975395
0.6000001,0.04929413
0.5990001,0.04886496
0.5980001,0.04840514
0.5970001,0.04797597
0.5960001,0.04751615
0.5950001,0.04705633
0.5940001,0.04662716
0.5930001,0.04616734
0.5920001,0.04570751
0.5910001,0.04527835
0.5900001,0.04481852
0.5890001,0.04438936
0.5880001,0.04396019
0.5870001,0.04350037
0.5860001,0.0430712
0.5850001,0.04264203
0.5840001,0.04221286
0.5830001,0.04175304
0.5820001,0.04132387
0.5810001,0.04086405
0.5800001,0.04043488
0.5790001,0.04003637
0.5780001,0.03954589
0.5770001,0.03914738
0.5760001,0.03871821
0.5750001,0.03825839
0.5740001,0.03782922
0.5730001,0.03740006
0.5720001,0.03694023
0.5710001,0.03654172
0.5700001,0.0360819
0.5690001,0.03565273
0.5680001,0.03525422
0.5670001,0.03482505
0.5660001,0.03436523
0.5650001,0.03396672
0.5640001,0.03353755
0.5630001,0.03310838
0.5620001,0.03267921
0.5610001,0.03225004
0.5600001,0.03185153
0.5590001,0.03142237
0.5580001,0.0309932
0.5570001,0.03056403
0.5560001,0.03013486
0.5550001,0.02970569
0.5540001,0.02930718
0.5530001,0.02887801
0.5520001,0.02844885
0.5510001,0.02805033
0.5500001,0.02765182
0.5490001,0.02722265
0.5480001,0.02682414
0.5470001,0.02639497
0.5460001,0.02599646
0.5450001,0.02559795
0.5440001,0.02516878
0.5430001,0.02477027
0.5420001,0.02437175
0.5410001,0.02397324
0.5400001,0.02354407
0.5390001,0.02317622
0.5380001,0.02274705
0.5370001,0.02234854
0.5360001,0.02198068
0.5350001,0.02155151
0.5340001,0.02118365
0.5330001,0.02078514
0.5320001,0.02038663
0.5310001,0.01998811
0.5300001,0.01962026
0.5290001,0.01922174
0.5280001,0.01885389
0.5270001,0.01848603
0.5260001,0.01808752
0.5250001,0.01771966
0.5240001,0.0173518
0.5230001,0.01695329
0.5220001,0.01658543
0.5210001,0.01624822
0.5200001,0.01584971
0.5190001,0.01551251
0.5180001,0.01514465
0.5170001,0.01477679
0.5160001,0.01440894
0.5150001,0.01404108
0.5140001,0.01367322
0.5130001,0.01333602
0.5120001,0.01249502
0.5110001,0.01214862
0.5100001,0.01181449
0.5090001,0.01148341
0.5080001,0.01114928
0.5070001,0.01082433
0.5060001,0.01049633
0.5050001,0.01017139
0.5040001,0.009852578
0.5030001,0.009536833
0.5020001,0.009224153
0.5010001,0.008914541
0.5000001,0.008607992
0.4990001,0.008304508
0.4980001,0.008007158
0.4970001,0.007712871
0.4960001,0.00742165
0.4950001,0.007133495
0.4940001,0.006854536
0.4930001,0.006572511
0.4920001,0.006296618
0.4910001,0.006032987
0.4900001,0.005763224
0.4890001,0.005502658
0.4880001,0.005251288
0.4870001,0.004993788
0.4860001,0.00475468
0.4850001,0.004512507
0.4840001,0.004270334
0.4830001,0.004043488
0.4820001,0.003816642
0.4810001,0.003592863
0.4800001,0.003381344
0.4790001,0.003169826
0.4780001,0.002964438
0.4770001,0.002765182
0.4760001,0.002568991
0.4750001,0.002381997
0.4740001,0.002198068
0.4730001,0.00202027
0.4720001,0.001848603
0.4710001,0.001680001
0.4700001,0.001523662
0.4690001,0.001364256
0.4680001,0.001217113
0.4670001,0.001039823
0.4660001,0.0008997308
0.4650001,0.0007666889
0.4640001,0.0006397779
0.4630001,0.0005125604
0.4620001,0.0003969917
0.4610001,0.0002817295
0.4600001,0.0001695329
0.4590001,7.051778E-05
0.4580001,-3.488402E-05
0.4570001,-0.0001290863
0.4560001,-0.000216054
0.4550001,-0.0003057194
0.4540001,-0.0003868522
0.4530001,-0.0004619566
0.4520001,-0.0005373674
0.4510001,-0.0006060342
0.4500001,-0.000674088
0.4490001,-0.0007381566
0.4480001,-0.0007991597
0.4470001,-0.0008589366
0.4460001,-0.0009098236
0.4450001,-0.0009622434
0.4440001,-0.001013437
0.4430001,-0.001056967
0.4420001,-0.001104175
0.4410001,-0.001146785
0.4400001,-0.001183265
0.4390001,-0.001225875
0.4380001,-0.001259595
0.4370001,-0.001293316
0.4360001,-0.001329795
0.4350001,-0.001357078
0.4340001,-0.001389265
0.4330001,-0.001419
0.4320001,-0.001443218
0.4310001,-0.001472646
0.4300001,-0.001497477
0.4290001,-0.001522307
0.4280001,-0.001547751
0.4270001,-0.00156737
0.4260001,-0.001591281
0.4250001,-0.001612739
0.4240001,-0.001631438
0.4230001,-0.001654123
0.4220001,-0.001672822
0.4210001,-0.001692441
0.4200001,-0.00171298
0.4190001,-0.001727695
0.4180001,-0.00174762
0.4170001,-0.001764787
0.4160001,-0.001780421
0.4150001,-0.001801266
0.4140001,-0.001815367
0.4130001,-0.001831614
0.4120001,-0.001850927
0.4110001,-0.001865028
0.4100001,-0.001888632
0.4090001,-0.001909784
0.4080001,-0.001919594
0.4070001,-0.001936454
0.4060001,-0.001950248
0.4050001,-0.001964963
0.4040001,-0.001982743
0.4030001,-0.001997764
0.4020001,-0.002013704
0.4010001,-0.002029338
0.4000001,-0.002044665
0.3990001,-0.002064284
0.3980001,-0.002077159
0.3970001,-0.002095552
0.3960001,-0.002115171
0.3950001,-0.00212774
0.3940001,-0.002146746
0.3930001,-0.002163606
0.3920001,-0.002177094
0.3910001,-0.002198859
0.3900001,-0.002214493
0.3890001,-0.002230127
0.3880001,-0.002251279
0.3870001,-0.002267832
0.3860001,-0.002285919
0.3850001,-0.002305538
0.3840001,-0.002321785
0.3830001,-0.002342017
0.3820001,-0.002358877
0.3810001,-0.00237819
0.3800001,-0.002399955
0.3790001,-0.002417428
0.3780001,-0.002439806
0.3770001,-0.002460038
0.3760001,-0.002477818
0.3750001,-0.002502035
0.3740001,-0.002520428
0.3730001,-0.002540967
0.3720001,-0.002565797
0.3710001,-0.00258511
0.3700001,-0.002607488
0.3690001,-0.002629559
0.3680001,-0.002650098
0.3670001,-0.002675848
0.3660001,-0.00269608
0.3650001,-0.002720604
0.3640001,-0.002746048
0.3630001,-0.00276628
0.3620001,-0.002790804
0.3610001,-0.002815634
0.3600001,-0.002839238
0.3590001,-0.002866215
0.3580001,-0.002891965
0.3570001,-0.002916489
0.3560001,-0.002941932
0.3550001,-0.00296523
0.3540001,-0.002993432
0.3530001,-0.003018569
0.3520001,-0.003010187
0.3510001,-0.003037777
0.3500001,-0.003059235
0.3490001,-0.003086824
0.3480001,-0.003117479
0.3470001,-0.003138937
0.3460001,-0.003169592
0.3450001,-0.003200247
0.3440001,-0.003224771
0.3430001,-0.003258491
0.3420001,-0.003286081
0.3410001,-0.00331367
0.3400001,-0.003344325
0.3390001,-0.003374979
0.3380001,-0.003405634
0.3370001,-0.003436289
0.3360001,-0.003463879
0.3350001,-0.003494533
0.3340001,-0.003525188
0.3330001,-0.003555843
0.3320001,-0.003589563
0.3310001,-0.003617153
0.3300001,-0.003650873
0.3290001,-0.003681528
0.3280001,-0.003712183
0.3270001,-0.003748968
0.3260001,-0.003779623
0.3250001,-0.003810278
0.3240001,-0.003847064
0.3230001,-0.003874653
0.3220001,-0.003908373
0.3210001,-0.003942094
0.3200001,-0.003975814
0.3190001,-0.0040126
0.3180001,-0.004043255
0.3170001,-0.004076975
0.3160001,-0.004113761
0.3150001,-0.00414135
0.3140001,-0.004181202
0.3130001,-0.004214922
0.3120001,-0.004245576
0.3110001,-0.004282362
0.3100001,-0.004313017
0.3090001,-0.004349803
0.3080001,-0.004383523
0.3070001,-0.004420309
0.3060001,-0.004454029
0.3050001,-0.00448775
0.3040001,-0.004518405
0.3030001,-0.00455519
0.3020001,-0.004585845
0.3010001,-0.004622631
0.3000001,-0.004656351
0.2990001,-0.004687006
0.2980001,-0.004720726
0.2970001,-0.004754446
0.2960001,-0.004785101
0.2950001,-0.004821887
0.2940001,-0.004852542
0.2930001,-0.004886262
0.2920001,-0.004919983
0.2910001,-0.004947572
0.2900001,-0.004984358
0.2890001,-0.005015012
0.2880001,-0.005042602
0.2870001,-0.005079388
0.2860001,-0.005106977
0.2850001,-0.005134566
0.2840001,-0.005168287
0.2830001,-0.005195876
0.2820001,-0.005226531
0.2810001,-0.00525412
0.2800001,-0.005278645
0.2790001,-0.005309299
0.2780001,-0.005336888
0.2770001,-0.005361412
0.2760001,-0.005392067
0.2750001,-0.005416591
0.2740001,-0.005441115
0.2730001,-0.005465638
0.2720001,-0.005487097
0.2710001,-0.005514686
0.2700001,-0.005536145
0.2690001,-0.005557603
0.2680001,-0.005582127
0.2670001,-0.005597454
0.2660001,-0.005618913
0.2650001,-0.005637306
0.2640001,-0.005652633
0.2630001,-0.005674092
0.2620001,-0.005686353
0.2610001,-0.005701681
0.2600001,-0.005717008
0.2590001,-0.005726204
0.2580001,-0.005741532
0.2570001,-0.005753794
0.2560001,-0.005759925
0.2550001,-0.005772187
0.2540001,-0.005775252
0.2530001,-0.005778318
0.2520001,-0.005784449
0.2510001,-0.005784449
0.2500001,-0.005784449
0.2490001,-0.005784449
0.2480001,-0.005781383
0.2470001,-0.005781383
0.2460001,-0.005772187
0.2450001,-0.005762991
0.2440001,-0.00575686
0.2430001,-0.005744598
0.2420001,-0.00572927
0.2410001,-0.005717008
0.2400001,-0.005698615
0.2390001,-0.005677157
0.2380001,-0.005655698
0.2370001,-0.005631175
0.2360001,-0.005603585
0.2350001,-0.005569865
0.2340001,-0.005539211
0.2330001,-0.00550549
0.2320001,-0.005465638
0.2310001,-0.005422722
0.2300001,-0.005376739
0.2290001,-0.005327692
0.2280001,-0.005275579
0.2270001,-0.005214269
0.2260001,-0.005152959
0.2250001,-0.005088584
0.2240001,-0.005015012
0.2230001,-0.004941441
0.2220001,-0.004858673
0.2210001,-0.004769774
0.2200001,-0.004680875
0.2190001,-0.004582779
0.2180001,-0.004484684
0.2170001,-0.004380458
0.2160001,-0.004267035
0.2150001,-0.004159743
0.2140001,-0.004043255
0.2130001,-0.003920636
0.2120001,-0.003807213
0.2110001,-0.003687659
0.2100001,-0.003568105
0.2090001,-0.003451617
0.2080001,-0.003335128
0.2070001,-0.00321864
0.2060001,-0.003111348
0.2050001,-0.003004056
0.2040001,-0.00289983
0.2030001,-0.002798669
0.2020001,-0.002703639
0.2010001,-0.002611674
0.2000001,-0.00251971
0.1990001,-0.002436942
0.1980001,-0.002351108
0.1970001,-0.002274471
0.1960001,-0.002197834
0.1950001,-0.002124263
0.1940001,-0.002056822
0.1930001,-0.001992447
0.1920001,-0.001928072
0.1910001,-0.001869828
0.1900001,-0.001814649
0.1890001,-0.00175947
0.1880001,-0.001713488
0.1870001,-0.001661375
0.1860001,-0.001618458
0.1850001,-0.001575541
0.1840001,-0.001572581
0.1830001,-0.001534262
0.1820001,-0.001497783
0.1810001,-0.00146253
0.1800001,-0.00142973
0.1790001,-0.001397235
0.1780001,-0.001366581
0.1770001,-0.001337459
0.1760001,-0.001309256
0.1750001,-0.00128228
0.1740001,-0.001256223
0.1730001,-0.001231393
0.1720001,-0.001207789
0.1710001,-0.001184491
0.1700001,-0.001162113
0.1690001,-0.001140655
0.1680001,-0.001119809
0.1670001,-0.00110019
0.1660001,-0.001081184
0.1650001,-0.001062485
0.1640001,-0.001044705
0.1630001,-0.001026925
0.1620001,-0.001010065
0.1610001,-0.0009941244
0.1600001,-0.0009781838
0.1590001,-0.000963163
0.1580001,-0.0009484487
0.1570001,-0.0009337344
0.1560001,-0.0009202462
0.1550001,-0.0009064515
0.1540001,-0.00089327
0.1530001,-0.0008807015
0.1520001,-0.000868133
0.1510001,-0.0008561776
0.1500001,-0.0008442223
0.1490001,-0.0008325735
0.1480001,-0.0008218443
0.1470001,-0.0008111151
0.1460001,-0.0008003859
0.1450001,-0.0007902698
0.1440001,-0.0007801537
0.1430001,-0.0007706507
0.1420001,-0.0007611477
0.1410001,-0.0007519512
0.1400001,-0.0007430614
0.1390001,-0.0007341714
0.1380001,-0.0007258946
0.1370001,-0.0007173113
0.1360001,-0.0007090345
0.1350001,-0.0007010642
0.1340001,-0.000693094
0.1330001,-0.0006854302
0.1320001,-0.0006780731
0.1310001,-0.0006704094
0.1300001,-0.0006633588
0.1290001,-0.0006566148
0.1280001,-0.0006495641
0.1270001,-0.0006431266
0.1260001,-0.0006363826
0.1250001,-0.000629945
0.1240001,-0.0006238141
0.1230001,-0.0006176831
0.1220001,-0.0006115522
0.1210001,-0.0006057277
0.1200001,-0.0005999033
0.1190001,-0.0005943854
0.1180001,-0.0005888676
0.1170001,-0.0005833497
0.1160001,-0.0005778318
0.1150001,-0.000572927
0.1140001,-0.0005674092
0.1130001,-0.0005625045
0.1120001,-0.0005572931
0.1110001,-0.0005523883
0.1100001,-0.0005477901
0.1090001,-0.0005428853
0.1080001,-0.000538287
0.1070001,-0.0005336889
0.1060001,-0.0005293972
0.1050001,-0.0005247989
0.1040001,-0.0005205073
0.1030001,-0.0005165222
0.1020001,-0.000512537
0.1010001,-0.0005082454
0.1000001,-0.0005042602
0.0990001,-0.0005002751
0.09800009,-0.00049629
0.09700009,-0.0004926114
0.0960001,-0.0004889328
0.0950001,-0.0004852542
0.09400009,-0.0004815757
0.0930001,-0.0004778971
0.0920001,-0.0004745251
0.0910001,-0.000471153
0.09000009,-0.000467781
0.0890001,-0.0004647155
0.0880001,-0.000461037
0.08700009,-0.0004579714
0.08600009,-0.000454906
0.0850001,-0.0004515339
0.0840001,-0.000448775
0.08300009,-0.0004457095
0.08200009,-0.000442644
0.0810001,-0.0004398851
0.0800001,-0.0004368196
0.07900009,-0.0004340607
0.0780001,-0.0004313017
0.0770001,-0.0004285428
0.07600009,-0.0004257839
0.07500009,-0.0004233315
0.0740001,-0.0004205726
0.0730001,-0.0004181202
0.07200009,-0.0004153613
0.07100009,-0.0004129088
0.0700001,-0.0004101499
0.0690001,-0.0004076975
0.06800009,-0.0004055517
0.0670001,-0.0004030993
0.0660001,-0.0004006469
0.06500009,-0.0003981945
0.06400009,-0.0003957421
0.0630001,-0.0003935963
0.0620001,-0.0003914505
0.06100009,-0.0003889981
0.0600001,-0.0003868522
0.0590001,-0.0003847064
0.0580001,-0.0003825606
0.0570001,-0.0003804147
0.05600009,-0.0003782689
0.0550001,-0.0003761231
0.05400009,-0.0003742838
0.0530001,-0.0003721379
0.05200009,-0.0003699921
0.0510001,-0.0003681528
0.05000009,-0.0003663135
0.0490001,-0.0003641677
0.04800009,-0.0003620218
0.0470001,-0.0003601825
0.0460001,-0.0003583433
0.04500009,-0.000356504
0.0440001,-0.0003549712
0.04300009,-0.0003528254
0.0420001,-0.0003509861
0.04100009,-0.0003491468
0.0400001,-0.0003473075
0.03900009,-0.0003454682
0.0380001,-0.0003439355
0.03700009,-0.0003417897
0.0360001,-0.0003402569
0.0350001,-0.0003384176
0.03400009,-0.0003365783
0.0330001,-0.0003350456
0.03200009,-0.0003332063
0.03100009,-0.0003316735
0.0300001,-0.0003298343
0.0290001,-0.0003283015
0.0280001,-0.0003264622
0.0270001,-0.0003249295
0.0260001,-0.0003233968
0.0250001,-0.0003215575
0.0240001,-0.0003200247
0.0230001,-0.000318492
0.02200009,-0.0003169593
0.02100009,-0.0003154265
0.02000009,-0.0003138937
0.0190001,-0.000312361
0.0180001,-0.0003108283
0.0170001,-0.0003092955
0.0160001,-0.0003077628
0.0150001,-0.00030623
0.0140001,-0.0003046973
0.0130001,-0.0003031646
0.0120001,-0.0003019384
0.01100009,-0.0003004056
0.0100001,-0.0002988729
0.009000096,-0.0002973401
0.008000095,-0.000296114
0.007000095,-0.0002945812
0.006000096,-0.000293355
0.005000095,-0.0002918223
0.004000095,-0.0002905961
0.003000095,-0.0002893699
0.002000095,-0.0002878372
0.001000095,-0.000286611
9.536743E-08,-0.0002810931
0.0009999046,-0.0002755752
0.001999905,-0.0002712836
0.002999905,-0.0002679115
0.003999905,-0.0002645395
0.004999904,-0.000261474
0.005999905,-0.0002584085
0.006999905,-0.0002556496
0.007999904,-0.0002528907
0.008999905,-0.0002504383
0.009999905,-0.0002476793
0.0109999,-0.000245227
0.0119999,-0.0002427746
0.0129999,-0.0002403222
0.0139999,-0.0002381763
0.0149999,-0.000235724
0.0159999,-0.0002335781
0.0169999,-0.0002317388
0.0179999,-0.000229593
0.0189999,-0.0002274471
0.0199999,-0.0002253013
0.0209999,-0.000223462
0.0219999,-0.0002216227
0.02299991,-0.0002194769
0.02399991,-0.0002176376
0.02499991,-0.0002157983
0.02599991,-0.000213959
0.0269999,-0.0002124263
0.0279999,-0.000210587
0.0289999,-0.0002090542
0.0299999,-0.000207215
0.0309999,-0.0002053757
0.0319999,-0.0002038429
0.0329999,-0.0002023102
0.0339999,-0.0002007774
0.0349999,-0.0001989382
0.03599991,-0.0001974054
0.0369999,-0.0001961792
0.03799991,-0.0001943399
0.0389999,-0.0001931137
0.03999991,-0.000191581
0.0409999,-0.0001900483
0.04199991,-0.0001885155
0.0429999,-0.0001872893
0.0439999,-0.0001857566
0.0449999,-0.0001842238
0.0459999,-0.0001829976
0.04699991,-0.0001817715
0.0479999,-0.0001802387
0.04899991,-0.0001790125
0.0499999,-0.0001774798
0.05099991,-0.0001762536
0.0519999,-0.0001750274
0.05299991,-0.0001738012
0.0539999,-0.000172575
0.0549999,-0.0001710423
0.0559999,-0.0001701226
0.0569999,-0.0001685899
0.05799991,-0.0001673637
0.0589999,-0.0001661375
0.05999991,-0.0001649113
0.0609999,-0.0001636851
0.06199991,-0.0001627655
0.0629999,-0.0001615393
0.06399991,-0.0001603131
0.06499991,-0.0001625307
0.0659999,-0.0001613965
0.0669999,-0.0001604155
0.06799991,-0.0001592507
0.0689999,-0.0001581164
0.0699999,-0.0001571048
0.07099991,-0.0001559399
0.07199991,-0.0001549283
0.0729999,-0.0001539167
0.0739999,-0.0001528131
0.07499991,-0.0001518015
0.07599991,-0.0001506673
0.0769999,-0.0001496863
0.0779999,-0.0001487054
0.07899991,-0.0001476018
0.0799999,-0.0001466209
0.0809999,-0.0001456093
0.08199991,-0.0001445977
0.08299991,-0.0001436473
0.0839999,-0.0001426051
0.0849999,-0.0001416241
0.08599991,-0.0001406432
0.08699991,-0.0001396622
0.0879999,-0.0001387426
0.0889999,-0.0001377923
0.08999991,-0.00013675
0.0909999,-0.0001359223
0.0919999,-0.0001349414
0.09299991,-0.0001339911
0.09399991,-0.0001331021
0.0949999,-0.0001320598
0.0959999,-0.0001311095
0.09699991,-0.0001301592
0.09799991,-0.0001292089
0.0989999,-0.0001282893
0.0999999,-0.0001272777
0.1009999,-0.0001263274
0.1019999,-0.0001253464
0.1029999,-0.0001244574
0.1039999,-0.0001235378
0.1049999,-0.0001226488
0.1059999,-0.0001216372
0.1069999,-0.0001208402
0.1079999,-0.0001198592
0.1089999,-0.0001189396
0.1099999,-0.0001181119
0.1109999,-0.0001171309
0.1119999,-0.0001162726
0.1129999,-0.0001153223
0.1139999,-0.000114372
0.1149999,-0.000113575
0.1159999,-0.0001125327
0.1169999,-0.0001116131
0.1179999,-0.0001106628
0.1189999,-0.0001096205
0.1199999,-0.0001087622
0.1209999,-0.0001077505
0.1219999,-0.000106647
0.1229999,-0.000105758
0.1239999,-0.0001046851
0.1249999,-0.0001038267
0.1259999,-0.0001029071
0.1269999,-0.0001018648
0.1279999,-0.0001008839
0.1289999,-9.987225E-05
0.1299999,-9.889129E-05
0.1309999,-9.7941E-05
0.1319999,-9.683742E-05
0.1329999,-9.579516E-05
0.1339999,-9.493683E-05
0.1349999,-9.38026E-05
0.1359999,-9.276033E-05
0.1369999,-9.171807E-05
0.1379999,-9.052253E-05
0.1389999,-8.951092E-05
0.1399999,-8.828473E-05
0.1409999,-8.71505E-05
0.1419999,-8.610824E-05
0.1429999,-8.485139E-05
0.1439999,-8.374781E-05
0.1449999,-8.255227E-05
0.1459999,-8.129543E-05
0.1469999,-8.013054E-05
0.1479999,-7.875108E-05
0.1489999,-7.764751E-05
0.1499999,-7.645196E-05
0.1509999,-7.498054E-05
0.1519999,-7.381565E-05
0.1529999,-7.246684E-05
0.1539999,-7.102606E-05
0.1549999,-6.983052E-05
0.1559999,-6.832844E-05
0.1569999,-6.691832E-05
0.1579999,-6.560016E-05
0.1589999,-6.40061E-05
0.1599999,-6.259599E-05
0.1609999,-6.118586E-05
0.1619999,-5.943854E-05
0.1629999,-5.808972E-05
0.1639999,-5.631175E-05
0.1649999,-5.474835E-05
0.1659999,-5.309299E-05
0.1669999,-5.131501E-05
0.1679999,-4.965965E-05
0.1689999,-4.794298E-05
0.1699999,-4.601172E-05
0.1709999,-4.444833E-05
0.1719999,-4.23638E-05
0.1729999,-4.052451E-05
0.1739999,-3.862391E-05
0.1749999,-3.641676E-05
0.1759999,-3.44242E-05
0.1769999,-3.237033E-05
0.1779999,-3.004056E-05
0.1789999,-2.801734E-05
0.1799999,-2.55343E-05
0.1809999,-2.326585E-05
0.1819999,-2.093608E-05
0.1829999,-1.842238E-05
0.1839999,-1.593934E-05
0.1849999,-1.339499E-05
0.1859999,-1.06054E-05
0.1869999,-8.030396E-06
0.1879999,-4.647155E-06
0.1889999,-2.118132E-06
0.1899999,6.408026E-07
0.1909999,3.923934E-06
0.1919999,6.799357E-06
0.1929999,9.910822E-06
0.1939999,1.332577E-05
0.1949999,1.637899E-05
0.1959999,2.013421E-05
0.1969999,2.348276E-05
0.1979999,2.667087E-05
0.1989999,3.059468E-05
0.1999999,3.430392E-05
0.2009999,3.813577E-05
0.2019999,4.221286E-05
0.2029999,4.610602E-05
0.2039999,5.070425E-05
0.2049999,5.524116E-05
0.2059999,5.953284E-05
0.2069999,6.43763E-05
0.2079999,6.891321E-05
0.2089999,7.390995E-05
0.2099999,7.905996E-05
0.2109999,8.408735E-05
0.2119999,8.978915E-05
0.2129999,9.515374E-05
0.2139999,0.0001007329
0.2149999,0.0001069865
0.2159999,0.0001126883
0.2169999,0.0001189419
0.2179999,0.0001257473
0.2189999,0.0001318782
0.2199999,0.0001391128
0.2209999,0.0001461634
0.2219999,0.0001530607
0.2229999,0.0001609083
0.2239999,0.0001686027
0.2249999,0.0001764503
0.2259999,0.0001851563
0.2269999,0.0001931572
0.2279999,0.0002022924
0.2289999,0.0002112129
0.2299999,0.00022044
0.2309999,0.0002304335
0.2319999,0.0002399672
0.2329999,0.0002503898
0.2339999,0.0002614868
0.2349999,0.0002719708
0.2359999,0.0002840795
0.2369999,0.0002955444
0.2379999,0.0003111582
0.2389999,0.0003237267
0.2399999,0.0003362951
0.2409999,0.0003494767
0.2419999,0.0003635779
0.2429999,0.0003776792
0.2439999,0.0003933131
0.2449999,0.0004080274
0.2459999,0.0004236614
0.2469999,0.0004408281
0.2479999,0.0004570751
0.2489999,0.0004751615
0.2499999,0.0004935544
0.2509999,0.0005116407
0.2519999,0.000531873
0.2529999,0.0005511855
0.2539999,0.0005717242
0.2549999,0.0005937957
0.2559999,0.0006161737
0.2569999,0.0006394714
0.2579999,0.0006630756
0.2589999,0.0006872929
0.2599999,0.000713656
0.2609999,0.000738793
0.2619999,0.0007663824
0.2629999,0.0007955044
0.2639999,0.0008230938
0.2649999,0.0008534421
0.2659999,0.0008850165
0.2669999,0.000916591
0.2679999,0.0009506179
0.2689999,0.0009846448
0.2699999,0.001019898
0.2709999,0.00105699
0.2719999,0.001093776
0.2729999,0.001133014
0.2739999,0.001173785
0.2749999,0.001214862
0.2759999,0.001259005
0.2769999,0.001301922
0.2779999,0.001347598
0.2789999,0.001395419
0.2799999,0.001442321
0.2809999,0.001492902
0.2819999,0.001544095
0.2829999,0.001595902
0.2839999,0.001651694
0.2849999,0.001707179
0.2859999,0.00176389
0.2869999,0.001823974
0.2879999,0.001884057
0.2889999,0.001946287
0.2899999,0.002010662
0.2909999,0.002075037
0.2919999,0.002143397
0.2929999,0.002211451
0.2939999,0.002282264
0.2949999,0.002354609
0.2959999,0.002426648
0.2969999,0.002502979
0.2979999,0.002579309
0.2989999,0.002656559
0.2999999,0.002737488
0.3009999,0.002816577
0.3019999,0.002899345
0.3029999,0.002983033
0.3039999,0.003096254
0.3049999,0.003182088
0.3059999,0.003264856
0.3069999,0.00335682
0.3079999,0.003445719
0.3089999,0.003531553
0.3099999,0.003623517
0.3109999,0.003715482
0.3119999,0.003804381
0.3129999,0.003899411
0.3139999,0.003988309
0.3149999,0.004080274
0.3159999,0.004175304
0.3169999,0.004261137
0.3179999,0.004353102
0.3189999,0.004445066
0.3199999,0.004533966
0.3209999,0.00462593
0.3219999,0.004714829
0.3229999,0.004797597
0.3239999,0.004886496
0.3249999,0.004966198
0.3259999,0.005045901
0.3269999,0.005131735
0.3279999,0.005205306
0.3289999,0.005281943
0.3299999,0.00535858
0.3309999,0.005429087
0.3319999,0.005499593
0.3329999,0.005563968
0.3339999,0.005631408
0.3349999,0.005689653
0.3359999,0.005750962
0.3369999,0.005809206
0.3379999,0.005858254
0.3389999,0.005913433
0.3399999,0.005965546
0.3409999,0.006005398
0.3419999,0.006054445
0.3429999,0.006094296
0.3439999,0.006128016
0.3449999,0.006170933
0.3459999,0.006201588
0.3469999,0.006235308
0.3479999,0.006265963
0.3489999,0.006287422
0.3499999,0.006311945
0.3509999,0.006336469
0.3519999,0.006354862
0.3529999,0.006373255
0.3539999,0.006388582
0.3549999,0.006400844
0.3559999,0.006413106
0.3569999,0.006419237
0.3579999,0.006428434
0.3589999,0.00643763
0.3599999,0.00643763
0.3609999,0.006440695
0.3619999,0.006440695
0.3629999,0.00643763
0.3639999,0.006434564
0.3649999,0.006425368
0.3659999,0.006419237
0.3669999,0.006410041
0.3679999,0.006394713
0.3689999,0.006388582
0.3699999,0.00637019
0.3709999,0.006354862
0.3719999,0.0063426
0.3729999,0.006318076
0.3739999,0.006299683
0.3749999,0.006281291
0.3759999,0.006250636
0.3769999,0.006232243
0.3779999,0.006207719
0.3789999,0.006177064
0.3799999,0.00615254
0.3809999,0.00611882
0.3819999,0.006091231
0.3829999,0.006063641
0.3839999,0.006026856
0.3849999,0.005999266
0.3859999,0.00596248
0.3869999,0.005931825
0.3879999,0.005898105
0.3889999,0.005861319
0.3899999,0.005827599
0.3909999,0.005790813
0.3919999,0.005757092
0.3929999,0.005717242
0.3939999,0.005680456
0.3949999,0.00564367
0.3959999,0.005606884
0.3969999,0.005570099
0.3979999,0.005533312
0.3989999,0.005496527
0.3999999,0.005456676
0.4009999,0.005422956
0.4019999,0.005383104
0.4029999,0.005346318
0.4039999,0.005312598
0.4049999,0.005269681
0.4059999,0.005235961
0.4069999,0.005199175
0.4079999,0.005156258
0.4089999,0.005131735
0.4099999,0.00510108
0.4109999,0.005061228
0.4119999,0.005033639
0.4129999,0.004993788
0.4139999,0.004957002
0.4149999,0.004926347
0.4159999,0.004886496
0.4169999,0.004855841
0.4179999,0.004825186
0.4189999,0.004788401
0.4199999,0.004757746
0.4209999,0.004724025
0.4219999,0.004690305
0.4229999,0.00465965
0.4239999,0.00462593
0.4249999,0.004595275
0.4259999,0.004567686
0.4269999,0.004537031
0.4279999,0.004506376
0.4289999,0.004478787
0.4299999,0.004448132
0.4309999,0.004417477
0.4319999,0.004389888
0.4329999,0.004362299
0.4339999,0.004334709
0.4349999,0.00430712
0.4359999,0.004282596
0.4369999,0.004255007
0.4379999,0.004230483
0.4389999,0.004205959
0.4399999,0.004181435
0.4409999,0.004156911
0.4419999,0.004135453
0.4429999,0.004113995
0.4439999,0.004092536
0.4449999,0.004068012
0.4459999,0.004046554
0.4469999,0.004031226
0.4479999,0.004006702
0.4489999,0.00399444
0.4499999,0.003976048
0.4509999,0.003957655
0.4519999,0.003945393
0.4529999,0.003927
0.4539999,0.003914738
0.4549999,0.003905541
0.4559999,0.00389328
0.4569999,0.003884083
0.4579999,0.003874887
0.4589999,0.003868756
0.4599999,0.00386569
0.4609999,0.003862625
0.4619999,0.003862625
0.4629999,0.00386569
0.4639999,0.003868756
0.4649999,0.003877952
0.4659999,0.003887149
0.4669999,0.003899411
0.4679999,0.003920869
0.4689999,0.003936196
0.4699999,0.00396072
0.4709999,0.003991375
0.4719999,0.004018964
0.4729999,0.004064947
0.4739999,0.004107863
0.4749999,0.004153845
0.4759999,0.004215155
0.4769999,0.004273399
0.4779999,0.00434084
0.4789999,0.004420543
0.4799999,0.004503311
0.4809999,0.004595275
0.4819999,0.004699502
0.4829999,0.004806793
0.4839999,0.004926347
0.4849999,0.005052032
0.4859999,0.005186913
0.4869999,0.005334056
0.4879999,0.005493461
0.4889999,0.005658998
0.4899999,0.00583373
0.4909999,0.006020725
0.4919999,0.006219981
0.4929999,0.006419237
0.4939999,0.006636886
0.4949999,0.006863732
0.4959999,0.007090578
0.4969999,0.007335817
0.4979999,0.007584121
0.4989999,0.007844687
0.4999999,0.008120581
0.5009999,0.008387277
0.5019999,0.008666236
0.5029999,0.008960522
0.5039999,0.009248678
0.5049999,0.009555226
0.5059999,0.009867905
0.5069999,0.01017752
0.5079999,0.01049939
0.5089999,0.0108274
0.5099999,0.01114928
0.5109999,0.01148954
0.5119999,0.01183594
0.5129999,0.01217621
0.5139999,0.01253181
0.5149999,0.01288127
0.5159999,0.01323994
0.5169999,0.0135986
0.5179999,0.01396339
0.5189999,0.01433431
0.5199999,0.01470217
0.5209999,0.01507309
0.5219999,0.01545321
0.5229999,0.0158364
0.5239999,0.01621345
0.5249999,0.01660277
0.5259999,0.01699209
0.5269999,0.01737527
0.5279999,0.01777072
0.5289999,0.01816617
0.5299999,0.01855855
0.5309999,0.01896626
0.5319999,0.01936477
0.5329999,0.01976022
0.5339999,0.02017099
0.5349999,0.0205787
0.5359999,0.02097722
0.5369999,0.02139412
0.5379999,0.0218049
0.5389999,0.02220954
0.5399999,0.02263257
0.5409999,0.02304029
0.5419999,0.02346025
0.5429999,0.02388942
0.5439999,0.02429713
0.5449999,0.02472323
0.5459999,0.02514627
0.5469999,0.02555704
0.5479999,0.02598621
0.5489999,0.02640925
0.5499999,0.02683535
0.5509999,0.02726145
0.5519999,0.02769369
0.5529999,0.02811979
0.5539999,0.02854589
0.5549999,0.02897812
0.5559999,0.02940729
0.5569999,0.02983646
0.5579999,0.03102385
0.5589999,0.03145302
0.5599999,0.03188219
0.5609999,0.03231135
0.5619999,0.03277118
0.5629999,0.03320035
0.5639999,0.03366017
0.5649999,0.03408933
0.5659999,0.0345185
0.5669999,0.03497833
0.5679999,0.03540749
0.5689999,0.03586731
0.5699999,0.03632713
0.5709999,0.0367563
0.5719999,0.03721613
0.5729999,0.0376453
0.5739999,0.03810512
0.5749999,0.03856494
0.5759999,0.03902476
0.5769999,0.03945393
0.5779999,0.03991375
0.5789999,0.04037357
0.5799999,0.04083339
0.5809999,0.04129322
0.5819999,0.04172239
0.5829999,0.04218221
0.5839999,0.04264203
0.5849999,0.04310185
0.5859999,0.04356168
0.5869999,0.0440215
0.5879999,0.04448132
0.5889999,0.04494114
0.5899999,0.04540097
0.5909999,0.04586079
0.5919999,0.04628995
0.5929999,0.04678043
0.5939999,0.04724025
0.5949999,0.04770008
0.5959999,0.0481599
0.5969999,0.04861972
0.5979999,0.04907954
0.5989999,0.04953937
0.5999999,0.04999919
0.6009999,0.05045901
0.6019999,0.05091884
0.6029999,0.05137866
0.6039999,0.05183848
0.6049999,0.0522983
0.6059999,0.05275812
0.6069999,0.0532486
0.6079999,0.05370842
0.6089999,0.0541989
0.6099999,0.05465872
0.6109999,0.05511854
0.6119999,0.05560903
0.6129999,0.05606885
0.6139999,0.05652867
0.6149999,0.05701914
0.6159999,0.05747896
0.6169999,0.05793879
0.6179999,0.05842927
0.6189999,0.05888909
0.6199999,0.05934891
0.6209999,0.05980873
0.6219999,0.06029921
0.6229999,0.06075903
0.6239999,0.06121886
0.6249999,0.06170933
0.6259999,0.06219981
0.6269999,0.06265964
0.6279999,0.06311946
0.6289999,0.06357928
0.6299999,0.06406976
0.6309999,0.06452958
0.6319999,0.0649894
0.6329999,0.06547987
0.6339999,0.0659397
0.6349999,0.06643017
0.6359999,0.06688999
0.6369999,0.06734982
0.6379999,0.0678403
0.6389999,0.06833078
0.6399999,0.06875994
0.6409999,0.06925042
0.6419999,0.06971025
0.6429999,0.07017007
0.6439999,0.07066055
0.6449999,0.07115102
0.6459999,0.07161084
0.6469999,0.07210132
0.6479999,0.07256114
0.6489999,0.07302096
0.6499999,0.07348078
0.6509999,0.07397126
0.6519999,0.07443108
0.6529999,0.07492156
0.6539999,0.07541204
0.6549999,0.07587186
0.6559999,0.07636234
0.6569999,0.07682216
0.6579999,0.07731264
0.6589999,0.07780312
0.6599999,0.07829359
0.6609999,0.07875342
0.6619999,0.07921324
0.6629999,0.07970371
0.6639999,0.08016354
0.6649999,0.08065402
0.6659999,0.0811445
0.6669999,0.08157366
0.6679999,0.0820948
0.6689999,0.08255462
0.6699999,0.08304509
0.6709999,0.08353557
0.6719999,0.08399539
0.6729999,0.08448587
0.6739999,0.08497635
0.6749999,0.08543617
0.6759999,0.08592664
0.6769999,0.08638646
0.6779999,0.08687695
0.6789999,0.08736742
0.6799999,0.08785789
0.6809999,0.08831772
0.6819999,0.0888082
0.6829999,0.08929868
0.6839999,0.0897585
0.6849999,0.09027963
0.6859999,0.09073945
0.6869999,0.09119927
0.6879999,0.09172041
0.6889999,0.09214958
0.6899999,0.09264006
0.6909999,0.09316119
0.6919999,0.09362101
0.6929999,0.09414214
0.6939999,0.09460196
0.6949999,0.09506179
0.6959999,0.09558292
0.6969999,0.09604274
0.6979999,0.09653322
0.6989999,0.09702369
0.6999999,0.09717696
0.6990002,0.09668649
0.6980002,0.09622667
0.6970002,0.09573619
0.6960002,0.09524571
0.6950002,0.09481654
0.6940002,0.09432607
0.6930002,0.09383559
0.6920002,0.09340642
0.6910002,0.09291594
0.6900002,0.09242547
0.6890002,0.09196565
0.6880002,0.09147517
0.6870002,0.09101535
0.6860002,0.09055553
0.6850002,0.09003439
0.6840002,0.08957457
0.6830002,0.08911475
0.6820002,0.08865493
0.6810002,0.08819511
0.6800002,0.08770462
0.6790002,0.08721415
0.6780002,0.08675433
0.6770002,0.08626385
0.6760002,0.08580403
0.6750002,0.0853442
0.6740002,0.08485373
0.6730002,0.08436324
0.6720002,0.08393408
0.6710002,0.0834436
0.6700002,0.08298378
0.6690002,0.08252396
0.6680002,0.08203348
0.6670002,0.08157366
0.6660002,0.08111384
0.6650002,0.08062336
0.6640002,0.08016354
0.6630002,0.07970371
0.6620002,0.07924389
0.6610002,0.07875342
0.6600002,0.07829359
0.6590002,0.07783377
0.6580002,0.07734329
0.6570002,0.07688347
0.6560002,0.07642365
0.6550002,0.07593317
0.6540002,0.07547335
0.6530002,0.07501353
0.6520002,0.07455371
0.6510002,0.07406323
0.6500002,0.07360341
0.6490002,0.07314359
0.6480002,0.07268376
0.6470002,0.07219329
0.6460002,0.07173347
0.6450002,0.07127364
0.6440002,0.07081382
0.6430002,0.07035399
0.6420002,0.06989417
0.6410002,0.0694037
0.6400002,0.06894387
0.6390002,0.06848405
0.6380002,0.06799357
0.6370002,0.06753375
0.6360002,0.06710459
0.6350002,0.06661411
0.6340002,0.06615429
0.6330002,0.06569446
0.6320002,0.06523464
0.6310002,0.06477482
0.6300002,0.06431499
0.6290002,0.06382452
0.6280002,0.06339534
0.6270002,0.06293552
0.6260002,0.06247571
0.6250002,0.06198522
0.6240002,0.0615254
0.6230002,0.06106558
0.6220002,0.06060576
0.6210002,0.06011529
0.6200002,0.05968611
0.6190002,0.05922629
0.6180002,0.05876647
0.6170002,0.05830665
0.6160002,0.05784683
0.6150002,0.057387
0.6140002,0.05692718
0.6130002,0.05646735
0.6120002,0.05600753
0.6110002,0.05554771
0.6100002,0.05508789
0.6090002,0.05462807
0.6080002,0.05416824
0.6070002,0.05373908
0.6060002,0.0532486
0.6050002,0.05281943
0.6040002,0.05235961
0.6030002,0.05189979
0.6020002,0.05143997
0.6010002,0.05098015
0.6000002,0.05052032
0.5990002,0.05009115
0.5980002,0.04966199
0.5970002,0.04917151
0.5960002,0.04874234
0.5950002,0.04831317
0.5940002,0.04785335
0.5930002,0.04739353
0.5920002,0.04696436
0.5910002,0.04647389
0.5900002,0.04604472
0.5890002,0.04558489
0.5880002,0.04515573
0.5870002,0.04472656
0.5860002,0.04423608
0.5850002,0.04380691
0.5840002,0.04337775
0.5830002,0.04291793
0.5820002,0.04248876
0.5810002,0.04205959
0.5800002,0.04159977
0.5790002,0.04113995
0.5780002,0.04071078
0.5770002,0.04025095
0.5760002,0.03982178
0.5750002,0.03939262
0.5740002,0.0389328
0.5730002,0.03853428
0.5720002,0.03807446
0.5710002,0.03761464
0.5700002,0.03721613
0.5690002,0.0367563
0.5680002,0.03632713
0.5670002,0.03589797
0.5660002,0.0354688
0.5650002,0.03500898
0.5640002,0.03457981
0.5630002,0.03415065
0.5620002,0.03375213
0.5610002,0.03329231
0.5600002,0.03286314
0.5590002,0.03243398
0.5580002,0.03200481
0.5570002,0.03160629
0.5560002,0.03117712
0.5550002,0.03074796
0.5540002,0.03031879
0.5530002,0.02988962
0.5520002,0.02949111
0.5510002,0.02903129
0.5500002,0.02863277
0.5490002,0.02820361
0.5480002,0.02777444
0.5470002,0.02737593
0.5460002,0.02694676
0.5450002,0.02654825
0.5440002,0.02614973
0.5430002,0.02572057
0.5420002,0.02532205
0.5410002,0.02489289
0.5400002,0.02449437
0.5390002,0.02409586
0.5380002,0.02366669
0.5370002,0.02326818
0.5360002,0.02286967
0.5350002,0.02247116
0.5340002,0.02207264
0.5330002,0.02167413
0.5320002,0.02127562
0.5310002,0.0208771
0.5300002,0.02047859
0.5290002,0.02008008
0.5280002,0.01971222
0.5270002,0.01931371
0.5260002,0.01894585
0.5250002,0.01854734
0.5240002,0.01817948
0.5230002,0.01778097
0.5220002,0.01741311
0.5210002,0.01704525
0.5200002,0.01667739
0.5190002,0.01627888
0.5180002,0.01591102
0.5170002,0.01554316
0.5160002,0.01517531
0.5150002,0.01480745
0.5140002,0.01443959
0.5130002,0.01407173
0.5120002,0.01373453
0.5110002,0.01336667
0.5100002,0.01253487
0.5090002,0.01219154
0.5080002,0.01184514
0.5070002,0.011511
0.5060002,0.0111738
0.5050002,0.01083966
0.5040002,0.01051166
0.5030002,0.01018365
0.5020002,0.009861774
0.5010002,0.009542963
0.5000002,0.009224153
0.4990002,0.00890841
0.4980002,0.008598795
0.4970002,0.008295313
0.4960002,0.00799183
0.4950002,0.007694478
0.4940002,0.007397126
0.4930002,0.007105905
0.4920002,0.006820816
0.4910002,0.006538791
0.4900002,0.006259832
0.4890002,0.005987004
0.4880002,0.005717242
0.4870002,0.00545361
0.4860002,0.00519611
0.4850002,0.004941675
0.4840002,0.004690305
0.4830002,0.004448132
0.4820002,0.004202893
0.4810002,0.003969917
0.4800002,0.003740005
0.4790002,0.003510094
0.4780002,0.003298576
0.4770002,0.003083992
0.4760002,0.002872474
0.4750002,0.002673218
0.4740002,0.002473961
0.4730002,0.002280836
0.4720002,0.002096907
0.4710002,0.001916043
0.4700002,0.001741311
0.4690002,0.001575775
0.4680002,0.001410239
0.4670002,0.001250834
0.4660002,0.001069252
0.4650002,0.0009242547
0.4640002,0.0007847752
0.4630002,0.000646522
0.4620002,0.0005183848
0.4610002,0.0003914738
0.4600002,0.0002703872
0.4590002,0.0001603364
0.4580002,4.875285E-05
0.4570002,-6.029687E-05
0.4560002,-0.0001556334
0.4550002,-0.0002536369
0.4540002,-0.0003440073
0.4530002,-0.0004285428
0.4520002,-0.0005106977
0.4510002,-0.0005864152
0.4500002,-0.0006618261
0.4490002,-0.0007326387
0.4480002,-0.0007985466
0.4470002,-0.0008638413
0.4460002,-0.0009208593
0.4450002,-0.0009778773
0.4440002,-0.001033976
0.4430002,-0.001081797
0.4420002,-0.001132991
0.4410002,-0.00117928
0.4400002,-0.001219437
0.4390002,-0.0012645
0.4380002,-0.001301899
0.4370002,-0.001338378
0.4360002,-0.00137639
0.4350002,-0.001406432
0.4340002,-0.001439232
0.4330002,-0.001470194
0.4320002,-0.001497783
0.4310002,-0.001528438
0.4300002,-0.001552962
0.4290002,-0.001578712
0.4280002,-0.001604462
0.4270002,-0.001625614
0.4260002,-0.001649525
0.4250002,-0.001670983
0.4240002,-0.001689069
0.4230002,-0.001713287
0.4220002,-0.00173168
0.4210002,-0.001750072
0.4200002,-0.001770918
0.4190002,-0.001784099
0.4180002,-0.001804025
0.4170002,-0.001822111
0.4160002,-0.001836213
0.4150002,-0.001856751
0.4140002,-0.00187024
0.4130002,-0.00188526
0.4120002,-0.00190396
0.4110002,-0.001917141
0.4100002,-0.0019386
0.4090002,-0.001958525
0.4080002,-0.001968641
0.4070002,-0.001984275
0.4060002,-0.001996844
0.4050002,-0.002011864
0.4040002,-0.002026579
0.4030002,-0.00203976
0.4020002,-0.002056314
0.4010002,-0.002069802
0.4000002,-0.002082984
0.3990002,-0.002101377
0.3980002,-0.002113026
0.3970002,-0.002129886
0.3960002,-0.002148279
0.3950002,-0.002158701
0.3940002,-0.002175561
0.3930002,-0.002191808
0.3920002,-0.00220407
0.3910002,-0.002223689
0.3900002,-0.002239323
0.3890002,-0.002253425
0.3880002,-0.002271818
0.3870002,-0.002285919
0.3860002,-0.002303086
0.3850002,-0.002320559
0.3840002,-0.002334353
0.3830002,-0.002353359
0.3820002,-0.002368993
0.3810002,-0.00238708
0.3800002,-0.002405779
0.3790002,-0.00242172
0.3780002,-0.002442871
0.3770002,-0.002460345
0.3760002,-0.002476898
0.3750002,-0.00249805
0.3740002,-0.002513991
0.3730002,-0.00253361
0.3720002,-0.002554761
0.3710002,-0.002572541
0.3700002,-0.002594306
0.3690002,-0.002614232
0.3680002,-0.002631399
0.3670002,-0.002655003
0.3660002,-0.002673702
0.3650002,-0.002694548
0.3640002,-0.002719071
0.3630002,-0.002737464
0.3620002,-0.002759536
0.3610002,-0.00278314
0.3600002,-0.002801839
0.3590002,-0.002826976
0.3580002,-0.002850274
0.3570002,-0.002871426
0.3560002,-0.002896563
0.3550002,-0.002917102
0.3540002,-0.002941625
0.3530002,-0.002966149
0.3520002,-0.002988528
0.3510002,-0.00301489
0.3500002,-0.003004056
0.3490002,-0.003025514
0.3480002,-0.003053104
0.3470002,-0.003074562
0.3460002,-0.003102152
0.3450002,-0.003129741
0.3440002,-0.003151199
0.3430002,-0.003178789
0.3420002,-0.003203312
0.3410002,-0.003230902
0.3400002,-0.003258491
0.3390002,-0.003286081
0.3380002,-0.00331367
0.3370002,-0.003341259
0.3360002,-0.003365783
0.3350002,-0.003396438
0.3340002,-0.003424027
0.3330002,-0.003448551
0.3320002,-0.003479206
0.3310002,-0.00350373
0.3300002,-0.003534385
0.3290002,-0.003565039
0.3280002,-0.003589563
0.3270002,-0.003623284
0.3260002,-0.003650873
0.3250002,-0.003681528
0.3240002,-0.003712183
0.3230002,-0.003739772
0.3220002,-0.003770427
0.3210002,-0.003801082
0.3200002,-0.003831736
0.3190002,-0.003862391
0.3180002,-0.00388998
0.3170002,-0.003920636
0.3160002,-0.00395129
0.3150002,-0.00397888
0.3140002,-0.0040126
0.3130002,-0.004043255
0.3120002,-0.004073909
0.3110002,-0.004104564
0.3100002,-0.004132153
0.3090002,-0.004162808
0.3080002,-0.004196529
0.3070002,-0.004230249
0.3060002,-0.004260904
0.3050002,-0.004291559
0.3040002,-0.004316083
0.3030002,-0.004349803
0.3020002,-0.004377393
0.3010002,-0.004408047
0.3000002,-0.004435637
0.2990002,-0.004463226
0.2980002,-0.004496946
0.2970002,-0.004524535
0.2960002,-0.004552125
0.2950002,-0.004585845
0.2940002,-0.004613434
0.2930002,-0.004641024
0.2920002,-0.004668613
0.2910002,-0.004693137
0.2900002,-0.004723792
0.2890002,-0.004751381
0.2880002,-0.004775905
0.2870002,-0.00480656
0.2860002,-0.004834149
0.2850002,-0.004855608
0.2840002,-0.004883197
0.2830002,-0.004910786
0.2820002,-0.00493531
0.2810002,-0.004959834
0.2800002,-0.004981292
0.2790002,-0.005005816
0.2780002,-0.00503034
0.2770002,-0.005051799
0.2760002,-0.005073257
0.2750002,-0.005094715
0.2740002,-0.005116174
0.2730002,-0.005134566
0.2720002,-0.005152959
0.2710002,-0.005177483
0.2700002,-0.005189745
0.2690002,-0.005211203
0.2680002,-0.005226531
0.2670002,-0.005238793
0.2660002,-0.005260251
0.2650002,-0.005272513
0.2640002,-0.005284776
0.2630002,-0.005300103
0.2620002,-0.005309299
0.2610002,-0.005318495
0.2600002,-0.005330757
0.2590002,-0.005333823
0.2580002,-0.005346085
0.2570002,-0.00534915
0.2560002,-0.005355281
0.2550002,-0.005364478
0.2540002,-0.005361412
0.2530002,-0.005364478
0.2520002,-0.005364478
0.2510002,-0.005355281
0.2500002,-0.005355281
0.2490002,-0.005355281
0.2480002,-0.005343019
0.2470002,-0.005339954
0.2460002,-0.005333823
0.2450002,-0.00531543
0.2440002,-0.005309299
0.2430002,-0.005293972
0.2420002,-0.005275579
0.2410002,-0.005260251
0.2400002,-0.005238793
0.2390002,-0.005214269
0.2380002,-0.005192811
0.2370002,-0.005165222
0.2360002,-0.005134566
0.2350002,-0.005103912
0.2340002,-0.005070191
0.2330002,-0.00503034
0.2320002,-0.004990489
0.2310002,-0.004947572
0.2300002,-0.004898524
0.2290002,-0.004846411
0.2280002,-0.004794298
0.2270002,-0.004732988
0.2260002,-0.004671679
0.2250002,-0.004607304
0.2240002,-0.004536797
0.2230002,-0.004466291
0.2220002,-0.004386589
0.2210002,-0.00430382
0.2200002,-0.004221053
0.2190002,-0.004126023
0.2180002,-0.004034058
0.2170002,-0.003939028
0.2160002,-0.003837867
0.2150002,-0.003739772
0.2140002,-0.003635545
0.2130002,-0.003531319
0.2120002,-0.003433224
0.2110002,-0.003328997
0.2100002,-0.003224771
0.2090002,-0.003126675
0.2080002,-0.003025514
0.2070002,-0.002930485
0.2060002,-0.00283852
0.2050002,-0.002746556
0.2040002,-0.002657657
0.2030002,-0.002571823
0.2020002,-0.00248599
0.2010002,-0.002406287
0.2000002,-0.002326585
0.1990002,-0.002253013
0.1980002,-0.002182507
0.1970002,-0.002112001
0.1960002,-0.002047626
0.1950002,-0.001986316
0.1940002,-0.001931137
0.1930002,-0.001872893
0.1920002,-0.00182078
0.1910002,-0.001774798
0.1900002,-0.00172575
0.1890002,-0.001679768
0.1880002,-0.001636851
0.1870002,-0.001593934
0.1860002,-0.001592813
0.1850002,-0.001555721
0.1840002,-0.001518629
0.1830002,-0.001485828
0.1820002,-0.001453027
0.1810002,-0.001420533
0.1800002,-0.001391717
0.1790002,-0.001362902
0.1780002,-0.001334393
0.1770002,-0.001308643
0.1760002,-0.001282586
0.1750002,-0.001258063
0.1740002,-0.001234765
0.1730002,-0.001211467
0.1720002,-0.001189702
0.1710002,-0.00116855
0.1700002,-0.001147705
0.1690002,-0.001127779
0.1680002,-0.00110816
0.1670002,-0.001090381
0.1660002,-0.001072294
0.1650002,-0.001054821
0.1640002,-0.001037961
0.1630002,-0.001021407
0.1620002,-0.001005773
0.1610002,-0.0009901392
0.1600002,-0.0009754249
0.1590002,-0.0009610172
0.1580002,-0.0009469159
0.1570002,-0.0009331212
0.1560002,-0.0009202462
0.1550002,-0.0009073712
0.1540002,-0.0008951093
0.1530002,-0.0008828474
0.1520002,-0.0008705854
0.1510002,-0.0008595497
0.1500002,-0.0008482074
0.1490002,-0.0008368651
0.1480002,-0.000826749
0.1470002,-0.0008163264
0.1460002,-0.0008062103
0.1450002,-0.0007967073
0.1440002,-0.0007868978
0.1430002,-0.0007773947
0.1420002,-0.0007685049
0.1410002,-0.0007596149
0.1400002,-0.0007513381
0.1390002,-0.0007427548
0.1380002,-0.0007344779
0.1370002,-0.0007265077
0.1360002,-0.000718231
0.1350002,-0.0007105672
0.1340002,-0.0007029035
0.1330002,-0.0006955464
0.1320002,-0.0006888023
0.1310002,-0.0006814452
0.1300002,-0.0006747011
0.1290002,-0.0006679571
0.1280002,-0.000661213
0.1270002,-0.0006547754
0.1260002,-0.0006486445
0.1250002,-0.0006422069
0.1240002,-0.0006363826
0.1230002,-0.0006302515
0.1220002,-0.0006244272
0.1210002,-0.0006186027
0.1200002,-0.0006127784
0.1190002,-0.000607567
0.1180002,-0.0006020491
0.1170002,-0.0005968378
0.1160002,-0.000591933
0.1150002,-0.0005867218
0.1140002,-0.0005815104
0.1130002,-0.0005769122
0.1120002,-0.0005720074
0.1110002,-0.0005674092
0.1100002,-0.000562811
0.1090002,-0.0005579062
0.1080002,-0.0005536145
0.1070002,-0.0005493228
0.1060002,-0.0005447246
0.1050002,-0.0005404329
0.1040002,-0.0005361412
0.1030002,-0.0005321561
0.1020002,-0.000528171
0.1010002,-0.0005241859
0.1000002,-0.0005202008
0.09900019,-0.0005165222
0.09800019,-0.0005128436
0.09700019,-0.0005088585
0.09600019,-0.0005051799
0.09500019,-0.0005018078
0.09400019,-0.0004981293
0.09300019,-0.0004947572
0.09200019,-0.0004913852
0.09100019,-0.0004880132
0.09000019,-0.0004846411
0.08900019,-0.0004812691
0.08800019,-0.0004782036
0.08700019,-0.0004751382
0.08600019,-0.0004717661
0.08500019,-0.0004687006
0.08400019,-0.0004656352
0.08300019,-0.0004628762
0.08200019,-0.0004598107
0.08100019,-0.0004570518
0.08000019,-0.0004539863
0.07900019,-0.0004512274
0.07800019,-0.0004484684
0.07700019,-0.0004457095
0.07600019,-0.0004432572
0.07500019,-0.0004408048
0.07400019,-0.0004380458
0.07300019,-0.0004352869
0.07200019,-0.0004328345
0.07100019,-0.0004303821
0.07000019,-0.0004279297
0.06900019,-0.0004254773
0.06800019,-0.0004230249
0.06700019,-0.0004208791
0.06600019,-0.0004184267
0.06500019,-0.0004162809
0.06400019,-0.0004138285
0.06300019,-0.0004116826
0.06200019,-0.0004092303
0.06100019,-0.0004070844
0.06000019,-0.0004049386
0.05900019,-0.0004027928
0.05800019,-0.0004006469
0.05700019,-0.0003985011
0.05600019,-0.0003963552
0.05500019,-0.000394516
0.05400019,-0.0003923701
0.05300019,-0.0003902243
0.05200019,-0.000388385
0.05100019,-0.0003862391
0.05000019,-0.0003843998
0.04900019,-0.0003825606
0.04800019,-0.0003804147
0.04700019,-0.0003785754
0.04600019,-0.0003767362
0.04500019,-0.0003745903
0.04400019,-0.0003730576
0.04300019,-0.0003709117
0.04200019,-0.0003690725
0.04100019,-0.0003672332
0.04000019,-0.0003653939
0.03900019,-0.0003635546
0.03800019,-0.0003620218
0.03700019,-0.000359876
0.03600019,-0.0003583433
0.03500019,-0.000356504
0.03400019,-0.0003546647
0.03300019,-0.0003528254
0.03200019,-0.0003512927
0.03100019,-0.0003494534
0.03000019,-0.0003476141
0.02900019,-0.0003460813
0.02800019,-0.000344242
0.02700019,-0.0003424028
0.02600019,-0.00034087
0.02500019,-0.0003390307
0.02400019,-0.0003371914
0.02300019,-0.0003353521
0.02200019,-0.0003335129
0.02100019,-0.0003319801
0.02000019,-0.0003304474
0.01900019,-0.0003286081
0.01800019,-0.0003267688
0.01700019,-0.000325236
0.01600019,-0.0003233968
0.01500019,-0.0003215575
0.01400019,-0.0003200247
0.01300019,-0.0003181854
0.01200019,-0.0003166527
0.01100019,-0.0003151199
0.01000019,-0.0003132806
0.009000191,-0.0003117479
0.00800019,-0.0003102152
0.007000191,-0.0003083759
0.006000191,-0.0003071497
0.005000191,-0.0003053104
0.004000191,-0.0003037777
0.003000191,-0.0003025515
0.002000191,-0.0003007122
0.001000191,-0.000299486
1.907349E-07,-0.000293355
0.0009998092,-0.0002875306
0.001999809,-0.0002835455
0.002999809,-0.0002795603
0.003999809,-0.0002761883
0.004999809,-0.0002728163
0.005999809,-0.0002697508
0.006999809,-0.0002666853
0.007999809,-0.0002636198
0.00899981,-0.0002608609
0.009999809,-0.000258102
0.01099981,-0.000255343
0.01199981,-0.0002528907
0.01299981,-0.0002501317
0.01399981,-0.0002479859
0.01499981,-0.000245227
0.01599981,-0.0002430811
0.01699981,-0.0002406287
0.01799981,-0.0002384829
0.01899981,-0.000236337
0.01999981,-0.0002341912
0.02099981,-0.0002320454
0.02199981,-0.0002298995
0.02299981,-0.0002277537
0.02399981,-0.0002259144
0.02499981,-0.0002237686
0.02599981,-0.0002219293
0.02699981,-0.00022009
0.02799981,-0.0002182507
0.02899981,-0.0002164114
0.02999981,-0.0002145721
0.03099981,-0.0002127328
0.03199981,-0.0002108935
0.03299981,-0.0002090542
0.03399981,-0.0002075215
0.03499981,-0.0002059888
0.03599981,-0.0002041495
0.03699981,-0.0002026167
0.03799981,-0.000201084
0.03899981,-0.0001992447
0.03999981,-0.000197712
0.04099981,-0.0001964858
0.04199981,-0.0001946465
0.04299981,-0.0001931137
0.04399981,-0.000191581
0.04499981,-0.0001903548
0.04599981,-0.0001888221
0.04699981,-0.0001872893
0.04799981,-0.0001860631
0.04899981,-0.0001845304
0.04999981,-0.0001833042
0.05099981,-0.0001817715
0.05199981,-0.0001805453
0.05299981,-0.0001790125
0.05399981,-0.0001777863
0.05499981,-0.0001765601
0.05599981,-0.0001753339
0.05699981,-0.0001738012
0.05799981,-0.000172575
0.05899981,-0.0001713488
0.05999981,-0.0001701226
0.06099981,-0.0001688964
0.06199981,-0.0001676702
0.06299981,-0.000166444
0.06399981,-0.0001652178
0.06499981,-0.0001639917
0.06599981,-0.0001627655
0.06699981,-0.0001615393
0.06799981,-0.0001603131
0.06899981,-0.0001593934
0.06999981,-0.0001615191
0.07099981,-0.0001604155
0.07199981,-0.0001592813
0.07299981,-0.0001582084
0.07399981,-0.0001571048
0.07499981,-0.0001560932
0.07599981,-0.000154959
0.07699981,-0.0001538554
0.07799981,-0.0001529358
0.07899981,-0.0001518322
0.07999981,-0.0001507593
0.08099981,-0.0001497783
0.08199981,-0.0001487054
0.08299981,-0.0001477551
0.08399981,-0.0001466209
0.08499981,-0.0001457012
0.08599981,-0.0001447203
0.08699981,-0.0001435554
0.08799981,-0.0001426357
0.08899981,-0.0001415322
0.08999981,-0.0001404899
0.09099981,-0.0001396009
0.09199981,-0.0001385587
0.09299981,-0.0001375777
0.09399981,-0.000136658
0.09499981,-0.0001356464
0.09599981,-0.0001347575
0.09699981,-0.0001338072
0.09799981,-0.0001328569
0.09899981,-0.0001319372
0.09999981,-0.0001308949
0.1009998,-0.0001300979
0.1019998,-0.000129025
0.1029998,-0.0001280747
0.1039998,-0.0001271551
0.1049998,-0.0001261128
0.1059998,-0.0001250705
0.1069998,-0.0001241815
0.1079998,-0.0001231699
0.1089998,-0.0001222503
0.1099998,-0.0001214226
0.1109998,-0.0001203497
0.1119998,-0.00011943
0.1129998,-0.0001186024
0.1139998,-0.0001175294
0.1149998,-0.0001165791
0.1159998,-0.0001155675
0.1169998,-0.0001147092
0.1179998,-0.0001137896
0.1189998,-0.0001127166
0.1199998,-0.0001117663
0.1209998,-0.0001106934
0.1219998,-0.0001096511
0.1229998,-0.0001087008
0.1239998,-0.0001076279
0.1249998,-0.000106647
0.1259998,-0.0001056354
0.1269998,-0.0001045624
0.1279998,-0.0001037041
0.1289998,-0.0001026312
0.1299998,-0.0001015583
0.1309998,-0.0001006386
0.1319998,-9.941243E-05
0.1329998,-9.840082E-05
0.1339998,-9.735856E-05
0.1349998,-9.622433E-05
0.1359998,-9.515141E-05
0.1369998,-9.410914E-05
0.1379998,-9.297491E-05
0.1389998,-9.193265E-05
0.1399998,-9.076777E-05
0.1409998,-8.957223E-05
0.1419998,-8.846866E-05
0.1429998,-8.71505E-05
0.1439998,-8.598562E-05
0.1449998,-8.482073E-05
0.1459998,-8.353323E-05
0.1469998,-8.221508E-05
0.1479998,-8.083561E-05
0.1489998,-7.964007E-05
0.1499998,-7.832191E-05
0.1509998,-7.685048E-05
0.1519998,-7.562429E-05
0.1529998,-7.424482E-05
0.1539998,-7.277339E-05
0.1549998,-7.15472E-05
0.1559998,-6.995314E-05
0.1569998,-6.857367E-05
0.1579998,-6.719421E-05
0.1589998,-6.560016E-05
0.1599998,-6.403676E-05
0.1609998,-6.253467E-05
0.1619998,-6.0818E-05
0.1629998,-5.925461E-05
0.1639998,-5.732335E-05
0.1649998,-5.569865E-05
0.1659998,-5.401264E-05
0.1669998,-5.211203E-05
0.1679998,-5.045668E-05
0.1689998,-4.864804E-05
0.1699998,-4.671679E-05
0.1709998,-4.493881E-05
0.1719998,-4.294624E-05
0.1729998,-4.086172E-05
0.1739998,-3.902242E-05
0.1749998,-3.672331E-05
0.1759998,-3.463879E-05
0.1769998,-3.243164E-05
0.1779998,-3.004056E-05
0.1789998,-2.786407E-05
0.1799998,-2.528906E-05
0.1809998,-2.289799E-05
0.1819998,-2.04456E-05
0.1829998,-1.790125E-05
0.1839998,-1.538755E-05
0.1849998,-1.268993E-05
0.1859998,-9.900341E-06
0.1869998,-6.894153E-06
0.1879998,-3.966617E-06
0.1889998,-1.118784E-06
0.1899998,1.771966E-06
0.1909998,5.110276E-06
0.1919998,8.203348E-06
0.1929998,1.15202E-05
0.1939998,1.501178E-05
0.1949998,1.831331E-05
0.1959998,2.207264E-05
0.1969998,2.541402E-05
0.1979998,2.900063E-05
0.1989998,3.332296E-05
0.1999998,3.709351E-05
0.2009998,4.101732E-05
0.2019998,4.543162E-05
0.2029998,4.947805E-05
0.2039998,5.441349E-05
0.2049998,5.904236E-05
0.2059998,6.3426E-05
0.2069998,6.857601E-05
0.2079998,7.345013E-05
0.2089998,7.850817E-05
0.2099998,8.399539E-05
0.2109998,8.911475E-05
0.2119998,9.521506E-05
0.2129998,0.0001008555
0.2139998,0.0001065573
0.2149998,0.0001130255
0.2159998,0.0001191871
0.2169998,0.0001258392
0.2179998,0.0001327366
0.2189998,0.0001394193
0.2199998,0.0001470217
0.2209998,0.0001543789
0.2219998,0.000161736
0.2229998,0.0001698595
0.2239998,0.0001781977
0.2249998,0.0001865664
0.2259998,0.0001953031
0.2269998,0.0002040397
0.2279998,0.000213696
0.2289998,0.0002228924
0.2299998,0.0002325487
0.2309998,0.0002432472
0.2319998,0.0002532407
0.2329998,0.0002642151
0.2339998,0.0002758333
0.2349998,0.0002867464
0.2359998,0.0003028814
0.2369998,0.0003148368
0.2379998,0.0003270987
0.2389998,0.0003408933
0.2399998,0.0003543815
0.2409998,0.0003681761
0.2419998,0.000383197
0.2429998,0.0003985244
0.2439998,0.0004144649
0.2449998,0.0004304055
0.2459998,0.0004469591
0.2469998,0.0004647389
0.2479998,0.0004819056
0.2489998,0.000500605
0.2499998,0.0005199176
0.2509998,0.0005389235
0.2519998,0.0005606884
0.2529998,0.0005809207
0.2539998,0.000602379
0.2549998,0.0006259833
0.2559998,0.0006489744
0.2569998,0.0006731917
0.2579998,0.0006983287
0.2589998,0.0007231591
0.2599998,0.0007513615
0.2609998,0.0007783378
0.2619998,0.0008065402
0.2629998,0.0008365819
0.2639998,0.0008666236
0.2649998,0.0008978916
0.2659998,0.0009306922
0.2669998,0.0009634929
0.2679998,0.0009990525
0.2689998,0.001035225
0.2699998,0.001071704
0.2709998,0.001110329
0.2719998,0.001148648
0.2729998,0.001189725
0.2739998,0.001231723
0.2749998,0.001274333
0.2759998,0.001320315
0.2769998,0.001364765
0.2779998,0.00141228
0.2789998,0.00146194
0.2799998,0.001509762
0.2809998,0.001562182
0.2819998,0.001615521
0.2829998,0.001668247
0.2839998,0.001726491
0.2849998,0.001783203
0.2859998,0.001841141
0.2869998,0.001903063
0.2879998,0.001964679
0.2889998,0.002027828
0.2899998,0.00209343
0.2909998,0.002159338
0.2919998,0.002228924
0.2929998,0.002298204
0.2939998,0.00236963
0.2949998,0.002443508
0.2959998,0.00251616
0.2969998,0.002592797
0.2979998,0.002669128
0.2989998,0.002746378
0.2999998,0.002827307
0.3009998,0.002907316
0.3019998,0.002989471
0.3029998,0.003102385
0.3039998,0.003182088
0.3049998,0.003267921
0.3059998,0.003350689
0.3069998,0.003439588
0.3079998,0.003528487
0.3089998,0.003614321
0.3099998,0.003700154
0.3109998,0.003789053
0.3119998,0.003874887
0.3129998,0.003966851
0.3139998,0.004052685
0.3149998,0.004138518
0.3159998,0.004230483
0.3169998,0.004313251
0.3179998,0.004399084
0.3189998,0.004484918
0.3199998,0.00456462
0.3209998,0.004650454
0.3219998,0.004733222
0.3229998,0.004809859
0.3239998,0.004889561
0.3249998,0.004966198
0.3259998,0.005036704
0.3269998,0.005113342
0.3279998,0.005180782
0.3289998,0.005248223
0.3299998,0.005315664
0.3309998,0.005380039
0.3319998,0.005444414
0.3329998,0.005499593
0.3339998,0.005557837
0.3349998,0.005613015
0.3359998,0.005665129
0.3369998,0.005717242
0.3379998,0.005763224
0.3389998,0.005812271
0.3399998,0.005858254
0.3409998,0.00589504
0.3419998,0.005937956
0.3429998,0.005974742
0.3439998,0.006005398
0.3449998,0.006045248
0.3459998,0.006075903
0.3469998,0.006103492
0.3479998,0.006137213
0.3489998,0.006155606
0.3499998,0.006180129
0.3509998,0.006204653
0.3519998,0.006219981
0.3529998,0.006238374
0.3539998,0.006253701
0.3549998,0.006262898
0.3559998,0.00627516
0.3569998,0.006284356
0.3579998,0.006293552
0.3589998,0.006302749
0.3599998,0.006302749
0.3609998,0.006305814
0.3619998,0.006305814
0.3629998,0.006296618
0.3639998,0.006296618
0.3649998,0.006290487
0.3659998,0.006278225
0.3669998,0.006272094
0.3679998,0.006259832
0.3689998,0.006244505
0.3699998,0.006229177
0.3709998,0.00621385
0.3719998,0.006195457
0.3729998,0.006173999
0.3739998,0.00615254
0.3749998,0.006128016
0.3759998,0.006103492
0.3769998,0.006082034
0.3779998,0.006051379
0.3789998,0.00602379
0.3799998,0.0059962
0.3809998,0.00596248
0.3819998,0.005934891
0.3829998,0.005901171
0.3839998,0.005864385
0.3849998,0.00583373
0.3859998,0.005796944
0.3869998,0.005760158
0.3879998,0.005729503
0.3889998,0.005689653
0.3899998,0.005652867
0.3909998,0.005619146
0.3919998,0.00557623
0.3929998,0.005542509
0.3939998,0.005505723
0.3949998,0.005459741
0.3959998,0.005429087
0.3969998,0.005389235
0.3979998,0.005346318
0.3989998,0.005312598
0.3999998,0.005272747
0.4009998,0.005235961
0.4019998,0.005199175
0.4029998,0.005159324
0.4039998,0.005122538
0.4049998,0.005085752
0.4059998,0.005045901
0.4069998,0.005009115
0.4079998,0.004975395
0.4089998,0.004941675
0.4099998,0.004917151
0.4109998,0.0048773
0.4119998,0.004843579
0.4129998,0.004806793
0.4139998,0.004770007
0.4149998,0.004736287
0.4159998,0.004699502
0.4169998,0.004668847
0.4179998,0.004638192
0.4189998,0.00459834
0.4199998,0.004573816
0.4209998,0.004537031
0.4219998,0.004506376
0.4229998,0.004481852
0.4239998,0.004445066
0.4249998,0.004417477
0.4259998,0.004389888
0.4269998,0.004356168
0.4279998,0.004331644
0.4289998,0.004300989
0.4299998,0.004270334
0.4309998,0.00424581
0.4319998,0.004218221
0.4329998,0.004190631
0.4339998,0.004166107
0.4349998,0.004138518
0.4359998,0.00411706
0.4369998,0.00408947
0.4379998,0.004064947
0.4389998,0.004043488
0.4399998,0.004018964
0.4409998,0.004000572
0.4419998,0.003976048
0.4429998,0.003954589
0.4439998,0.003936196
0.4449998,0.003911673
0.4459998,0.003896345
0.4469998,0.003874887
0.4479998,0.003856494
0.4489998,0.003844232
0.4499998,0.003822774
0.4509998,0.003810511
0.4519998,0.00379825
0.4529998,0.003779857
0.4539998,0.00377066
0.4549998,0.003761464
0.4559998,0.003749202
0.4569998,0.003743071
0.4579998,0.00373694
0.4589998,0.003727744
0.4599998,0.003730809
0.4609998,0.003730809
0.4619998,0.003730809
0.4629998,0.00373694
0.4639998,0.00373694
0.4649998,0.003749202
0.4659998,0.003761464
0.4669998,0.003773726
0.4679998,0.00379825
0.4689998,0.003816642
0.4699998,0.003844232
0.4709998,0.003874887
0.4719998,0.003911673
0.4729998,0.003954589
0.4739998,0.004000572
0.4749998,0.004052685
0.4759998,0.004113995
0.4769998,0.004178369
0.4779998,0.004251941
0.4789998,0.004331644
0.4799998,0.004417477
0.4809998,0.004518638
0.4819998,0.004622865
0.4829998,0.004736287
0.4839998,0.004861972
0.4849998,0.004990723
0.4859998,0.0051348
0.4869998,0.005288074
0.4879998,0.005447479
0.4889998,0.005622211
0.4899998,0.005806141
0.4909998,0.005993135
0.4919998,0.006198522
0.4929998,0.006413106
0.4939998,0.006630755
0.4949998,0.006863732
0.4959998,0.007099774
0.4969998,0.007348078
0.4979998,0.007608644
0.4989998,0.007872276
0.4999998,0.008145104
0.5009998,0.008424062
0.5019998,0.008712218
0.5029998,0.009003439
0.5039998,0.009303857
0.5049998,0.009616536
0.5059998,0.009926149
0.5069998,0.01024802
0.5079998,0.0105791
0.5089998,0.01089791
0.5099998,0.01123818
0.5109998,0.01157844
0.5119998,0.01192484
0.5129998,0.0122835
0.5139998,0.01263297
0.5149998,0.01298857
0.5159998,0.01335336
0.5169998,0.01370895
0.5179998,0.01408294
0.5189998,0.01445387
0.5199998,0.01482479
0.5209998,0.01520797
0.5219998,0.01559116
0.5229998,0.01596515
0.5239998,0.01635753
0.5249998,0.01674378
0.5259998,0.0171331
0.5269998,0.01753161
0.5279998,0.01792093
0.5289998,0.01831638
0.5299998,0.01872102
0.5309998,0.01911953
0.5319998,0.01952417
0.5329998,0.01993188
0.5339998,0.02033653
0.5349998,0.02074424
0.5359998,0.02115195
0.5369998,0.02156579
0.5379998,0.02197043
0.5389998,0.02239347
0.5399998,0.02281037
0.5409998,0.02321808
0.5419998,0.02365031
0.5429998,0.02405496
0.5439998,0.024478
0.5449998,0.02490716
0.5459998,0.025321
0.5469998,0.02575017
0.5479998,0.02617934
0.5489998,0.02659624
0.5499998,0.02703154
0.5509998,0.02746378
0.5519998,0.02787762
0.5529998,0.02832211
0.5539998,0.02874821
0.5549998,0.02916818
0.5559998,0.02961881
0.5569998,0.03004185
0.5579998,0.03120778
0.5589998,0.0316676
0.5599998,0.03209677
0.5609998,0.03252594
0.5619998,0.03298576
0.5629998,0.03341493
0.5639998,0.03387475
0.5649998,0.03433457
0.5659998,0.03476374
0.5669998,0.03519291
0.5679998,0.03565273
0.5689998,0.03611255
0.5699998,0.03654172
0.5709998,0.03700154
0.5719998,0.03746137
0.5729998,0.03789053
0.5739998,0.03835035
0.5749998,0.03881018
0.5759998,0.03927
0.5769998,0.03972982
0.5779998,0.04018965
0.5789998,0.04061881
0.5799998,0.04107863
0.5809998,0.04153846
0.5819998,0.04199828
0.5829998,0.0424581
0.5839998,0.04288727
0.5849998,0.04334709
0.5859998,0.04383757
0.5869998,0.04426674
0.5879998,0.04472656
0.5889998,0.04518638
0.5899998,0.0456462
0.5909998,0.04610603
0.5919998,0.04656585
0.5929998,0.04702567
0.5939998,0.04748549
0.5949998,0.04797597
0.5959998,0.04840514
0.5969998,0.04886496
0.5979998,0.04935544
0.5989998,0.04981526
0.5999998,0.05024443
0.6009998,0.05070425
0.6019998,0.05119473
0.6029998,0.05162389
0.6039998,0.05211437
0.6049998,0.05257419
0.6059998,0.05303402
0.6069998,0.05349384
0.6079998,0.05398431
0.6089998,0.05444414
0.6099998,0.05490396
0.6109998,0.05536379
0.6119998,0.05585426
0.6129998,0.05631408
0.6139998,0.05677391
0.6149998,0.05726438
0.6159998,0.05775486
0.6169998,0.05818403
0.6179998,0.0586745
0.6189998,0.05916498
0.6199998,0.05959415
0.6209998,0.06008463
0.6219998,0.06057511
0.6229998,0.06103493
0.6239998,0.06149475
0.6249998,0.06198522
0.6259998,0.06244505
0.6269998,0.06293552
0.6279998,0.06339534
0.6289998,0.06385517
0.6299998,0.06434565
0.6309998,0.06480547
0.6319998,0.06529595
0.6329998,0.06575577
0.6339998,0.0662156
0.6349998,0.06667542
0.6359998,0.0671659
0.6369998,0.06765637
0.6379998,0.06811619
0.6389998,0.06857602
0.6399998,0.06906649
0.6409998,0.06952631
0.6419998,0.07001679
0.6429998,0.07050727
0.6439998,0.07099774
0.6449998,0.07145756
0.6459998,0.07191739
0.6469998,0.07240786
0.6479998,0.07289835
0.6489998,0.07335817
0.6499998,0.07381799
0.6509998,0.07430847
0.6519998,0.07476829
0.6529998,0.07525877
0.6539998,0.07574924
0.6549998,0.07620906
0.6559998,0.07669955
0.6569998,0.07719002
0.6579998,0.07764985
0.6589998,0.07814032
0.6599998,0.0786308
0.6609998,0.07909062
0.6619998,0.0795811
0.6629998,0.08007158
0.6639998,0.08050074
0.6649998,0.08102188
0.6659998,0.0814817
0.6669998,0.08194152
0.6679998,0.08246265
0.6689998,0.08292247
0.6699998,0.08341295
0.6709998,0.08390342
0.6719998,0.0843939
0.6729998,0.08482307
0.6739998,0.0853442
0.6749998,0.08583468
0.6759998,0.0862945
0.6769998,0.08678498
0.6779998,0.08727546
0.6789998,0.08773528
0.6799998,0.08822576
0.6809998,0.08868558
0.6819998,0.08917606
0.6829998,0.08966654
0.6839998,0.09012636
0.6849998,0.09064749
0.6859998,0.09110731
0.6869998,0.09159779
0.6879998,0.09208827
0.6889998,0.09254809
0.6899998,0.09303857
0.6909998,0.09352904
0.6919998,0.09398887
0.6929998,0.09447934
0.6939998,0.09496982
0.6949998,0.0954603
0.6959998,0.09595077
0.6969998,0.09644125
0.6979998,0.09690107
0.6989998,0.09739155
0.6999998,0.09754483
0.6990003,0.09705435
0.6980003,0.09659453
0.6970003,0.09610405
0.6960003,0.09561357
0.6950003,0.09518441
0.6940003,0.09469392
0.6930003,0.09420345
0.6920003,0.09377428
0.6910003,0.0932838
0.6900003,0.09279333
0.6890003,0.0923335
0.6880003,0.09184303
0.6870003,0.09135254
0.6860003,0.09089272
0.6850003,0.0904329
0.6840003,0.08994243
0.6830003,0.08948261
0.6820003,0.08899213
0.6810003,0.08853231
0.6800003,0.08807249
0.6790003,0.08755135
0.6780003,0.08709153
0.6770003,0.08663171
0.6760003,0.08617189
0.6750003,0.08571207
0.6740003,0.08522158
0.6730003,0.08473111
0.6720003,0.08427128
0.6710003,0.08378081
0.6700003,0.08332099
0.6690003,0.08286116
0.6680003,0.08237069
0.6670003,0.08191086
0.6660003,0.08145104
0.6650003,0.08096056
0.6640003,0.08050074
0.6630003,0.08004092
0.6620003,0.07951979
0.6610003,0.07909062
0.6600003,0.0786308
0.6590003,0.07814032
0.6580003,0.0776805
0.6570003,0.07719002
0.6560003,0.0767302
0.6550003,0.07627037
0.6540003,0.07581055
0.6530003,0.07532008
0.6520003,0.07486025
0.6510003,0.07440043
0.6500003,0.0739406
0.6490003,0.07348078
0.6480003,0.07302096
0.6470003,0.07249983
0.6460003,0.07204001
0.6450003,0.07158019
0.6440003,0.07112037
0.6430003,0.07066055
0.6420003,0.07020072
0.6410003,0.06971025
0.6400003,0.06925042
0.6390003,0.0687906
0.6380003,0.06830012
0.6370003,0.0678403
0.6360003,0.06738048
0.6350003,0.06692065
0.6340003,0.06646083
0.6330003,0.06600101
0.6320003,0.06554119
0.6310003,0.06508137
0.6300003,0.06462154
0.6290003,0.06413107
0.6280003,0.0637019
0.6270003,0.06324207
0.6260003,0.06278225
0.6250003,0.06232243
0.6240003,0.06186261
0.6230003,0.06137213
0.6220003,0.06094296
0.6210003,0.06045249
0.6200003,0.05999266
0.6190003,0.0595635
0.6180003,0.05907302
0.6170003,0.05861319
0.6160003,0.05818403
0.6150003,0.05769355
0.6140003,0.05723373
0.6130003,0.05677391
0.6120003,0.05631408
0.6110003,0.05588492
0.6100003,0.0554251
0.6090003,0.05493462
0.6080003,0.05450545
0.6070003,0.05404563
0.6060003,0.05355515
0.6050003,0.05312598
0.6040003,0.0526355
0.6030003,0.05220634
0.6020003,0.05177717
0.6010003,0.05128669
0.6000003,0.05085753
0.5990003,0.0503977
0.5980003,0.04993788
0.5970003,0.04950871
0.5960003,0.04904889
0.5950003,0.04858907
0.5940003,0.0481599
0.5930003,0.04770008
0.5920003,0.04724025
0.5910003,0.04681109
0.5900003,0.04635127
0.5890003,0.04589145
0.5880003,0.04546228
0.5870003,0.04500245
0.5860003,0.04457328
0.5850003,0.04411346
0.5840003,0.0436843
0.5830003,0.04322447
0.5820003,0.0427953
0.5810003,0.04233548
0.5800003,0.04190632
0.5790003,0.04147715
0.5780003,0.04101732
0.5770003,0.04058816
0.5760003,0.04015899
0.5750003,0.03966851
0.5740003,0.03923934
0.5730003,0.03881018
0.5720003,0.03838101
0.5710003,0.03792119
0.5700003,0.03749202
0.5690003,0.03706285
0.5680003,0.03663369
0.5670003,0.03620452
0.5660003,0.03574469
0.5650003,0.03531553
0.5640003,0.03488636
0.5630003,0.03442654
0.5620003,0.03402802
0.5610003,0.0335682
0.5600003,0.03316969
0.5590003,0.03274052
0.5580003,0.03231135
0.5570003,0.03188219
0.5560003,0.03145302
0.5550003,0.03102385
0.5540003,0.03059468
0.5530003,0.03016552
0.5520003,0.029767
0.5510003,0.02933784
0.5500003,0.02890867
0.5490003,0.0284795
0.5480003,0.02808099
0.5470003,0.02765182
0.5460003,0.02725331
0.5450003,0.02682414
0.5440003,0.02642563
0.5430003,0.02599646
0.5420003,0.02559795
0.5410003,0.02516878
0.5400003,0.02477027
0.5390003,0.02437175
0.5380003,0.02397324
0.5370003,0.02354407
0.5360003,0.02314556
0.5350003,0.02274705
0.5340003,0.02234854
0.5330003,0.02195002
0.5320003,0.02152086
0.5310003,0.021153
0.5300003,0.02075448
0.5290003,0.02035597
0.5280003,0.01995746
0.5270003,0.01955895
0.5260003,0.01919109
0.5250003,0.01879258
0.5240003,0.01842472
0.5230003,0.01802621
0.5220003,0.01765835
0.5210003,0.01729049
0.5200003,0.01689198
0.5190003,0.01652412
0.5180003,0.01615626
0.5170003,0.0157884
0.5160003,0.01542055
0.5150003,0.01505269
0.5140003,0.01468483
0.5130003,0.01431697
0.5120003,0.01394911
0.5110003,0.01358126
0.5100003,0.01324405
0.5090003,0.01241225
0.5080003,0.01206585
0.5070003,0.01172559
0.5060003,0.01138532
0.5050003,0.01105118
0.5040003,0.01072011
0.5030003,0.01038597
0.5020003,0.01006103
0.5010003,0.009742221
0.5000003,0.009417279
0.4990003,0.009098469
0.4980003,0.008788855
0.4970003,0.008476176
0.4960003,0.008172693
0.4950003,0.007872276
0.4940003,0.007571859
0.4930003,0.007280638
0.4920003,0.006989417
0.4910003,0.006704327
0.4900003,0.006422303
0.4890003,0.006143344
0.4880003,0.005873581
0.4870003,0.005603819
0.4860003,0.005343253
0.4850003,0.005082687
0.4840003,0.004828252
0.4830003,0.004579948
0.4820003,0.004334709
0.4810003,0.004095601
0.4800003,0.003862625
0.4790003,0.003629648
0.4780003,0.003408933
0.4770003,0.003191284
0.4760003,0.0029767
0.4750003,0.002771313
0.4740003,0.002568991
0.4730003,0.002369735
0.4720003,0.00218274
0.4710003,0.001995746
0.4700003,0.001817948
0.4690003,0.001649346
0.4680003,0.001477679
0.4670003,0.001318274
0.4660003,0.001158869
0.4650003,0.0009794334
0.4640003,0.0008368884
0.4630003,0.0006946501
0.4620003,0.0005622212
0.4610003,0.0004319382
0.4600003,0.0003065599
0.4590003,0.0001928305
0.4580003,7.726184E-05
0.4570003,-3.558908E-05
0.4560003,-0.000134267
0.4550003,-0.000235949
0.4540003,-0.0003281587
0.4530003,-0.0004159743
0.4520003,-0.000503034
0.4510003,-0.0005802842
0.4500003,-0.0006578409
0.4490003,-0.0007320256
0.4480003,-0.0008003859
0.4470003,-0.0008678265
0.4460003,-0.0009276034
0.4450003,-0.0009864607
0.4440003,-0.001044398
0.4430003,-0.001094672
0.4420003,-0.001147705
0.4410003,-0.00119522
0.4400003,-0.001237524
0.4390003,-0.001284119
0.4380003,-0.001321825
0.4370003,-0.00136045
0.4360003,-0.001398768
0.4350003,-0.001429116
0.4340003,-0.001463756
0.4330003,-0.001496251
0.4320003,-0.001522614
0.4310003,-0.001553575
0.4300003,-0.001579632
0.4290003,-0.001605995
0.4280003,-0.001633584
0.4270003,-0.001654429
0.4260003,-0.001677421
0.4250003,-0.001699799
0.4240003,-0.001718805
0.4230003,-0.001742715
0.4220003,-0.001761108
0.4210003,-0.001779501
0.4200003,-0.001798814
0.4190003,-0.001814754
0.4180003,-0.001834373
0.4170003,-0.001850007
0.4160003,-0.001865641
0.4150003,-0.001885567
0.4140003,-0.001899055
0.4130003,-0.001914076
0.4120003,-0.001931856
0.4110003,-0.001945344
0.4100003,-0.001966496
0.4090003,-0.001986728
0.4080003,-0.001995618
0.4070003,-0.002010025
0.4060003,-0.002021981
0.4050003,-0.002035775
0.4040003,-0.00205049
0.4030003,-0.002064284
0.4020003,-0.002078999
0.4010003,-0.002092793
0.4000003,-0.002105362
0.3990003,-0.002121302
0.3980003,-0.002133258
0.3970003,-0.002150118
0.3960003,-0.002167284
0.3950003,-0.002177401
0.3940003,-0.002194567
0.3930003,-0.002209895
0.3920003,-0.002221237
0.3910003,-0.00224055
0.3900003,-0.002254651
0.3890003,-0.002267832
0.3880003,-0.002286225
0.3870003,-0.002298487
0.3860003,-0.002315654
0.3850003,-0.002331901
0.3840003,-0.002345389
0.3830003,-0.002364089
0.3820003,-0.002378803
0.3810003,-0.002395663
0.3800003,-0.002414056
0.3790003,-0.002427544
0.3780003,-0.002447163
0.3770003,-0.00246433
0.3760003,-0.002479351
0.3750003,-0.00249989
0.3740003,-0.002517056
0.3730003,-0.002534223
0.3720003,-0.002554455
0.3710003,-0.002572541
0.3700003,-0.002592467
0.3690003,-0.00261178
0.3680003,-0.00262772
0.3670003,-0.002648565
0.3660003,-0.002667878
0.3650003,-0.002689643
0.3640003,-0.002710488
0.3630003,-0.002727961
0.3620003,-0.002751566
0.3610003,-0.002770572
0.3600003,-0.002790497
0.3590003,-0.002815634
0.3580003,-0.00283556
0.3570003,-0.002857018
0.3560003,-0.002881542
0.3550003,-0.002899015
0.3540003,-0.002923233
0.3530003,-0.002947144
0.3520003,-0.002967989
0.3510003,-0.002993125
0.3500003,-0.00301581
0.3490003,-0.003004056
0.3480003,-0.00302858
0.3470003,-0.003046973
0.3460003,-0.003074562
0.3450003,-0.003099086
0.3440003,-0.003120545
0.3430003,-0.003148134
0.3420003,-0.003169592
0.3410003,-0.003197182
0.3400003,-0.003221706
0.3390003,-0.003246229
0.3380003,-0.003276884
0.3370003,-0.003301408
0.3360003,-0.003325932
0.3350003,-0.003356587
0.3340003,-0.003378045
0.3330003,-0.003405634
0.3320003,-0.003433224
0.3310003,-0.003457748
0.3300003,-0.003488402
0.3290003,-0.003512926
0.3280003,-0.00353745
0.3270003,-0.00357117
0.3260003,-0.003595694
0.3250003,-0.003623284
0.3240003,-0.003653938
0.3230003,-0.003678462
0.3220003,-0.003709117
0.3210003,-0.003736707
0.3200003,-0.003764296
0.3190003,-0.003794951
0.3180003,-0.00382254
0.3170003,-0.003850129
0.3160003,-0.003877719
0.3150003,-0.003905308
0.3140003,-0.003935963
0.3130003,-0.003966617
0.3120003,-0.003991141
0.3110003,-0.004024862
0.3100003,-0.004049386
0.3090003,-0.004076975
0.3080003,-0.004110695
0.3070003,-0.00414135
0.3060003,-0.004168939
0.3050003,-0.004196529
0.3040003,-0.004221053
0.3030003,-0.004251707
0.3020003,-0.004279297
0.3010003,-0.00430382
0.3000003,-0.004337541
0.2990003,-0.004358999
0.2980003,-0.004386589
0.2970003,-0.004414178
0.2960003,-0.004438702
0.2950003,-0.004469357
0.2940003,-0.004493881
0.2930003,-0.00452147
0.2920003,-0.004545994
0.2910003,-0.004570518
0.2900003,-0.004598107
0.2890003,-0.004622631
0.2880003,-0.004644089
0.2870003,-0.004671679
0.2860003,-0.004693137
0.2850003,-0.004717661
0.2840003,-0.004742185
0.2830003,-0.004760577
0.2820003,-0.004788167
0.2810003,-0.004809625
0.2800003,-0.004824953
0.2790003,-0.004852542
0.2780003,-0.004870935
0.2770003,-0.004886262
0.2760003,-0.004910786
0.2750003,-0.004926114
0.2740003,-0.004944507
0.2730003,-0.004965965
0.2720003,-0.004978227
0.2710003,-0.00499662
0.2700003,-0.005008881
0.2690003,-0.005024209
0.2680003,-0.005042602
0.2670003,-0.005051799
0.2660003,-0.00506406
0.2650003,-0.005076322
0.2640003,-0.005085519
0.2630003,-0.005097781
0.2620003,-0.005106977
0.2610003,-0.005113108
0.2600003,-0.005122304
0.2590003,-0.00512537
0.2580003,-0.005128435
0.2570003,-0.005134566
0.2560003,-0.005137632
0.2550003,-0.005137632
0.2540003,-0.005137632
0.2530003,-0.005137632
0.2520003,-0.005134566
0.2510003,-0.005128435
0.2500003,-0.00512537
0.2490003,-0.005116174
0.2480003,-0.005106977
0.2470003,-0.005100846
0.2460003,-0.005082454
0.2450003,-0.005073257
0.2440003,-0.005060995
0.2430003,-0.005042602
0.2420003,-0.005027275
0.2410003,-0.005008881
0.2400003,-0.004981292
0.2390003,-0.004959834
0.2380003,-0.00493531
0.2370003,-0.004904655
0.2360003,-0.004877066
0.2350003,-0.004843346
0.2340003,-0.004803495
0.2330003,-0.004766709
0.2320003,-0.004726857
0.2310003,-0.00467781
0.2300003,-0.004634893
0.2290003,-0.004582779
0.2280003,-0.004527601
0.2270003,-0.004469357
0.2260003,-0.004411113
0.2250003,-0.004346738
0.2240003,-0.004276231
0.2230003,-0.004205726
0.2220003,-0.004129088
0.2210003,-0.004049386
0.2200003,-0.003966617
0.2190003,-0.003877719
0.2180003,-0.003794951
0.2170003,-0.003706052
0.2160003,-0.003611021
0.2150003,-0.003519057
0.2140003,-0.003424027
0.2130003,-0.003328997
0.2120003,-0.003237033
0.2110003,-0.003142003
0.2100003,-0.003050038
0.2090003,-0.002961139
0.2080003,-0.002869175
0.2070003,-0.002783341
0.2060003,-0.002697508
0.2050003,-0.00261474
0.2040003,-0.002535037
0.2030003,-0.002455335
0.2020003,-0.002378698
0.2010003,-0.002308191
0.2000003,-0.002237685
0.1990003,-0.002170245
0.1980003,-0.00210587
0.1970003,-0.00204456
0.1960003,-0.001986316
0.1950003,-0.001928072
0.1940003,-0.001875959
0.1930003,-0.001826911
0.1920003,-0.001777863
0.1910003,-0.001731881
0.1900003,-0.001685899
0.1890003,-0.001646047
0.1880003,-0.001606196
0.1870003,-0.001602623
0.1860003,-0.00156645
0.1850003,-0.001531197
0.1840003,-0.001497783
0.1830003,-0.001466515
0.1820003,-0.001434941
0.1810003,-0.001405206
0.1800003,-0.001377923
0.1790003,-0.001349414
0.1780003,-0.001323664
0.1770003,-0.001298833
0.1760003,-0.001273696
0.1750003,-0.001251012
0.1740003,-0.001228327
0.1730003,-0.001205949
0.1720003,-0.001185411
0.1710003,-0.001164565
0.1700003,-0.00114464
0.1690003,-0.001126553
0.1680003,-0.001107241
0.1670003,-0.001089461
0.1660003,-0.001072294
0.1650003,-0.001055741
0.1640003,-0.001039494
0.1630003,-0.001023553
0.1620003,-0.001008226
0.1610003,-0.0009932048
0.1600003,-0.000978797
0.1590003,-0.0009650023
0.1580003,-0.0009512077
0.1570003,-0.0009380261
0.1560003,-0.0009257642
0.1550003,-0.0009128891
0.1540003,-0.0009009338
0.1530003,-0.0008889784
0.1520003,-0.000877023
0.1510003,-0.0008662938
0.1500003,-0.000855258
0.1490003,-0.0008445288
0.1480003,-0.0008344128
0.1470003,-0.0008242966
0.1460003,-0.0008141805
0.1450003,-0.0008049841
0.1440003,-0.0007951746
0.1430003,-0.0007862847
0.1420003,-0.0007773947
0.1410003,-0.0007685049
0.1400003,-0.0007602281
0.1390003,-0.0007519512
0.1380003,-0.0007436744
0.1370003,-0.0007360107
0.1360003,-0.0007280405
0.1350003,-0.0007206833
0.1340003,-0.0007133262
0.1330003,-0.000705969
0.1320003,-0.0006989184
0.1310003,-0.0006921744
0.1300003,-0.0006854302
0.1290003,-0.0006786863
0.1280003,-0.0006722487
0.1270003,-0.0006658112
0.1260003,-0.0006596802
0.1250003,-0.0006535492
0.1240003,-0.0006477248
0.1230003,-0.0006419004
0.1220003,-0.000636076
0.1210003,-0.0006305581
0.1200003,-0.0006250403
0.1190003,-0.0006195224
0.1180003,-0.0006143111
0.1170003,-0.0006090997
0.1160003,-0.000604195
0.1150003,-0.0005989837
0.1140003,-0.0005940789
0.1130003,-0.0005894807
0.1120003,-0.0005842693
0.1110003,-0.0005799776
0.1100003,-0.0005753795
0.1090003,-0.0005707812
0.1080003,-0.0005664895
0.1070003,-0.0005621978
0.1060003,-0.0005579062
0.1050003,-0.0005539211
0.1040003,-0.0005496293
0.1030003,-0.0005456443
0.1020003,-0.0005416591
0.1010003,-0.0005379805
0.1000003,-0.0005339954
0.09900028,-0.0005303168
0.09800029,-0.0005266382
0.09700029,-0.0005229597
0.09600028,-0.0005192811
0.09500029,-0.0005156025
0.09400029,-0.0005122305
0.09300029,-0.0005088585
0.09200028,-0.0005054864
0.09100029,-0.0005018078
0.09000029,-0.0004987424
0.08900028,-0.0004956769
0.08800028,-0.0004923049
0.08700029,-0.0004892393
0.08600029,-0.0004861739
0.08500028,-0.0004831084
0.08400029,-0.0004803495
0.08300029,-0.000477284
0.08200029,-0.0004742185
0.08100028,-0.0004714596
0.08000029,-0.0004683941
0.07900029,-0.0004656352
0.07800028,-0.0004631828
0.07700028,-0.0004604238
0.07600029,-0.0004576649
0.07500029,-0.0004552125
0.07400028,-0.0004524536
0.07300029,-0.0004500012
0.07200029,-0.0004475488
0.07100029,-0.0004447899
0.07000028,-0.000442644
0.06900029,-0.0004401917
0.06800029,-0.0004377393
0.06700028,-0.0004349803
0.06600028,-0.0004328345
0.06500029,-0.0004306886
0.06400029,-0.0004282363
0.06300028,-0.0004260904
0.06200029,-0.0004239446
0.06100029,-0.0004217988
0.06000029,-0.0004196529
0.05900029,-0.0004172005
0.05800029,-0.0004153613
0.05700029,-0.0004132154
0.05600028,-0.000410763
0.05500029,-0.0004089237
0.05400028,-0.0004067779
0.05300029,-0.0004043255
0.05200029,-0.0004024862
0.05100029,-0.0004006469
0.05000029,-0.0003985011
0.04900029,-0.0003963552
0.04800029,-0.0003942094
0.04700029,-0.0003923701
0.04600029,-0.0003905308
0.04500028,-0.000388385
0.04400029,-0.0003865457
0.04300028,-0.0003847064
0.04200029,-0.0003825606
0.04100028,-0.0003807213
0.04000029,-0.0003785754
0.03900029,-0.0003764296
0.03800029,-0.0003748969
0.03700029,-0.000372751
0.03600029,-0.0003709117
0.03500029,-0.0003690725
0.03400028,-0.0003669266
0.03300029,-0.0003647808
0.03200028,-0.0003629415
0.03100029,-0.0003611022
0.03000029,-0.0003589563
0.02900029,-0.0003571171
0.02800029,-0.0003552778
0.02700029,-0.0003531319
0.02600029,-0.0003509861
0.02500029,-0.0003488403
0.02400029,-0.0003466944
0.02300029,-0.0003448552
0.02200029,-0.0003430158
0.02100029,-0.00034087
0.02000029,-0.0003390307
0.01900029,-0.0003371914
0.01800029,-0.0003350456
0.01700029,-0.0003332063
0.01600029,-0.000331367
0.01500029,-0.0003295277
0.01400029,-0.0003276884
0.01300029,-0.0003255426
0.01200029,-0.0003237033
0.01100029,-0.000321864
0.01000029,-0.0003200247
0.009000286,-0.000318492
0.008000286,-0.0003166527
0.007000286,-0.0003151199
0.006000286,-0.0003132806
0.005000286,-0.0003117479
0.004000286,-0.0003099086
0.003000286,-0.0003080693
0.002000286,-0.0003065366
0.001000286,-0.0003050039
2.861023E-07,-0.0002988729
0.0009997139,-0.0002930485
0.001999714,-0.0002884502
0.002999714,-0.0002847717
0.003999714,-0.0002810931
0.004999714,-0.0002774145
0.005999714,-0.000274349
0.006999714,-0.000270977
0.007999714,-0.000268218
0.008999714,-0.0002651526
0.009999714,-0.0002620871
0.01099971,-0.0002593282
0.01199971,-0.0002565692
0.01299971,-0.0002541168
0.01399971,-0.0002516645
0.01499971,-0.0002492121
0.01599971,-0.0002467597
0.01699971,-0.0002443073
0.01799971,-0.0002421615
0.01899971,-0.0002397091
0.01999971,-0.0002375632
0.02099971,-0.0002354174
0.02199971,-0.0002332716
0.02299971,-0.0002311257
0.02399971,-0.0002292864
0.02499971,-0.0002271406
0.02599971,-0.0002249948
0.02699971,-0.000223462
0.02799971,-0.0002216227
0.02899971,-0.0002194769
0.02999971,-0.0002176376
0.03099971,-0.0002157983
0.03199971,-0.000213959
0.03299971,-0.0002124263
0.03399972,-0.000210587
0.03499971,-0.0002087477
0.03599972,-0.000207215
0.03699971,-0.0002053757
0.03799972,-0.0002038429
0.03899971,-0.0002023102
0.03999971,-0.0002007774
0.04099971,-0.0001992447
0.04199971,-0.000197712
0.04299971,-0.0001961792
0.04399971,-0.0001946465
0.04499971,-0.0001931137
0.04599971,-0.000191581
0.04699972,-0.0001903548
0.04799971,-0.0001888221
0.04899972,-0.0001872893
0.04999971,-0.0001860631
0.05099971,-0.0001845304
0.05199971,-0.0001833042
0.05299971,-0.000182078
0.05399971,-0.0001805453
0.05499971,-0.0001793191
0.05599971,-0.0001780929
0.05699971,-0.0001765601
0.05799972,-0.0001753339
0.05899971,-0.0001741077
0.05999972,-0.000172575
0.06099971,-0.0001716554
0.06199971,-0.0001704292
0.06299971,-0.000169203
0.06399971,-0.0001679768
0.06499971,-0.0001667506
0.06599972,-0.0001655244
0.06699971,-0.0001642982
0.06799971,-0.000163072
0.06899972,-0.0001621524
0.06999972,-0.0001609262
0.07099971,-0.0001597
0.07199971,-0.000161887
0.07299972,-0.0001609673
0.07399971,-0.0001598331
0.07499971,-0.0001586989
0.07599971,-0.000157442
0.07699972,-0.0001564304
0.07799971,-0.0001554188
0.07899971,-0.0001543459
0.07999972,-0.0001533649
0.08099972,-0.0001523533
0.08199971,-0.0001513417
0.08299971,-0.0001502075
0.08399972,-0.0001490426
0.08499971,-0.0001480003
0.08599971,-0.0001470807
0.08699971,-0.0001460691
0.08799972,-0.0001451494
0.08899971,-0.0001441378
0.08999971,-0.0001430343
0.09099972,-0.0001419613
0.09199972,-0.0001408884
0.09299971,-0.0001399381
0.09399971,-0.0001390491
0.09499972,-0.0001380988
0.09599971,-0.0001371792
0.09699971,-0.0001361676
0.09799971,-0.0001350947
0.09899972,-0.0001341444
0.09999971,-0.0001331021
0.1009997,-0.0001321824
0.1019997,-0.0001312628
0.1029997,-0.0001303125
0.1039997,-0.0001293622
0.1049997,-0.0001282893
0.1059997,-0.0001271857
0.1069997,-0.0001263887
0.1079997,-0.0001253771
0.1089997,-0.0001244881
0.1099997,-0.0001235378
0.1109997,-0.0001225262
0.1119997,-0.0001215759
0.1129997,-0.0001204723
0.1139997,-0.000119522
0.1149997,-0.0001185104
0.1159997,-0.0001175601
0.1169997,-0.0001166404
0.1179997,-0.0001157821
0.1189997,-0.0001145866
0.1199997,-0.000113575
0.1209997,-0.0001126247
0.1219997,-0.0001115824
0.1229997,-0.0001107241
0.1239997,-0.0001095592
0.1249997,-0.0001086089
0.1259997,-0.000107536
0.1269997,-0.0001063711
0.1279997,-0.0001054821
0.1289997,-0.0001044398
0.1299997,-0.0001034282
0.1309997,-0.0001024473
0.1319997,-0.0001010371
0.1329997,-0.0001000562
0.1339997,-9.904457E-05
0.1349997,-9.787969E-05
0.1359997,-9.686808E-05
0.1369997,-9.57032E-05
0.1379997,-9.441569E-05
0.1389997,-9.340408E-05
0.1399997,-9.211658E-05
0.1409997,-9.1013E-05
0.1419997,-8.994009E-05
0.1429997,-8.8438E-05
0.1439997,-8.724246E-05
0.1449997,-8.613889E-05
0.1459997,-8.494335E-05
0.1469997,-8.374781E-05
0.1479997,-8.215377E-05
0.1489997,-8.086627E-05
0.1499997,-7.967072E-05
0.1509997,-7.829125E-05
0.1519997,-7.70344E-05
0.1529997,-7.553232E-05
0.1539997,-7.396893E-05
0.1549997,-7.258946E-05
0.1559997,-7.09954E-05
0.1569997,-6.958529E-05
0.1579997,-6.817516E-05
0.1589997,-6.655046E-05
0.1599997,-6.507902E-05
0.1609997,-6.351563E-05
0.1619997,-6.158437E-05
0.1629997,-6.002098E-05
0.1639997,-5.815104E-05
0.1649997,-5.66183E-05
0.1659997,-5.487097E-05
0.1669997,-5.297037E-05
0.1679997,-5.113108E-05
0.1689997,-4.93531E-05
0.1699997,-4.739119E-05
0.1709997,-4.545994E-05
0.1719997,-4.325279E-05
0.1729997,-4.116826E-05
0.1739997,-3.911439E-05
0.1749997,-3.690724E-05
0.1759997,-3.488402E-05
0.1769997,-3.267687E-05
0.1779997,-3.02858E-05
0.1789997,-2.813996E-05
0.1799997,-2.547299E-05
0.1809997,-2.305126E-05
0.1819997,-2.050691E-05
0.1829997,-1.762536E-05
0.1839997,-1.517297E-05
0.1849997,-1.241404E-05
0.1859997,-9.532483E-06
0.1869997,-6.517099E-06
0.1879997,-3.506795E-06
0.1889997,-6.742894E-07
0.1899997,2.378931E-06
0.1909997,5.852123E-06
0.1919997,9.129123E-06
0.1929997,1.248276E-05
0.1939997,1.6005E-05
0.1949997,1.931879E-05
0.1959997,2.323752E-05
0.1969997,2.65789E-05
0.1979997,3.034945E-05
0.1989997,3.448785E-05
0.1999997,3.825839E-05
0.2009997,4.251941E-05
0.2019997,4.702567E-05
0.2029997,5.113342E-05
0.2039997,5.622211E-05
0.2049997,6.106558E-05
0.2059997,6.551053E-05
0.2069997,7.081382E-05
0.2079997,7.577989E-05
0.2089997,8.086859E-05
0.2099997,8.657039E-05
0.2109997,9.19963E-05
0.2119997,9.812726E-05
0.2129997,0.0001037984
0.2139997,0.0001098068
0.2149997,0.0001162749
0.2159997,0.0001228044
0.2169997,0.0001296404
0.2179997,0.0001365684
0.2189997,0.0001436803
0.2199997,0.0001514973
0.2209997,0.0001587932
0.2219997,0.0001663955
0.2229997,0.0001748869
0.2239997,0.0001830105
0.2249997,0.0001917778
0.2259997,0.0002007903
0.2269997,0.0002094349
0.2279997,0.0002194284
0.2289997,0.0002291153
0.2299997,0.0002386796
0.2309997,0.0002495621
0.2319997,0.0002601687
0.2329997,0.0002712351
0.2339997,0.0002831905
0.2349997,0.0002982832
0.2359997,0.0003105451
0.2369997,0.0003231135
0.2379997,0.0003359886
0.2389997,0.0003497833
0.2399997,0.0003632714
0.2409997,0.0003779857
0.2419997,0.0003933131
0.2429997,0.0004086405
0.2439997,0.0004251941
0.2449997,0.0004411346
0.2459997,0.0004583014
0.2469997,0.0004766943
0.2479997,0.000493861
0.2489997,0.0005131735
0.2499997,0.0005327926
0.2509997,0.0005524117
0.2519997,0.0005744831
0.2529997,0.000595635
0.2539997,0.0006170933
0.2549997,0.0006410041
0.2559997,0.0006646083
0.2569997,0.0006894387
0.2579997,0.0007151888
0.2589997,0.0007409389
0.2599997,0.0007685282
0.2609997,0.0007964241
0.2619997,0.0008249331
0.2629997,0.0008552813
0.2639997,0.0008859362
0.2649997,0.0009181238
0.2659997,0.0009518441
0.2669997,0.0009849513
0.2679997,0.001021124
0.2689997,0.001057297
0.2699997,0.001094696
0.2709997,0.001133934
0.2719997,0.001172865
0.2729997,0.001213943
0.2739997,0.001256553
0.2749997,0.001300083
0.2759997,0.001345759
0.2769997,0.001391434
0.2779997,0.001438949
0.2789997,0.001488304
0.2799997,0.001537351
0.2809997,0.001590384
0.2819997,0.00164311
0.2829997,0.001697063
0.2839997,0.001755
0.2849997,0.001811405
0.2859997,0.001870876
0.2869997,0.001932799
0.2879997,0.001993188
0.2889997,0.002058483
0.2899997,0.002123778
0.2909997,0.00218846
0.2919997,0.002258966
0.2929997,0.00232702
0.2939997,0.002397526
0.2949997,0.002472017
0.2959997,0.002543749
0.2969997,0.00261916
0.2979997,0.002695797
0.2989997,0.002772128
0.2999997,0.00285183
0.3009997,0.002931533
0.3019997,0.003011542
0.3029997,0.003120778
0.3039997,0.00320048
0.3049997,0.003283249
0.3059997,0.003366017
0.3069997,0.003454915
0.3079997,0.003540749
0.3089997,0.003620452
0.3099997,0.003709351
0.3109997,0.003795184
0.3119997,0.003874887
0.3129997,0.003963786
0.3139997,0.004049619
0.3149997,0.004129322
0.3159997,0.004218221
0.3169997,0.004297923
0.3179997,0.004380691
0.3189997,0.004460394
0.3199997,0.004540097
0.3209997,0.004619799
0.3219997,0.004696436
0.3229997,0.004770007
0.3239997,0.004846645
0.3249997,0.004917151
0.3259997,0.004987657
0.3269997,0.005058163
0.3279997,0.005119473
0.3289997,0.005186913
0.3299997,0.005248223
0.3309997,0.005306467
0.3319997,0.005370842
0.3329997,0.00541989
0.3339997,0.005478134
0.3349997,0.005530247
0.3359997,0.00557623
0.3369997,0.005628342
0.3379997,0.005671259
0.3389997,0.005720307
0.3399997,0.005763224
0.3409997,0.005796944
0.3419997,0.005839861
0.3429997,0.005876646
0.3439997,0.005904236
0.3449997,0.005944087
0.3459997,0.005971677
0.3469997,0.005999266
0.3479997,0.006032987
0.3489997,0.006051379
0.3499997,0.006075903
0.3509997,0.006100427
0.3519997,0.006115754
0.3529997,0.006137213
0.3539997,0.006155606
0.3549997,0.006164802
0.3559997,0.006180129
0.3569997,0.006189326
0.3579997,0.006195457
0.3589997,0.006207719
0.3599997,0.006207719
0.3609997,0.00621385
0.3619997,0.00621385
0.3629997,0.006210784
0.3639997,0.006207719
0.3649997,0.006204653
0.3659997,0.006195457
0.3669997,0.006189326
0.3679997,0.006177064
0.3689997,0.006164802
0.3699997,0.006149475
0.3709997,0.006134147
0.3719997,0.006121885
0.3729997,0.006097361
0.3739997,0.006078968
0.3749997,0.00605751
0.3759997,0.006026856
0.3769997,0.006005398
0.3779997,0.005980873
0.3789997,0.005950219
0.3799997,0.005925694
0.3809997,0.005891975
0.3819997,0.005858254
0.3829997,0.005827599
0.3839997,0.005790813
0.3849997,0.005757092
0.3859997,0.005723373
0.3869997,0.005686587
0.3879997,0.005652867
0.3889997,0.00561608
0.3899997,0.005579295
0.3909997,0.005542509
0.3919997,0.005502658
0.3929997,0.005465872
0.3939997,0.005426021
0.3949997,0.00538617
0.3959997,0.005349384
0.3969997,0.005309533
0.3979997,0.005272747
0.3989997,0.005232896
0.3999997,0.005193044
0.4009997,0.005156258
0.4019997,0.005116407
0.4029997,0.005079621
0.4039997,0.005045901
0.4049997,0.005002984
0.4059997,0.004969264
0.4069997,0.004935544
0.4079997,0.004892627
0.4089997,0.004865037
0.4099997,0.004837448
0.4109997,0.004794532
0.4119997,0.004766942
0.4129997,0.004724025
0.4139997,0.004687239
0.4149997,0.00465965
0.4159997,0.004622865
0.4169997,0.004589144
0.4179997,0.004558489
0.4189997,0.004521704
0.4199997,0.004494114
0.4209997,0.004460394
0.4219997,0.004429739
0.4229997,0.004402149
0.4239997,0.00436843
0.4249997,0.00434084
0.4259997,0.004313251
0.4269997,0.004282596
0.4279997,0.004255007
0.4289997,0.004227417
0.4299997,0.004199828
0.4309997,0.004175304
0.4319997,0.004144649
0.4329997,0.004120125
0.4339997,0.004092536
0.4349997,0.004068012
0.4359997,0.004046554
0.4369997,0.004018964
0.4379997,0.003997506
0.4389997,0.003979113
0.4399997,0.003948458
0.4409997,0.003933131
0.4419997,0.003911673
0.4429997,0.003887149
0.4439997,0.003871821
0.4449997,0.003850363
0.4459997,0.003828905
0.4469997,0.003813577
0.4479997,0.003795184
0.4489997,0.003779857
0.4499997,0.003764529
0.4509997,0.003746136
0.4519997,0.00373694
0.4529997,0.003721613
0.4539997,0.003709351
0.4549997,0.003700154
0.4559997,0.003687892
0.4569997,0.003684827
0.4579997,0.00367563
0.4589997,0.003672565
0.4599997,0.003672565
0.4609997,0.003669499
0.4619997,0.00367563
0.4629997,0.00367563
0.4639997,0.003681761
0.4649997,0.003694023
0.4659997,0.00370322
0.4669997,0.003721613
0.4679997,0.003743071
0.4689997,0.003761464
0.4699997,0.003789053
0.4709997,0.003822774
0.4719997,0.003853428
0.4729997,0.003902476
0.4739997,0.003948458
0.4749997,0.003997506
0.4759997,0.004061881
0.4769997,0.004123191
0.4779997,0.004196763
0.4789997,0.004282596
0.4799997,0.004365364
0.4809997,0.004466525
0.4819997,0.004570751
0.4829997,0.004684174
0.4839997,0.004812925
0.4849997,0.00494474
0.4859997,0.005082687
0.4869997,0.005239027
0.4879997,0.005401497
0.4889997,0.005573164
0.4899997,0.005760158
0.4909997,0.005950219
0.4919997,0.00615254
0.4929997,0.006367124
0.4939997,0.006590905
0.4949997,0.006820816
0.4959997,0.007062989
0.4969997,0.007317424
0.4979997,0.007568793
0.4989997,0.007838556
0.4999997,0.008117515
0.5009997,0.008390343
0.5019997,0.008684629
0.5029997,0.008985046
0.5039997,0.009279332
0.5049997,0.009595077
0.5059997,0.009910822
0.5069997,0.01022963
0.5079997,0.0105607
0.5089997,0.01088871
0.5099997,0.01122591
0.5109997,0.01156925
0.5119997,0.01191871
0.5129997,0.01227124
0.5139997,0.0126299
0.5149997,0.01298243
0.5159997,0.01334723
0.5169997,0.01371202
0.5179997,0.01408294
0.5189997,0.01445387
0.5199997,0.01482786
0.5209997,0.01520797
0.5219997,0.01559423
0.5229997,0.01597741
0.5239997,0.0163606
0.5249997,0.01675604
0.5259997,0.01714843
0.5269997,0.01753774
0.5279997,0.01793932
0.5289997,0.0183409
0.5299997,0.01873328
0.5309997,0.01914099
0.5319997,0.01954563
0.5329997,0.01994414
0.5339997,0.02035799
0.5349997,0.02075957
0.5359997,0.02116727
0.5369997,0.02159031
0.5379997,0.02199802
0.5389997,0.02240879
0.5399997,0.02283796
0.5409997,0.02324261
0.5419997,0.02366564
0.5429997,0.02408868
0.5439997,0.02449639
0.5449997,0.02492556
0.5459997,0.02535472
0.5469997,0.02577163
0.5479997,0.02620693
0.5489997,0.02663303
0.5499997,0.02705913
0.5509997,0.0274883
0.5519997,0.0279236
0.5529997,0.02834663
0.5539997,0.02878193
0.5549997,0.0292203
0.5559997,0.02964946
0.5569997,0.03008783
0.5579997,0.03126909
0.5589997,0.03169826
0.5599997,0.03212743
0.5609997,0.03258725
0.5619997,0.03301642
0.5629997,0.03347624
0.5639997,0.03390541
0.5649997,0.03433457
0.5659997,0.0347944
0.5669997,0.03525422
0.5679997,0.03568339
0.5689997,0.03614321
0.5699997,0.03660303
0.5709997,0.0370322
0.5719997,0.03749202
0.5729997,0.03795184
0.5739997,0.03838101
0.5749997,0.03884083
0.5759997,0.03930065
0.5769997,0.03976048
0.5779997,0.0402203
0.5789997,0.04064947
0.5799997,0.04110929
0.5809997,0.04156911
0.5819997,0.04202893
0.5829997,0.04248876
0.5839997,0.04294858
0.5849997,0.04337775
0.5859997,0.04386823
0.5869997,0.04432805
0.5879997,0.04475721
0.5889997,0.04524769
0.5899997,0.04570751
0.5909997,0.04613668
0.5919997,0.0465965
0.5929997,0.04708698
0.5939997,0.0475468
0.5949997,0.04800662
0.5959997,0.04846645
0.5969997,0.04892627
0.5979997,0.0493861
0.5989997,0.04984592
0.5999997,0.05030574
0.6009997,0.05076556
0.6019997,0.05122538
0.6029997,0.0516852
0.6039997,0.05217568
0.6049997,0.0526355
0.6059997,0.05309533
0.6069997,0.0535858
0.6079997,0.05404563
0.6089997,0.05450545
0.6099997,0.05499592
0.6109997,0.0554251
0.6119997,0.05591557
0.6129997,0.05637539
0.6139997,0.05683522
0.6149997,0.05732569
0.6159997,0.05778552
0.6169997,0.05827599
0.6179997,0.05873581
0.6189997,0.05919564
0.6199997,0.05968611
0.6209997,0.06017659
0.6219997,0.06060576
0.6229997,0.06106558
0.6239997,0.06158672
0.6249997,0.06201588
0.6259997,0.06250636
0.6269997,0.06299683
0.6279997,0.06345665
0.6289997,0.06391648
0.6299997,0.06440695
0.6309997,0.06486678
0.6319997,0.06535726
0.6329997,0.06581708
0.6339997,0.0662769
0.6349997,0.06676738
0.6359997,0.06722721
0.6369997,0.06768703
0.6379997,0.06817751
0.6389997,0.06863733
0.6399997,0.06909715
0.6409997,0.06958763
0.6419997,0.0700781
0.6429997,0.07053792
0.6439997,0.0710284
0.6449997,0.07151888
0.6459997,0.0719787
0.6469997,0.07243852
0.6479997,0.072929
0.6489997,0.07338882
0.6499997,0.07387929
0.6509997,0.07436978
0.6519997,0.0748296
0.6529997,0.07532008
0.6539997,0.0757799
0.6549997,0.07627037
0.6559997,0.07676085
0.6569997,0.07725133
0.6579997,0.07771116
0.6589997,0.07820163
0.6599997,0.07869211
0.6609997,0.07915193
0.6619997,0.07961175
0.6629997,0.08013289
0.6639997,0.08059271
0.6649997,0.08108319
0.6659997,0.08154301
0.6669997,0.08203348
0.6679997,0.08249331
0.6689997,0.08298378
0.6699997,0.0834436
0.6709997,0.08393408
0.6719997,0.0843939
0.6729997,0.08488438
0.6739997,0.08537485
0.6749997,0.08583468
0.6759997,0.08632516
0.6769997,0.08681564
0.6779997,0.08727546
0.6789997,0.08776593
0.6799997,0.08825641
0.6809997,0.08874689
0.6819997,0.08920672
0.6829997,0.08969719
0.6839997,0.09018766
0.6849997,0.09064749
0.6859997,0.09116862
0.6869997,0.09162845
0.6879997,0.09211892
0.6889997,0.0926094
0.6899997,0.09309988
0.6909997,0.0935597
0.6919997,0.09408083
0.6929997,0.09454065
0.6939997,0.09500048
0.6949997,0.09552161
0.6959997,0.09598143
0.6969997,0.09644125
0.6979997,0.09696238
0.6989997,0.0974222
0.6999997,0.09757548
0.6990004,0.09711566
0.6980004,0.09662518
0.6970004,0.09613471
0.6960004,0.09570553
0.6950004,0.09518441
0.6940004,0.09472458
0.6930004,0.09429541
0.6920004,0.09377428
0.6910004,0.09331446
0.6900004,0.09285464
0.6890004,0.09236415
0.6880004,0.09190433
0.6870004,0.09144451
0.6860004,0.09095404
0.6850004,0.09046356
0.6840004,0.09000374
0.6830004,0.08951326
0.6820004,0.08902278
0.6810004,0.08859362
0.6800004,0.08810314
0.6790004,0.08761266
0.6780004,0.08715284
0.6770004,0.08669301
0.6760004,0.08620254
0.6750004,0.08574272
0.6740004,0.08528289
0.6730004,0.08479242
0.6720004,0.08433259
0.6710004,0.08384212
0.6700004,0.0833823
0.6690004,0.08292247
0.6680004,0.08243199
0.6670004,0.08197217
0.6660004,0.08151235
0.6650004,0.08105253
0.6640004,0.08056205
0.6630004,0.08010223
0.6620004,0.07964241
0.6610004,0.07915193
0.6600004,0.07869211
0.6590004,0.07823228
0.6580004,0.07777246
0.6570004,0.07728198
0.6560004,0.07682216
0.6550004,0.07633169
0.6540004,0.07587186
0.6530004,0.07541204
0.6520004,0.07492156
0.6510004,0.07449239
0.6500004,0.07400192
0.6490004,0.0735421
0.6480004,0.07308228
0.6470004,0.0725918
0.6460004,0.07213198
0.6450004,0.07167216
0.6440004,0.07118168
0.6430004,0.07075251
0.6420004,0.07029268
0.6410004,0.06980221
0.6400004,0.06934239
0.6390004,0.06888256
0.6380004,0.06839209
0.6370004,0.06793226
0.6360004,0.06747244
0.6350004,0.06701262
0.6340004,0.06652214
0.6330004,0.06609298
0.6320004,0.06563315
0.6310004,0.06514268
0.6300004,0.06471351
0.6290004,0.06422303
0.6280004,0.06376321
0.6270004,0.06333404
0.6260004,0.06284356
0.6250004,0.0624144
0.6240004,0.06192392
0.6230004,0.0614641
0.6220004,0.06100427
0.6210004,0.06054445
0.6200004,0.06008463
0.6190004,0.0596248
0.6180004,0.05916498
0.6170004,0.05870516
0.6160004,0.05824534
0.6150004,0.05778552
0.6140004,0.05732569
0.6130004,0.05686587
0.6120004,0.05640605
0.6110004,0.05594623
0.6100004,0.05548641
0.6090004,0.05505724
0.6080004,0.05456676
0.6070004,0.05413759
0.6060004,0.05367777
0.6050004,0.05318729
0.6040004,0.05275812
0.6030004,0.0522983
0.6020004,0.05183848
0.6010004,0.05137866
0.6000004,0.05094949
0.5990004,0.05048966
0.5980004,0.05002984
0.5970004,0.04960068
0.5960004,0.0491102
0.5950004,0.04868103
0.5940004,0.04825186
0.5930004,0.04779204
0.5920004,0.04736288
0.5910004,0.04690305
0.5900004,0.04644323
0.5890004,0.04598341
0.5880004,0.04555424
0.5870004,0.04509442
0.5860004,0.04466525
0.5850004,0.04420543
0.5840004,0.0437456
0.5830004,0.04331644
0.5820004,0.04285662
0.5810004,0.04242745
0.5800004,0.04199828
0.5790004,0.04153846
0.5780004,0.04110929
0.5770004,0.04068012
0.5760004,0.0402203
0.5750004,0.03979113
0.5740004,0.03933131
0.5730004,0.03890214
0.5720004,0.03847298
0.5710004,0.03801315
0.5700004,0.03758398
0.5690004,0.03715482
0.5680004,0.03672565
0.5670004,0.03626583
0.5660004,0.03583666
0.5650004,0.03540749
0.5640004,0.03497833
0.5630004,0.03454916
0.5620004,0.03411999
0.5610004,0.03369082
0.5600004,0.03326165
0.5590004,0.03283248
0.5580004,0.03240332
0.5570004,0.03197415
0.5560004,0.03154498
0.5550004,0.03111582
0.5540004,0.03068665
0.5530004,0.03025748
0.5520004,0.02982831
0.5510004,0.0294298
0.5500004,0.02900063
0.5490004,0.02860212
0.5480004,0.02817295
0.5470004,0.02774378
0.5460004,0.02734527
0.5450004,0.02691611
0.5440004,0.02648694
0.5430004,0.02608843
0.5420004,0.02568991
0.5410004,0.02526074
0.5400004,0.02486223
0.5390004,0.02446372
0.5380004,0.02403455
0.5370004,0.02366669
0.5360004,0.02323752
0.5350004,0.02283901
0.5340004,0.0224405
0.5330004,0.02204199
0.5320004,0.02164347
0.5310004,0.02124496
0.5300004,0.02084645
0.5290004,0.02044794
0.5280004,0.02004942
0.5270004,0.01965091
0.5260004,0.01928305
0.5250004,0.01888454
0.5240004,0.01851668
0.5230004,0.01811817
0.5220004,0.01775031
0.5210004,0.0173518
0.5200004,0.01698394
0.5190004,0.01661608
0.5180004,0.01624822
0.5170004,0.01588037
0.5160004,0.01551251
0.5150004,0.01514465
0.5140004,0.01477679
0.5130004,0.01440894
0.5120004,0.01404108
0.5110004,0.01367322
0.5100004,0.01333602
0.5090004,0.01249196
0.5080004,0.01214556
0.5070004,0.01180835
0.5060004,0.01146502
0.5050004,0.01112475
0.5040004,0.01079981
0.5030004,0.01046567
0.5020004,0.01014073
0.5010004,0.009818858
0.5000004,0.009493916
0.4990004,0.009175106
0.4980004,0.008862427
0.4970004,0.008549747
0.4960004,0.008246264
0.4950004,0.007942782
0.4940004,0.007645431
0.4930004,0.007351144
0.4920004,0.007059923
0.4910004,0.006771768
0.4900004,0.006486678
0.4890004,0.006210784
0.4880004,0.005934891
0.4870004,0.005662063
0.4860004,0.005398431
0.4850004,0.005137865
0.4840004,0.00488343
0.4830004,0.004635126
0.4820004,0.004386822
0.4810004,0.004144649
0.4800004,0.003911673
0.4790004,0.00367563
0.4780004,0.003454915
0.4770004,0.003237266
0.4760004,0.003019617
0.4750004,0.00281423
0.4740004,0.002608842
0.4730004,0.002409586
0.4720004,0.002219526
0.4710004,0.002029466
0.4700004,0.001851668
0.4690004,0.001676936
0.4680004,0.001505269
0.4670004,0.001342798
0.4660004,0.001183393
0.4650004,0.001000279
0.4640004,0.0008568141
0.4630004,0.000713043
0.4620004,0.0005778552
0.4610004,0.0004460394
0.4600004,0.0003191284
0.4590004,0.0002029466
0.4580004,8.645829E-05
0.4570004,-2.26729E-05
0.4560004,-0.0001295155
0.4550004,-0.0002324237
0.4540004,-0.0003254918
0.4530004,-0.0004159743
0.4520004,-0.0005027275
0.4510004,-0.0005812038
0.4500004,-0.0006618261
0.4490004,-0.0007360107
0.4480004,-0.0008052906
0.4470004,-0.0008757967
0.4460004,-0.0009364933
0.4450004,-0.0009959637
0.4440004,-0.001055128
0.4430004,-0.001105095
0.4420004,-0.001159047
0.4410004,-0.001209015
0.4400004,-0.001251318
0.4390004,-0.001296688
0.4380004,-0.001337459
0.4370004,-0.001376697
0.4360004,-0.001414709
0.4350004,-0.001445977
0.4340004,-0.001482149
0.4330004,-0.001512804
0.4320004,-0.001541926
0.4310004,-0.001574114
0.4300004,-0.001598025
0.4290004,-0.001626227
0.4280004,-0.001654429
0.4270004,-0.001673435
0.4260004,-0.001698266
0.4250004,-0.00172095
0.4240004,-0.001739343
0.4230004,-0.001764174
0.4220004,-0.001784099
0.4210004,-0.001800653
0.4200004,-0.001821192
0.4190004,-0.001836826
0.4180004,-0.001854912
0.4170004,-0.001871772
0.4160004,-0.001888019
0.4150004,-0.001905493
0.4140004,-0.0019199
0.4130004,-0.001935841
0.4120004,-0.001952394
0.4110004,-0.001966496
0.4100004,-0.001988261
0.4090004,-0.002006347
0.4080004,-0.00201585
0.4070004,-0.002030564
0.4060004,-0.0020416
0.4050004,-0.002055088
0.4040004,-0.002071642
0.4030004,-0.002082677
0.4020004,-0.002098005
0.4010004,-0.002112412
0.4000004,-0.002123755
0.3990004,-0.002140615
0.3980004,-0.002152264
0.3970004,-0.002167591
0.3960004,-0.002183532
0.3950004,-0.002193954
0.3940004,-0.002210201
0.3930004,-0.002224609
0.3920004,-0.002236871
0.3910004,-0.002254651
0.3900004,-0.002268139
0.3890004,-0.002282547
0.3880004,-0.0022991
0.3870004,-0.002310136
0.3860004,-0.002327609
0.3850004,-0.002344469
0.3840004,-0.002355812
0.3830004,-0.002375124
0.3820004,-0.002390145
0.3810004,-0.002405166
0.3800004,-0.002422946
0.3790004,-0.00243766
0.3780004,-0.00245544
0.3770004,-0.002473526
0.3760004,-0.002487934
0.3750004,-0.00250786
0.3740004,-0.002523494
0.3730004,-0.002540967
0.3720004,-0.00255936
0.3710004,-0.002577753
0.3700004,-0.002597985
0.3690004,-0.002614232
0.3680004,-0.002631092
0.3670004,-0.002654083
0.3660004,-0.002669104
0.3650004,-0.002689949
0.3640004,-0.002712021
0.3630004,-0.002727348
0.3620004,-0.00274942
0.3610004,-0.002769652
0.3600004,-0.002786512
0.3590004,-0.002811342
0.3580004,-0.002831881
0.3570004,-0.0028515
0.3560004,-0.002874798
0.3550004,-0.002894417
0.3540004,-0.002916182
0.3530004,-0.002938254
0.3520004,-0.002959712
0.3510004,-0.002983929
0.3500004,-0.003003548
0.3490004,-0.002991794
0.3480004,-0.003016318
0.3470004,-0.003034711
0.3460004,-0.003059235
0.3450004,-0.003083759
0.3440004,-0.003105217
0.3430004,-0.003132806
0.3420004,-0.003154265
0.3410004,-0.003178789
0.3400004,-0.003206378
0.3390004,-0.003227836
0.3380004,-0.00325236
0.3370004,-0.00327995
0.3360004,-0.003304473
0.3350004,-0.003332063
0.3340004,-0.003353521
0.3330004,-0.003378045
0.3320004,-0.003405634
0.3310004,-0.003430158
0.3300004,-0.003457748
0.3290004,-0.003482271
0.3280004,-0.003506796
0.3270004,-0.003540515
0.3260004,-0.003561974
0.3250004,-0.003589563
0.3240004,-0.003617153
0.3230004,-0.003641677
0.3220004,-0.003672331
0.3210004,-0.003696855
0.3200004,-0.003724444
0.3190004,-0.003755099
0.3180004,-0.003776558
0.3170004,-0.003807213
0.3160004,-0.003834802
0.3150004,-0.003859326
0.3140004,-0.003886915
0.3130004,-0.003914505
0.3120004,-0.003942094
0.3110004,-0.003969683
0.3100004,-0.003994207
0.3090004,-0.004021796
0.3080004,-0.004049386
0.3070004,-0.004083106
0.3060004,-0.00410763
0.3050004,-0.004135219
0.3040004,-0.004159743
0.3030004,-0.004187332
0.3020004,-0.004211857
0.3010004,-0.00423638
0.3000004,-0.00426397
0.2990004,-0.004288493
0.2980004,-0.004313017
0.2970004,-0.004340607
0.2960004,-0.00436513
0.2950004,-0.00439272
0.2940004,-0.004414178
0.2930004,-0.004438702
0.2920004,-0.004466291
0.2910004,-0.004484684
0.2900004,-0.004509208
0.2890004,-0.004530666
0.2880004,-0.00455519
0.2870004,-0.004579714
0.2860004,-0.004598107
0.2850004,-0.004619565
0.2840004,-0.004644089
0.2830004,-0.004662482
0.2820004,-0.004680875
0.2810004,-0.004702333
0.2800004,-0.004717661
0.2790004,-0.004742185
0.2780004,-0.004757512
0.2770004,-0.00477284
0.2760004,-0.004797364
0.2750004,-0.004812691
0.2740004,-0.004824953
0.2730004,-0.004843346
0.2720004,-0.004855608
0.2710004,-0.004870935
0.2700004,-0.004883197
0.2690004,-0.004895459
0.2680004,-0.004910786
0.2670004,-0.004919983
0.2660004,-0.004929179
0.2650004,-0.004938376
0.2640004,-0.004947572
0.2630004,-0.004953703
0.2620004,-0.004959834
0.2610004,-0.004965965
0.2600004,-0.004972096
0.2590004,-0.004972096
0.2580004,-0.004978227
0.2570004,-0.004981292
0.2560004,-0.004981292
0.2550004,-0.004984358
0.2540004,-0.004975162
0.2530004,-0.004972096
0.2520004,-0.004972096
0.2510004,-0.004959834
0.2500004,-0.004959834
0.2490004,-0.004950637
0.2480004,-0.004938376
0.2470004,-0.004932245
0.2460004,-0.004916917
0.2450004,-0.004898524
0.2440004,-0.004886262
0.2430004,-0.004867869
0.2420004,-0.004849477
0.2410004,-0.004828018
0.2400004,-0.004800429
0.2390004,-0.00477897
0.2380004,-0.004751381
0.2370004,-0.004720726
0.2360004,-0.004693137
0.2350004,-0.004659417
0.2340004,-0.004619565
0.2330004,-0.004585845
0.2320004,-0.004539863
0.2310004,-0.004496946
0.2300004,-0.004450964
0.2290004,-0.004398851
0.2280004,-0.004343672
0.2270004,-0.004288493
0.2260004,-0.004227184
0.2250004,-0.004159743
0.2240004,-0.004095368
0.2230004,-0.004027927
0.2220004,-0.003948225
0.2210004,-0.003874653
0.2200004,-0.003798016
0.2190004,-0.003712183
0.2180004,-0.00363248
0.2170004,-0.003546647
0.2160004,-0.003457748
0.2150004,-0.003371914
0.2140004,-0.003283015
0.2130004,-0.003194116
0.2120004,-0.003108283
0.2110004,-0.003022449
0.2100004,-0.002936616
0.2090004,-0.002853847
0.2080004,-0.00277108
0.2070004,-0.002691377
0.2060004,-0.00261474
0.2050004,-0.002538103
0.2040004,-0.002461466
0.2030004,-0.00239096
0.2020004,-0.002317388
0.2010004,-0.002253013
0.2000004,-0.002185572
0.1990004,-0.002124263
0.1980004,-0.002062953
0.1970004,-0.002004709
0.1960004,-0.00194953
0.1950004,-0.001897417
0.1940004,-0.001848369
0.1930004,-0.001802387
0.1920004,-0.001753339
0.1910004,-0.001713488
0.1900004,-0.001670571
0.1890004,-0.00163072
0.1880004,-0.001590869
0.1870004,-0.001590361
0.1860004,-0.001555414
0.1850004,-0.001522307
0.1840004,-0.0014892
0.1830004,-0.001459158
0.1820004,-0.001429423
0.1810004,-0.001400301
0.1800004,-0.001373631
0.1790004,-0.001347268
0.1780004,-0.001321825
0.1770004,-0.001297301
0.1760004,-0.00127339
0.1750004,-0.001251012
0.1740004,-0.001229247
0.1730004,-0.001208095
0.1720004,-0.001187863
0.1710004,-0.001167631
0.1700004,-0.001148318
0.1690004,-0.001129925
0.1680004,-0.001111532
0.1670004,-0.001094366
0.1660004,-0.001077506
0.1650004,-0.001061258
0.1640004,-0.001045624
0.1630004,-0.001029991
0.1620004,-0.00101497
0.1610004,-0.001000562
0.1600004,-0.0009861541
0.1590004,-0.0009729725
0.1580004,-0.0009591779
0.1570004,-0.0009463029
0.1560004,-0.0009340409
0.1550004,-0.000921779
0.1540004,-0.0009098236
0.1530004,-0.0008984813
0.1520004,-0.0008868325
0.1510004,-0.0008761032
0.1500004,-0.0008653741
0.1490004,-0.0008546449
0.1480004,-0.0008448354
0.1470004,-0.0008350258
0.1460004,-0.0008249097
0.1450004,-0.0008157133
0.1440004,-0.0008062103
0.1430004,-0.0007973204
0.1420004,-0.0007884305
0.1410004,-0.0007798471
0.1400004,-0.0007715704
0.1390004,-0.0007632935
0.1380004,-0.0007556298
0.1370004,-0.0007479661
0.1360004,-0.0007399959
0.1350004,-0.0007329452
0.1340004,-0.0007252816
0.1330004,-0.0007179244
0.1320004,-0.0007111803
0.1310004,-0.0007041298
0.1300004,-0.0006976922
0.1290004,-0.0006912547
0.1280004,-0.0006845106
0.1270004,-0.0006786863
0.1260004,-0.0006725552
0.1250004,-0.0006661177
0.1240004,-0.0006605998
0.1230004,-0.0006547754
0.1220004,-0.000648951
0.1210004,-0.0006434331
0.1200004,-0.0006379153
0.1190004,-0.000632704
0.1180004,-0.0006274926
0.1170004,-0.0006222813
0.1160004,-0.00061707
0.1150004,-0.0006124718
0.1140004,-0.000607567
0.1130004,-0.0006026622
0.1120004,-0.000598064
0.1110004,-0.0005934658
0.1100004,-0.0005888676
0.1090004,-0.0005845759
0.1080004,-0.0005802842
0.1070004,-0.0005759926
0.1060004,-0.0005717009
0.1050004,-0.0005674092
0.1040004,-0.0005631176
0.1030004,-0.0005594389
0.1020004,-0.0005554538
0.1010004,-0.0005514687
0.1000004,-0.0005477901
0.09900038,-0.000543805
0.09800038,-0.0005401264
0.09700038,-0.0005367543
0.09600038,-0.0005330758
0.09500038,-0.0005293972
0.09400038,-0.0005263317
0.09300038,-0.0005226531
0.09200038,-0.0005192811
0.09100038,-0.0005159091
0.09000038,-0.0005128436
0.08900038,-0.0005094716
0.08800038,-0.0005064061
0.08700038,-0.0005033406
0.08600038,-0.0004999685
0.08500038,-0.0004972096
0.08400038,-0.0004941442
0.08300038,-0.0004910787
0.08200038,-0.0004883197
0.08100038,-0.0004852542
0.08000038,-0.0004824953
0.07900038,-0.0004797364
0.07800038,-0.0004769774
0.07700038,-0.000473912
0.07600038,-0.0004714596
0.07500038,-0.0004687006
0.07400038,-0.0004659417
0.07300038,-0.0004634893
0.07200038,-0.0004607304
0.07100038,-0.000458278
0.07000038,-0.0004558256
0.06900038,-0.0004530667
0.06800038,-0.0004509208
0.06700038,-0.0004484684
0.06600038,-0.0004460161
0.06500039,-0.0004435637
0.06400038,-0.0004414178
0.06300038,-0.0004389654
0.06200038,-0.0004368196
0.06100038,-0.0004343672
0.06000038,-0.0004322214
0.05900038,-0.0004300755
0.05800038,-0.0004276232
0.05700038,-0.0004254773
0.05600038,-0.0004233315
0.05500038,-0.0004208791
0.05400038,-0.0004187333
0.05300038,-0.0004165874
0.05200038,-0.0004144416
0.05100038,-0.0004122957
0.05000038,-0.0004101499
0.04900038,-0.0004076975
0.04800038,-0.0004055517
0.04700038,-0.0004034059
0.04600038,-0.00040126
0.04500038,-0.0003988076
0.04400038,-0.0003969684
0.04300038,-0.000394516
0.04200038,-0.0003923701
0.04100038,-0.0003902243
0.04000038,-0.0003877719
0.03900038,-0.0003856261
0.03800038,-0.0003834802
0.03700038,-0.0003810278
0.03600038,-0.000378882
0.03500038,-0.0003764296
0.03400038,-0.0003739772
0.03300038,-0.0003718314
0.03200038,-0.000369379
0.03100038,-0.0003669266
0.03000038,-0.0003647808
0.02900038,-0.0003623284
0.02800038,-0.0003601825
0.02700038,-0.0003580367
0.02600038,-0.0003555843
0.02500038,-0.0003534385
0.02400038,-0.0003512927
0.02300038,-0.0003491468
0.02200038,-0.0003466944
0.02100038,-0.0003448552
0.02000038,-0.0003430158
0.01900038,-0.0003405634
0.01800038,-0.0003387242
0.01700038,-0.0003368849
0.01600038,-0.000334739
0.01500038,-0.0003328998
0.01400038,-0.0003310605
0.01300038,-0.0003289146
0.01200038,-0.0003270753
0.01100038,-0.000325236
0.01000038,-0.0003233968
0.009000381,-0.0003215575
0.008000381,-0.0003197182
0.007000382,-0.0003181854
0.006000381,-0.0003163462
0.005000381,-0.0003145068
0.004000382,-0.0003129741
0.003000381,-0.0003114414
0.002000381,-0.0003096021
0.001000381,-0.0003080693
3.814697E-07,-0.0003019384
0.0009996186,-0.000296114
0.001999618,-0.0002915157
0.002999618,-0.0002875306
0.003999618,-0.000283852
0.004999619,-0.0002801734
0.005999619,-0.000277108
0.006999618,-0.0002737359
0.007999619,-0.0002706705
0.008999619,-0.0002679115
0.009999619,-0.0002648461
0.01099962,-0.0002620871
0.01199962,-0.0002596347
0.01299962,-0.0002568758
0.01399962,-0.0002541168
0.01499962,-0.000251971
0.01599962,-0.0002495186
0.01699962,-0.0002470662
0.01799962,-0.0002446139
0.01899962,-0.000242468
0.01999962,-0.0002403222
0.02099962,-0.0002381763
0.02199962,-0.0002360305
0.02299962,-0.0002338847
0.02399962,-0.0002320454
0.02499962,-0.0002298995
0.02599962,-0.0002277537
0.02699962,-0.0002259144
0.02799962,-0.0002240751
0.02899962,-0.0002222358
0.02999962,-0.0002203965
0.03099962,-0.0002185573
0.03199962,-0.0002167179
0.03299962,-0.0002151852
0.03399962,-0.0002133459
0.03499962,-0.0002115066
0.03599962,-0.0002099739
0.03699962,-0.0002084412
0.03799962,-0.0002066019
0.03899962,-0.0002047626
0.03999962,-0.0002035364
0.04099962,-0.0002016971
0.04199962,-0.0002001643
0.04299962,-0.0001986316
0.04399962,-0.0001970989
0.04499962,-0.0001955661
0.04599962,-0.0001943399
0.04699962,-0.0001928072
0.04799962,-0.0001912744
0.04899962,-0.0001900483
0.04999962,-0.0001888221
0.05099962,-0.0001872893
0.05199962,-0.0001860631
0.05299962,-0.0001845304
0.05399962,-0.0001833042
0.05499962,-0.000182078
0.05599962,-0.0001805453
0.05699962,-0.0001793191
0.05799962,-0.0001780929
0.05899962,-0.0001768667
0.05999962,-0.0001756405
0.06099962,-0.0001741077
0.06199962,-0.0001728816
0.06299962,-0.0001716554
0.06399962,-0.0001704292
0.06499962,-0.0001695095
0.06599962,-0.0001682833
0.06699962,-0.0001670571
0.06799962,-0.0001658309
0.06899962,-0.0001646047
0.06999962,-0.0001636851
0.07099961,-0.0001624589
0.07199962,-0.0001612327
0.07299962,-0.0001603131
0.07399962,-0.0001590869
0.07499962,-0.0001613045
0.07599962,-0.0001602009
0.07699962,-0.0001591587
0.07799962,-0.0001581471
0.07899962,-0.0001569209
0.07999962,-0.0001559399
0.08099962,-0.000154867
0.08199961,-0.0001538248
0.08299962,-0.0001527825
0.08399962,-0.0001516483
0.08499962,-0.0001506366
0.08599962,-0.0001496863
0.08699962,-0.0001485828
0.08799962,-0.0001476325
0.08899962,-0.0001465902
0.08999962,-0.0001454866
0.09099962,-0.0001446283
0.09199962,-0.0001434941
0.09299962,-0.0001425744
0.09399962,-0.0001416855
0.09499962,-0.0001406738
0.09599962,-0.0001397542
0.09699962,-0.0001387426
0.09799962,-0.0001377923
0.09899962,-0.0001368726
0.09999962,-0.000135769
0.1009996,-0.0001348188
0.1019996,-0.0001337459
0.1029996,-0.0001326729
0.1039996,-0.0001318452
0.1049996,-0.0001307417
0.1059996,-0.00012973
0.1069996,-0.0001289024
0.1079996,-0.0001278295
0.1089996,-0.0001267565
0.1099996,-0.0001258982
0.1109996,-0.0001248559
0.1119996,-0.000123875
0.1129996,-0.0001229553
0.1139996,-0.000122005
0.1149996,-0.0001210547
0.1159996,-0.0001199818
0.1169996,-0.0001190315
0.1179996,-0.0001180506
0.1189996,-0.0001171003
0.1199996,-0.0001160887
0.1209996,-0.0001149851
0.1219996,-0.0001139122
0.1229996,-0.0001129312
0.1239996,-0.0001118276
0.1249996,-0.0001107854
0.1259996,-0.0001098657
0.1269996,-0.0001087008
0.1279996,-0.0001076892
0.1289996,-0.000106647
0.1299996,-0.0001054208
0.1309996,-0.0001043785
0.1319996,-0.0001033056
0.1329996,-0.0001021714
0.1339996,-0.0001011291
0.1349996,-9.993356E-05
0.1359996,-9.886064E-05
0.1369996,-9.769576E-05
0.1379996,-9.646956E-05
0.1389996,-9.530468E-05
0.1399996,-9.404783E-05
0.1409996,-9.288295E-05
0.1419996,-9.168741E-05
0.1429996,-9.030795E-05
0.1439996,-8.920438E-05
0.1449996,-8.791687E-05
0.1459996,-8.653741E-05
0.1469996,-8.528055E-05
0.1479996,-8.383978E-05
0.1489996,-8.258293E-05
0.1499996,-8.123412E-05
0.1509996,-7.973203E-05
0.1519996,-7.838322E-05
0.1529996,-7.694244E-05
0.1539996,-7.540971E-05
0.1549996,-7.409155E-05
0.1559996,-7.249749E-05
0.1569996,-7.105672E-05
0.1579996,-6.964659E-05
0.1589996,-6.789927E-05
0.1599996,-6.633587E-05
0.1609996,-6.474183E-05
0.1619996,-6.29945E-05
0.1629996,-6.133914E-05
0.1639996,-5.946919E-05
0.1649996,-5.787514E-05
0.1659996,-5.606651E-05
0.1669996,-5.407395E-05
0.1679996,-5.229596E-05
0.1689996,-5.036471E-05
0.1699996,-4.831083E-05
0.1709996,-4.65022E-05
0.1719996,-4.423374E-05
0.1729996,-4.205725E-05
0.1739996,-4.018731E-05
0.1749996,-3.779623E-05
0.1759996,-3.558908E-05
0.1769996,-3.332063E-05
0.1779996,-3.092955E-05
0.1789996,-2.869175E-05
0.1799996,-2.593282E-05
0.1809996,-2.351108E-05
0.1819996,-2.102804E-05
0.1829996,-1.826911E-05
0.1839996,-1.563279E-05
0.1849996,-1.275124E-05
0.1859996,-9.839032E-06
0.1869996,-7.049443E-06
0.1879996,-3.451617E-06
0.1889996,-6.558965E-07
0.1899996,2.424913E-06
0.1909996,5.904236E-06
0.1919996,9.178171E-06
0.1929996,1.257166E-05
0.1939996,1.627476E-05
0.1949996,1.968358E-05
0.1959996,2.354407E-05
0.1969996,2.697741E-05
0.1979996,3.083992E-05
0.1989996,3.491702E-05
0.1999996,3.902476E-05
0.2009996,4.331644E-05
0.2019996,4.770008E-05
0.2029996,5.186913E-05
0.2039996,5.692718E-05
0.2049996,6.189326E-05
0.2059996,6.649148E-05
0.2069996,7.182542E-05
0.2079996,7.67302E-05
0.2089996,8.212545E-05
0.2099996,8.791921E-05
0.2109996,9.331445E-05
0.2119996,9.956805E-05
0.2129996,0.0001054231
0.2139996,0.0001114315
0.2149996,0.0001182062
0.2159996,0.0001246437
0.2169996,0.0001314797
0.2179996,0.0001388369
0.2189996,0.0001457955
0.2199996,0.0001535512
0.2209996,0.0001610923
0.2219996,0.0001688479
0.2229996,0.00017737
0.2239996,0.0001858001
0.2249996,0.000194506
0.2259996,0.0002036412
0.2269996,0.0002127763
0.2279996,0.0002228004
0.2289996,0.0002323341
0.2299996,0.0002424195
0.2309996,0.0002534553
0.2319996,0.0002639699
0.2329996,0.0002753122
0.2339996,0.0002871756
0.2349996,0.0003025748
0.2359996,0.0003148368
0.2369996,0.0003274052
0.2379996,0.0003402802
0.2389996,0.000354688
0.2399996,0.0003684827
0.2409996,0.000383197
0.2419996,0.0003982179
0.2429996,0.0004141584
0.2439996,0.0004310186
0.2449996,0.0004472656
0.2459996,0.0004644323
0.2469996,0.0004825187
0.2479996,0.0005002985
0.2489996,0.0005199176
0.2499996,0.0005398432
0.2509996,0.0005591557
0.2519996,0.0005815338
0.2529996,0.0006026856
0.2539996,0.0006247571
0.2549996,0.0006486679
0.2559996,0.0006725786
0.2569996,0.0006977156
0.2579996,0.0007237722
0.2589996,0.0007495222
0.2599996,0.0007777247
0.2609996,0.0008056205
0.2619996,0.0008347426
0.2629996,0.000865704
0.2639996,0.0008957458
0.2649996,0.0009285464
0.2659996,0.0009619602
0.2669996,0.0009950673
0.2679996,0.001031853
0.2689996,0.001067413
0.2699996,0.001104812
0.2709996,0.001144663
0.2719996,0.001183595
0.2729996,0.001225592
0.2739996,0.001268508
0.2749996,0.001311119
0.2759996,0.001357407
0.2769996,0.00140339
0.2779996,0.001449985
0.2789996,0.001499952
0.2799996,0.001549
0.2809996,0.001601113
0.2819996,0.001655066
0.2829996,0.001709018
0.2839996,0.001766343
0.2849996,0.001822441
0.2859996,0.001881298
0.2869996,0.001941995
0.2879996,0.002003918
0.2889996,0.002067373
0.2899996,0.002132055
0.2909996,0.00219643
0.2919996,0.002267549
0.2929996,0.002333764
0.2939996,0.00240427
0.2949996,0.002478761
0.2959996,0.002547734
0.2969996,0.002623452
0.2979996,0.002699169
0.2989996,0.002772434
0.2999996,0.00285275
0.3009996,0.002931226
0.3019996,0.00300817
0.3029996,0.003120778
0.3039996,0.003197415
0.3049996,0.003277118
0.3059996,0.003359886
0.3069996,0.003445719
0.3079996,0.003528487
0.3089996,0.00360819
0.3099996,0.003694023
0.3109996,0.003776791
0.3119996,0.003856494
0.3129996,0.003942328
0.3139996,0.004025095
0.3149996,0.004104798
0.3159996,0.004187566
0.3169996,0.004264203
0.3179996,0.004343905
0.3189996,0.004423608
0.3199996,0.00449718
0.3209996,0.004576882
0.3219996,0.004653519
0.3229996,0.00472096
0.3239996,0.004797597
0.3249996,0.004861972
0.3259996,0.004929413
0.3269996,0.004999919
0.3279996,0.005061228
0.3289996,0.005122538
0.3299996,0.005183848
0.3309996,0.005239027
0.3319996,0.00529727
0.3329996,0.005349384
0.3339996,0.005401497
0.3349996,0.00545361
0.3359996,0.005499593
0.3369996,0.005545575
0.3379996,0.005594622
0.3389996,0.005637539
0.3399996,0.00567739
0.3409996,0.005717242
0.3419996,0.005754027
0.3429996,0.005790813
0.3439996,0.005821468
0.3449996,0.005855188
0.3459996,0.005885844
0.3469996,0.005916498
0.3479996,0.005944087
0.3489996,0.005965546
0.3499996,0.005990069
0.3509996,0.006011528
0.3519996,0.006032987
0.3529996,0.006054445
0.3539996,0.006069772
0.3549996,0.006082034
0.3559996,0.006103492
0.3569996,0.006109623
0.3579996,0.006121885
0.3589996,0.006134147
0.3599996,0.006134147
0.3609996,0.006140279
0.3619996,0.006143344
0.3629996,0.006140279
0.3639996,0.006143344
0.3649996,0.006140279
0.3659996,0.006134147
0.3669996,0.006128016
0.3679996,0.006115754
0.3689996,0.006106558
0.3699996,0.006094296
0.3709996,0.006082034
0.3719996,0.006066706
0.3729996,0.006045248
0.3739996,0.006029921
0.3749996,0.006005398
0.3759996,0.005983938
0.3769996,0.00596248
0.3779996,0.005934891
0.3789996,0.005907302
0.3799996,0.005882777
0.3809996,0.005849057
0.3819996,0.005818403
0.3829996,0.005790813
0.3839996,0.005750962
0.3849996,0.005720307
0.3859996,0.005686587
0.3869996,0.005646735
0.3879996,0.00561608
0.3889996,0.00557623
0.3899996,0.005539444
0.3909996,0.005505723
0.3919996,0.005462807
0.3929996,0.005426021
0.3939996,0.005389235
0.3949996,0.005346318
0.3959996,0.005312598
0.3969996,0.005272747
0.3979996,0.005232896
0.3989996,0.00519611
0.3999996,0.005156258
0.4009996,0.005119473
0.4019996,0.005076556
0.4029996,0.00503977
0.4039996,0.00500605
0.4049996,0.004966198
0.4059996,0.004929413
0.4069996,0.004892627
0.4079996,0.004852775
0.4089996,0.004822121
0.4099996,0.004794532
0.4109996,0.00475468
0.4119996,0.00472096
0.4129996,0.004681109
0.4139996,0.004650454
0.4149996,0.004616733
0.4159996,0.004579948
0.4169996,0.004549293
0.4179996,0.004515572
0.4189996,0.004481852
0.4199996,0.004451197
0.4209996,0.004420543
0.4219996,0.004389888
0.4229996,0.004362299
0.4239996,0.004331644
0.4249996,0.004300989
0.4259996,0.004273399
0.4269996,0.004242745
0.4279996,0.004218221
0.4289996,0.004190631
0.4299996,0.004159976
0.4309996,0.004135453
0.4319996,0.004107863
0.4329996,0.00408334
0.4339996,0.00405575
0.4349996,0.004031226
0.4359996,0.004009768
0.4369996,0.003985244
0.4379996,0.00396072
0.4389996,0.003939262
0.4399996,0.003914738
0.4409996,0.003896345
0.4419996,0.003874887
0.4429996,0.003856494
0.4439996,0.003838101
0.4449996,0.003813577
0.4459996,0.00379825
0.4469996,0.003779857
0.4479996,0.003761464
0.4489996,0.003749202
0.4499996,0.003733875
0.4509996,0.003712416
0.4519996,0.00370322
0.4529996,0.003690958
0.4539996,0.00367563
0.4549996,0.003669499
0.4559996,0.003657237
0.4569996,0.003651106
0.4579996,0.003648041
0.4589996,0.003638844
0.4599996,0.00364191
0.4609996,0.00364191
0.4619996,0.00364191
0.4629996,0.003648041
0.4639996,0.003651106
0.4649996,0.003660303
0.4659996,0.003672565
0.4669996,0.003687892
0.4679996,0.003709351
0.4689996,0.003727744
0.4699996,0.003755333
0.4709996,0.003789053
0.4719996,0.003819708
0.4729996,0.00386569
0.4739996,0.003911673
0.4749996,0.003963786
0.4759996,0.004025095
0.4769996,0.004086405
0.4779996,0.004159976
0.4789996,0.004239679
0.4799996,0.004325512
0.4809996,0.004423608
0.4819996,0.004527835
0.4829996,0.004641257
0.4839996,0.004766942
0.4849996,0.004895692
0.4859996,0.005036704
0.4869996,0.005189979
0.4879996,0.005349384
0.4889996,0.005524116
0.4899996,0.00570498
0.4909996,0.005898105
0.4919996,0.006100427
0.4929996,0.006315011
0.4939996,0.006535726
0.4949996,0.006765637
0.4959996,0.007004744
0.4969996,0.007256114
0.4979996,0.007510548
0.4989996,0.007780312
0.4999996,0.00805927
0.5009996,0.008335164
0.5019996,0.00862945
0.5029996,0.008923736
0.5039996,0.009221088
0.5049996,0.009536833
0.5059996,0.009849512
0.5069996,0.01017139
0.5079996,0.01050246
0.5089996,0.0108274
0.5099996,0.01117073
0.5109996,0.01151407
0.5119996,0.01186047
0.5129996,0.01221606
0.5139996,0.01257166
0.5149996,0.01292419
0.5159996,0.01329511
0.5169996,0.01365991
0.5179996,0.01403083
0.5189996,0.01440482
0.5199996,0.01477574
0.5209996,0.01515893
0.5219996,0.01554211
0.5229996,0.0159253
0.5239996,0.01631155
0.5249996,0.01670393
0.5259996,0.01709631
0.5269996,0.01748869
0.5279996,0.01788721
0.5289996,0.01828879
0.5299996,0.01868423
0.5309996,0.01908888
0.5319996,0.01949352
0.5329996,0.01989816
0.5339996,0.02030894
0.5349996,0.02071665
0.5359996,0.02111823
0.5369996,0.0215382
0.5379996,0.02194897
0.5389996,0.02236588
0.5399996,0.02279198
0.5409996,0.02319662
0.5419996,0.02362579
0.5429996,0.02404576
0.5439996,0.02445654
0.5449996,0.02489184
0.5459996,0.02531181
0.5469996,0.02572871
0.5479996,0.02616707
0.5489996,0.02659318
0.5499996,0.02701622
0.5509996,0.02744845
0.5519996,0.02788068
0.5529996,0.02830065
0.5539996,0.02873901
0.5549996,0.02917738
0.5559996,0.02960348
0.5569996,0.03004185
0.5579996,0.03123844
0.5589996,0.03163695
0.5599996,0.03209677
0.5609996,0.03252594
0.5619996,0.03298576
0.5629996,0.03341493
0.5639996,0.03387475
0.5649996,0.03430392
0.5659996,0.03476374
0.5669996,0.03519291
0.5679996,0.03565273
0.5689996,0.03611255
0.5699996,0.03654172
0.5709996,0.03700154
0.5719996,0.03746137
0.5729996,0.03789053
0.5739996,0.03835035
0.5749996,0.03881018
0.5759996,0.03927
0.5769996,0.03972982
0.5779996,0.04018965
0.5789996,0.04061881
0.5799996,0.04107863
0.5809996,0.04153846
0.5819996,0.04199828
0.5829996,0.0424581
0.5839996,0.04291793
0.5849996,0.04334709
0.5859996,0.04383757
0.5869996,0.04429739
0.5879996,0.04472656
0.5889996,0.04521704
0.5899996,0.04567686
0.5909996,0.04613668
0.5919996,0.0465965
0.5929996,0.04705633
0.5939996,0.04751615
0.5949996,0.04797597
0.5959996,0.04843579
0.5969996,0.04889562
0.5979996,0.0493861
0.5989996,0.04984592
0.5999996,0.05027508
0.6009996,0.05073491
0.6019996,0.05119473
0.6029996,0.0516852
0.6039996,0.05214503
0.6049996,0.05260485
0.6059996,0.05306467
0.6069996,0.05355515
0.6079996,0.05398431
0.6089996,0.0544748
0.6099996,0.05496527
0.6109996,0.0554251
0.6119996,0.05588492
0.6129996,0.05634474
0.6139996,0.05680456
0.6149996,0.05729504
0.6159996,0.05775486
0.6169996,0.05821468
0.6179996,0.05870516
0.6189996,0.05916498
0.6199996,0.05965546
0.6209996,0.06011529
0.6219996,0.06057511
0.6229996,0.06103493
0.6239996,0.0615254
0.6249996,0.06201588
0.6259996,0.06247571
0.6269996,0.06296618
0.6279996,0.063426
0.6289996,0.06388583
0.6299996,0.0643763
0.6309996,0.06483613
0.6319996,0.06529595
0.6329996,0.06578642
0.6339996,0.06624625
0.6349996,0.06673672
0.6359996,0.06719655
0.6369996,0.06765637
0.6379996,0.06814685
0.6389996,0.06860667
0.6399996,0.06906649
0.6409996,0.06955697
0.6419996,0.07004745
0.6429996,0.07050727
0.6439996,0.07099774
0.6449996,0.07148822
0.6459996,0.07194804
0.6469996,0.07240786
0.6479996,0.07289835
0.6489996,0.07335817
0.6499996,0.07384864
0.6509996,0.07430847
0.6519996,0.07479894
0.6529996,0.07528942
0.6539996,0.07574924
0.6549996,0.07623972
0.6559996,0.0767302
0.6569996,0.07719002
0.6579996,0.0776805
0.6589996,0.07817098
0.6599996,0.0786308
0.6609996,0.07909062
0.6619996,0.0795811
0.6629996,0.08007158
0.6639996,0.0805314
0.6649996,0.08105253
0.6659996,0.0814817
0.6669996,0.08197217
0.6679996,0.08246265
0.6689996,0.08292247
0.6699996,0.0833823
0.6709996,0.08387277
0.6719996,0.08433259
0.6729996,0.08485373
0.6739996,0.0853442
0.6749996,0.08580403
0.6759996,0.0862945
0.6769996,0.08678498
0.6779996,0.0872448
0.6789996,0.08773528
0.6799996,0.08822576
0.6809996,0.08868558
0.6819996,0.08917606
0.6829996,0.08966654
0.6839996,0.09012636
0.6849996,0.09061684
0.6859996,0.09113797
0.6869996,0.09156714
0.6879996,0.09205761
0.6889996,0.09257875
0.6899996,0.09300791
0.6909996,0.09352904
0.6919996,0.09401952
0.6929996,0.09447934
0.6939996,0.09496982
0.6949996,0.0954603
0.6959996,0.09588946
0.6969996,0.09641059
0.6979996,0.09690107
0.6989996,0.09733024
0.6999996,0.09751417
0.6990005,0.09705435
0.6980005,0.09656387
0.6970005,0.09610405
0.6960005,0.09561357
0.6950005,0.0951231
0.6940005,0.09469392
0.6930005,0.0941728
0.6920004,0.09371297
0.6910005,0.09325315
0.6900005,0.09276267
0.6890005,0.09227219
0.6880005,0.09184303
0.6870005,0.09132189
0.6860005,0.09089272
0.6850005,0.0904329
0.6840005,0.08991177
0.6830005,0.08945195
0.6820005,0.08899213
0.6810005,0.088471
0.6800005,0.08807249
0.6790005,0.08758201
0.6780005,0.08709153
0.6770005,0.08663171
0.6760005,0.08617189
0.6750005,0.08568141
0.6740005,0.08522158
0.6730005,0.08476176
0.6720005,0.08427128
0.6710005,0.08381146
0.6700005,0.08335164
0.6690005,0.08289181
0.6680005,0.08243199
0.6670005,0.08194152
0.6660005,0.08145104
0.6650005,0.08102188
0.6640005,0.0805314
0.6630005,0.08007158
0.6620005,0.07961175
0.6610005,0.07912128
0.6600005,0.07866146
0.6590005,0.07820163
0.6580005,0.0776805
0.6570005,0.07725133
0.6560005,0.07676085
0.6550004,0.07623972
0.6540005,0.07584121
0.6530005,0.07538139
0.6520005,0.0748909
0.6510005,0.07443108
0.6500005,0.0739406
0.6490005,0.07348078
0.6480005,0.07302096
0.6470005,0.07253049
0.6460005,0.07207067
0.6450005,0.07161084
0.6440005,0.07115102
0.6430005,0.0706912
0.6420005,0.07026203
0.6410004,0.06977155
0.6400005,0.06928107
0.6390005,0.06885191
0.6380005,0.06836143
0.6370005,0.0679016
0.6360005,0.06744178
0.6350005,0.06698196
0.6340005,0.06652214
0.6330005,0.06606232
0.6320005,0.0656025
0.6310005,0.06514268
0.6300005,0.06468286
0.6290005,0.06422303
0.6280005,0.06373256
0.6270005,0.06330338
0.6260005,0.06284356
0.6250005,0.06235309
0.6240005,0.06192392
0.6230005,0.0614641
0.6220005,0.06097361
0.6210005,0.06051379
0.6200005,0.06005397
0.6190005,0.05959415
0.6180004,0.05916498
0.6170005,0.0586745
0.6160005,0.05821468
0.6150005,0.05775486
0.6140005,0.05729504
0.6130005,0.05683522
0.6120005,0.05640605
0.6110005,0.05591557
0.6100005,0.05545575
0.6090005,0.05502658
0.6080005,0.05456676
0.6070005,0.05410693
0.6060005,0.05364711
0.6050005,0.05318729
0.6040004,0.05272747
0.6030005,0.0522983
0.6020005,0.05183848
0.6010005,0.05137866
0.6000005,0.05091884
0.5990005,0.05045901
0.5980005,0.05002984
0.5970005,0.04957002
0.5960005,0.04914085
0.5950005,0.04868103
0.5940005,0.04825186
0.5930005,0.04779204
0.5920005,0.04736288
0.5910005,0.0468724
0.5900005,0.04644323
0.5890005,0.04601406
0.5880005,0.04555424
0.5870005,0.04509442
0.5860005,0.04466525
0.5850005,0.04423608
0.5840005,0.0437456
0.5830005,0.04334709
0.5820005,0.04288727
0.5810004,0.04242745
0.5800005,0.04199828
0.5790005,0.04156911
0.5780005,0.04110929
0.5770005,0.04068012
0.5760005,0.0402203
0.5750005,0.03979113
0.5740005,0.03936196
0.5730005,0.03890214
0.5720005,0.03847298
0.5710005,0.03804381
0.5700005,0.03758398
0.5690005,0.03715482
0.5680005,0.03672565
0.5670004,0.03626583
0.5660005,0.03586731
0.5650005,0.03540749
0.5640005,0.03497833
0.5630005,0.03454916
0.5620005,0.03411999
0.5610005,0.03369082
0.5600005,0.03326165
0.5590005,0.03283248
0.5580005,0.03240332
0.5570005,0.03197415
0.5560005,0.03157564
0.5550005,0.03114647
0.5540005,0.0307173
0.5530005,0.03028814
0.5520005,0.02985897
0.5510005,0.0294298
0.5500005,0.02903129
0.5490005,0.02860212
0.5480005,0.02817295
0.5470005,0.02777444
0.5460005,0.02734527
0.5450005,0.02694676
0.5440005,0.02651759
0.5430005,0.02611908
0.5420005,0.02568991
0.5410005,0.0252914
0.5400005,0.02486223
0.5390005,0.02446372
0.5380005,0.02406521
0.5370005,0.02366669
0.5360005,0.02326818
0.5350005,0.02283901
0.5340005,0.0224405
0.5330005,0.02204199
0.5320005,0.02164347
0.5310005,0.02127562
0.5300004,0.02084645
0.5290005,0.02047859
0.5280005,0.02008008
0.5270005,0.01968157
0.5260005,0.01931371
0.5250005,0.0189152
0.5240005,0.01851668
0.5230005,0.01814882
0.5220005,0.01778097
0.5210005,0.01738245
0.5200005,0.0170146
0.5190005,0.01664674
0.5180005,0.01624822
0.5170005,0.01588037
0.5160004,0.01551251
0.5150005,0.01517531
0.5140005,0.01477679
0.5130005,0.01443959
0.5120005,0.01404108
0.5110005,0.01370388
0.5100005,0.01336667
0.5090005,0.01251342
0.5080005,0.01216702
0.5070005,0.01183288
0.5060005,0.01148648
0.5050005,0.01115234
0.5040005,0.01082433
0.5030005,0.01048713
0.5020005,0.01016219
0.5010005,0.00983725
0.5000005,0.009515375
0.4990005,0.009196565
0.4980005,0.008883885
0.4970005,0.008571207
0.4960005,0.008267723
0.4950005,0.00796424
0.4940005,0.007663823
0.4930005,0.007369536
0.4920005,0.007075251
0.4910005,0.006787095
0.4900005,0.006505071
0.4890005,0.006226112
0.4880005,0.005950219
0.4870005,0.005680456
0.4860005,0.005416824
0.4850005,0.005156258
0.4840005,0.004898758
0.4830005,0.004650454
0.4820005,0.004402149
0.4810005,0.004163042
0.4800005,0.003923934
0.4790005,0.003690958
0.4780005,0.003467177
0.4770005,0.003246463
0.4760005,0.003028814
0.4750005,0.002823426
0.4740005,0.002614973
0.4730005,0.002418783
0.4720005,0.002228722
0.4710005,0.002035597
0.4700005,0.001857799
0.4690005,0.001686132
0.4680005,0.0015114
0.4670005,0.001348929
0.4660005,0.001189524
0.4650005,0.001004264
0.4640005,0.0008601861
0.4630005,0.0007154953
0.4620005,0.0005796945
0.4610005,0.0004475722
0.4600005,0.0003191284
0.4590005,0.0002023335
0.4580005,8.584519E-05
0.4570005,-2.887568E-05
0.4560005,-0.0001319372
0.4550005,-0.0002349374
0.4540005,-0.0003294769
0.4530005,-0.0004205726
0.4520005,-0.0005076323
0.4510005,-0.0005873349
0.4500005,-0.0006682636
0.4490005,-0.0007433679
0.4480005,-0.0008129543
0.4470005,-0.0008834605
0.4460005,-0.0009444635
0.4450005,-0.00100424
0.4440005,-0.001064631
0.4430005,-0.001116131
0.4420005,-0.001169777
0.4410005,-0.001219744
0.4400005,-0.001262967
0.4390005,-0.001309869
0.4380005,-0.001350027
0.4370005,-0.001389572
0.4360005,-0.001428197
0.4350005,-0.001460691
0.4340005,-0.001496557
0.4330005,-0.001527212
0.4320005,-0.001556947
0.4310005,-0.001588522
0.4300005,-0.001613659
0.4290005,-0.001641861
0.4280005,-0.001669144
0.4270005,-0.001688456
0.4260005,-0.001714819
0.4250005,-0.001737504
0.4240005,-0.001755284
0.4230005,-0.001780114
0.4220005,-0.00180004
0.4210005,-0.001817513
0.4200005,-0.001837745
0.4190005,-0.001852766
0.4180005,-0.001871159
0.4170005,-0.001888326
0.4160005,-0.001904266
0.4150005,-0.001922353
0.4140005,-0.00193676
0.4130005,-0.001951781
0.4120005,-0.001968641
0.4110005,-0.001980903
0.4100005,-0.002003281
0.4090005,-0.002021981
0.4080005,-0.002031177
0.4070005,-0.002046811
0.4060005,-0.002056927
0.4050005,-0.002071028
0.4040005,-0.002087275
0.4030005,-0.002096778
0.4020005,-0.002112719
0.4010005,-0.002127433
0.4000005,-0.002137856
0.3990005,-0.002154716
0.3980005,-0.002166365
0.3970005,-0.002181079
0.3960005,-0.00219702
0.3950005,-0.002208056
0.3940005,-0.002223383
0.3930005,-0.002237484
0.3920005,-0.002249746
0.3910005,-0.002267219
0.3900005,-0.002280401
0.3890005,-0.002294809
0.3880005,-0.002310136
0.3870005,-0.002322705
0.3860005,-0.002339871
0.3850005,-0.002354279
0.3840005,-0.002366541
0.3830005,-0.002384934
0.3820005,-0.002398422
0.3810005,-0.002414669
0.3800005,-0.002433368
0.3790005,-0.002445017
0.3780005,-0.002464023
0.3770005,-0.002480577
0.3760005,-0.002495291
0.3750005,-0.00251491
0.3740005,-0.002529931
0.3730005,-0.002548631
0.3720005,-0.002567637
0.3710005,-0.002583577
0.3700005,-0.002603503
0.3690005,-0.00261975
0.3680005,-0.00263569
0.3670005,-0.002657455
0.3660005,-0.002674009
0.3650005,-0.002693628
0.3640005,-0.002714473
0.3630005,-0.002728574
0.3620005,-0.002750952
0.3610005,-0.002772104
0.3600005,-0.002787738
0.3590005,-0.002812875
0.3580005,-0.002834334
0.3570005,-0.002852113
0.3560005,-0.002874185
0.3550005,-0.002893191
0.3540005,-0.002914343
0.3530005,-0.002936414
0.3520005,-0.002956646
0.3510005,-0.002979024
0.3500005,-0.00299987
0.3490005,-0.002988729
0.3480005,-0.003010187
0.3470005,-0.003031645
0.3460005,-0.003056169
0.3450005,-0.003077628
0.3440005,-0.003099086
0.3430005,-0.00312361
0.3420005,-0.003145068
0.3410005,-0.003169592
0.3400005,-0.003194116
0.3390005,-0.003215575
0.3380005,-0.003243164
0.3370005,-0.003267688
0.3360005,-0.003289146
0.3350005,-0.003316735
0.3340005,-0.003341259
0.3330005,-0.003362718
0.3320005,-0.003390307
0.3310005,-0.003411765
0.3300005,-0.003439354
0.3290005,-0.003463879
0.3280005,-0.003485337
0.3270005,-0.003515992
0.3260005,-0.003540515
0.3250005,-0.003565039
0.3240005,-0.003595694
0.3230005,-0.003617153
0.3220005,-0.003644742
0.3210005,-0.003672331
0.3200005,-0.003696855
0.3190005,-0.003724444
0.3180005,-0.003748968
0.3170005,-0.003776558
0.3160005,-0.003804147
0.3150005,-0.003825605
0.3140005,-0.003853195
0.3130005,-0.003880784
0.3120005,-0.003905308
0.3110005,-0.003932897
0.3100005,-0.003954356
0.3090005,-0.003981945
0.3080005,-0.004009534
0.3070005,-0.004040189
0.3060005,-0.004067779
0.3050005,-0.004089237
0.3040005,-0.004113761
0.3030005,-0.00414135
0.3020005,-0.004162808
0.3010005,-0.004187332
0.3000005,-0.004217987
0.2990005,-0.00423638
0.2980005,-0.004260904
0.2970005,-0.004285428
0.2960005,-0.00430382
0.2950005,-0.004334475
0.2940005,-0.004355934
0.2930005,-0.004374327
0.2920005,-0.004401916
0.2910005,-0.004423374
0.2900005,-0.004441767
0.2890005,-0.004466291
0.2880005,-0.00448775
0.2870005,-0.004509208
0.2860005,-0.004527601
0.2850005,-0.00454906
0.2840005,-0.004567452
0.2830005,-0.004585845
0.2820005,-0.004607304
0.2810005,-0.004622631
0.2800005,-0.004637958
0.2790005,-0.004659417
0.2780005,-0.004674744
0.2770005,-0.004690072
0.2760005,-0.004705399
0.2750005,-0.004720726
0.2740005,-0.004736054
0.2730005,-0.004748316
0.2720005,-0.004760577
0.2710005,-0.004775905
0.2700005,-0.004785101
0.2690005,-0.004797364
0.2680005,-0.004809625
0.2670005,-0.004815756
0.2660005,-0.004824953
0.2650005,-0.004834149
0.2640005,-0.00484028
0.2630005,-0.004846411
0.2620005,-0.004852542
0.2610005,-0.004855608
0.2600005,-0.004858673
0.2590005,-0.004858673
0.2580005,-0.004858673
0.2570005,-0.004861739
0.2560005,-0.004858673
0.2550005,-0.004858673
0.2540005,-0.004855608
0.2530005,-0.004852542
0.2520005,-0.004846411
0.2510005,-0.004837214
0.2500005,-0.004834149
0.2490005,-0.004821887
0.2480005,-0.00480656
0.2470005,-0.004797364
0.2460005,-0.00477897
0.2450005,-0.004766709
0.2440005,-0.004751381
0.2430005,-0.004729923
0.2420005,-0.004714595
0.2410005,-0.004690072
0.2400005,-0.004662482
0.2390005,-0.004644089
0.2380005,-0.004613434
0.2370005,-0.004582779
0.2360005,-0.00455519
0.2350005,-0.004515339
0.2340005,-0.004481619
0.2330005,-0.004444833
0.2320005,-0.004398851
0.2310005,-0.004358999
0.2300005,-0.004309952
0.2290005,-0.004257839
0.2280005,-0.004208791
0.2270005,-0.004150547
0.2260005,-0.004089237
0.2250005,-0.004027927
0.2240005,-0.003960487
0.2230005,-0.00388998
0.2220005,-0.003819474
0.2210005,-0.003745903
0.2200005,-0.003669266
0.2190005,-0.003592629
0.2180005,-0.003512926
0.2170005,-0.003433224
0.2160005,-0.003350456
0.2150005,-0.003267688
0.2140005,-0.003184919
0.2130005,-0.003102152
0.2120005,-0.003019383
0.2110005,-0.002939681
0.2100005,-0.002863044
0.2090005,-0.002783341
0.2080005,-0.00270977
0.2070005,-0.002636198
0.2060005,-0.002562626
0.2050005,-0.00249212
0.2040005,-0.00242468
0.2030005,-0.002354174
0.2020005,-0.002289799
0.2010005,-0.002228489
0.2000005,-0.002164114
0.1990005,-0.002108935
0.1980005,-0.002050691
0.1970005,-0.001995512
0.1960005,-0.001946465
0.1950005,-0.001891286
0.1940005,-0.001845304
0.1930005,-0.001799321
0.1920005,-0.001756405
0.1910005,-0.001713488
0.1900005,-0.001673637
0.1890005,-0.001633785
0.1880005,-0.001597
0.1870005,-0.001598025
0.1860005,-0.001563078
0.1850005,-0.00153181
0.1840005,-0.001500236
0.1830005,-0.001469887
0.1820005,-0.001441072
0.1810005,-0.001413176
0.1800005,-0.0013862
0.1790005,-0.001360756
0.1780005,-0.001336539
0.1770005,-0.001312015
0.1760005,-0.00128933
0.1750005,-0.001267259
0.1740005,-0.001245187
0.1730005,-0.001224342
0.1720005,-0.001204417
0.1710005,-0.001184491
0.1700005,-0.001166098
0.1690005,-0.001147705
0.1680005,-0.001129925
0.1670005,-0.001113065
0.1660005,-0.001096205
0.1650005,-0.001079958
0.1640005,-0.001064631
0.1630005,-0.00104869
0.1620005,-0.001033976
0.1610005,-0.001019874
0.1600005,-0.001005773
0.1590005,-0.0009922851
0.1580005,-0.0009791035
0.1570005,-0.0009659219
0.1560005,-0.0009539665
0.1550005,-0.0009413981
0.1540005,-0.0009294427
0.1530005,-0.0009181004
0.1520005,-0.0009064515
0.1510005,-0.0008957224
0.1500005,-0.0008852997
0.1490005,-0.000874264
0.1480005,-0.0008644544
0.1470005,-0.0008549515
0.1460005,-0.0008448354
0.1450005,-0.0008356389
0.1440005,-0.0008261359
0.1430005,-0.000817246
0.1420005,-0.0008083562
0.1410005,-0.0007997728
0.1400005,-0.0007911894
0.1390005,-0.0007829126
0.1380005,-0.0007752489
0.1370005,-0.0007672787
0.1360005,-0.0007596149
0.1350005,-0.0007525643
0.1340005,-0.0007449006
0.1330005,-0.00073785
0.1320005,-0.000731106
0.1310005,-0.0007237488
0.1300005,-0.0007173113
0.1290005,-0.0007108737
0.1280005,-0.0007038232
0.1270005,-0.0006979987
0.1260005,-0.0006915613
0.1250005,-0.0006854302
0.1240005,-0.0006799124
0.1230005,-0.000674088
0.1220005,-0.0006682636
0.1210005,-0.0006627457
0.1200005,-0.0006569213
0.1190005,-0.00065171
0.1180005,-0.0006464986
0.1170005,-0.0006412873
0.1160005,-0.0006363826
0.1150005,-0.0006311712
0.1140005,-0.0006262665
0.1130005,-0.0006213617
0.1120005,-0.0006164569
0.1110005,-0.0006118587
0.1100005,-0.0006072604
0.1090005,-0.0006029688
0.1080005,-0.0005983706
0.1070005,-0.0005940789
0.1060005,-0.0005897872
0.1050005,-0.0005858021
0.1040005,-0.0005815104
0.1030005,-0.0005778318
0.1020005,-0.0005738467
0.1010005,-0.0005698616
0.1000005,-0.0005658764
0.09900048,-0.0005621978
0.09800047,-0.0005582127
0.09700048,-0.0005548407
0.09600048,-0.0005511622
0.09500048,-0.0005474835
0.09400047,-0.0005441115
0.09300048,-0.0005404329
0.09200048,-0.0005370609
0.09100047,-0.0005336889
0.09000048,-0.0005303168
0.08900048,-0.0005272513
0.08800048,-0.0005238793
0.08700047,-0.0005205073
0.08600048,-0.0005174418
0.08500048,-0.0005143763
0.08400048,-0.0005113108
0.08300047,-0.0005082454
0.08200048,-0.0005051799
0.08100048,-0.0005024209
0.08000048,-0.0004993554
0.07900048,-0.0004965966
0.07800048,-0.0004938376
0.07700048,-0.0004910787
0.07600047,-0.0004883197
0.07500048,-0.0004855608
0.07400048,-0.0004828018
0.07300048,-0.0004800429
0.07200047,-0.0004775905
0.07100048,-0.0004748316
0.07000048,-0.0004720727
0.06900048,-0.0004696203
0.06800048,-0.0004671679
0.06700048,-0.0004647155
0.06600048,-0.0004622631
0.06500047,-0.0004598107
0.06400048,-0.0004570518
0.06300048,-0.0004545994
0.06200048,-0.000452147
0.06100048,-0.0004496947
0.06000048,-0.0004475488
0.05900048,-0.0004450964
0.05800048,-0.0004423375
0.05700048,-0.0004401917
0.05600048,-0.0004377393
0.05500048,-0.0004352869
0.05400048,-0.000433141
0.05300048,-0.0004303821
0.05200048,-0.0004282363
0.05100048,-0.0004257839
0.05000048,-0.0004233315
0.04900048,-0.0004208791
0.04800048,-0.0004184267
0.04700048,-0.0004159743
0.04600048,-0.0004135219
0.04500048,-0.000410763
0.04400048,-0.0004083106
0.04300048,-0.0004058582
0.04200048,-0.0004030993
0.04100048,-0.0004003404
0.04000048,-0.000397888
0.03900048,-0.0003951291
0.03800048,-0.0003926767
0.03700048,-0.0003902243
0.03600048,-0.0003874653
0.03500048,-0.0003850129
0.03400048,-0.000382254
0.03300048,-0.0003798016
0.03200048,-0.0003773492
0.03100048,-0.0003748969
0.03000048,-0.0003724445
0.02900048,-0.0003699921
0.02800048,-0.0003675397
0.02700048,-0.0003650873
0.02600048,-0.0003629415
0.02500048,-0.0003604891
0.02400048,-0.0003580367
0.02300048,-0.0003561974
0.02200048,-0.000353745
0.02100048,-0.0003515992
0.02000048,-0.0003494534
0.01900048,-0.0003473075
0.01800048,-0.0003451617
0.01700048,-0.0003433224
0.01600048,-0.0003411766
0.01500048,-0.0003393373
0.01400048,-0.000337498
0.01300048,-0.0003353521
0.01200048,-0.0003335129
0.01100048,-0.0003316735
0.01000048,-0.0003298343
0.009000476,-0.000327995
0.008000477,-0.0003261557
0.007000477,-0.0003243164
0.006000477,-0.0003224771
0.005000477,-0.0003209444
0.004000477,-0.0003194116
0.003000477,-0.0003175724
0.002000477,-0.0003160396
0.001000477,-0.0003145068
