EXPID. 1291
[电化学]: i-t : @ 0(V) X 600(sec)
起始电位 (V),0
静置时间 (秒),0
运行时间 (秒),600
记录间隔,0.1
电解液 信息:
HNO3,0.4
0.1,-0.0006700407
0.2,-0.0006205471
0.3,-0.0005813371
0.4,-0.0005491733
0.5,-0.0005223649
0.6,-0.0004996608
0.7,-0.0004804806
0.8000001,-0.000463795
0.9000001,-0.0004493865
1,-0.000436756
1.1,-0.0004254326
1.2,-0.0004148861
1.3,-0.0004055357
1.4,-0.0003967738
1.5,-0.0003887126
1.6,-0.0003816035
1.7,-0.0003748927
1.8,-0.0003685934
1.9,-0.0003628056
2,-0.0003573125
2.1,-0.0003519502
2.2,-0.0003469082
2.3,-0.0003423427
2.4,-0.0003378921
2.5,-0.0003335902
2.6,-0.0003297442
2.7,-0.0003259857
2.799999,-0.000322329
2.899999,-0.0003188418
2.999999,-0.0003156964
3.099999,-0.0003124804
3.199999,-0.0003094414
3.299999,-0.0003065748
3.399999,-0.0003038259
3.499999,-0.0003011758
3.599999,-0.000298588
3.699999,-0.000296114
3.799999,-0.000293675
3.899998,-0.0002913479
3.999998,-0.0002890397
4.099998,-0.0002868163
4.199998,-0.0002847427
4.299998,-0.0002826586
4.399998,-0.0002807299
4.499998,-0.0002788841
4.599998,-0.0002768961
4.699998,-0.0002751097
4.799998,-0.0002734211
4.899998,-0.0002715706
4.999998,-0.0002697926
5.099998,-0.0002682576
5.199997,-0.0002665088
5.299997,-0.0002649465
5.399997,-0.0002635904
5.499997,-0.0002618519
5.599997,-0.0002604751
5.699997,-0.000259136
5.799997,-0.0002575765
5.899997,-0.0002562543
5.999997,-0.0002549745
6.099997,-0.0002535318
6.199996,-0.0002523857
6.299996,-0.0002510569
6.399996,-0.0002496481
6.499996,-0.0002484455
6.599996,-0.0002473182
6.699996,-0.0002461778
6.799996,-0.0002450854
6.899996,-0.0002438922
6.999996,-0.0002427132
7.099996,-0.0002416
7.199996,-0.0002404662
7.299995,-0.0002393126
7.399995,-0.0002382842
7.499995,-0.0002372436
7.599995,-0.0002362265
7.699995,-0.0002352669
7.799995,-0.0002343967
7.899995,-0.0002333241
7.999995,-0.0002323456
8.099995,-0.0002314529
8.199995,-0.0002305271
8.299995,-0.0002295638
8.399996,-0.0002287671
8.499996,-0.0002277924
8.599997,-0.0002269194
8.699997,-0.0002261076
8.799997,-0.0002253589
8.899998,-0.0002245509
8.999998,-0.0002237768
9.099998,-0.0002229895
9.199999,-0.0002221872
9.299999,-0.0002213914
9.4,-0.0002206201
9.5,-0.000219863
9.6,-0.0002192509
9.700001,-0.0002184786
9.800001,-0.0002177629
9.900002,-0.0002169766
10,-0.0002162449
10.1,-0.0002155122
10.2,-0.0002148756
10.3,-0.0002142823
10.4,-0.0002135873
10.5,-0.0002129978
10.6,-0.0002123197
10.7,-0.0002115202
10.8,-0.0002108468
10.90001,-0.0002101547
11.00001,-0.000209455
11.10001,-0.0002088617
11.20001,-0.0002082326
11.30001,-0.0002075724
11.40001,-0.000206965
11.50001,-0.0002063877
11.60001,-0.0002057926
11.70001,-0.0002052379
11.80001,-0.0002046408
11.90001,-0.00020404
12.00001,-0.0002034618
12.10001,-0.0002029081
12.20001,-0.0002022922
12.30001,-0.0002017817
12.40001,-0.0002012063
12.50001,-0.0002005387
12.60001,-0.0002000499
12.70001,-0.000199483
12.80001,-0.0001989245
12.90001,-0.0001984772
13.00001,-0.0001979724
13.10001,-0.0001973707
13.20001,-0.0001968885
13.30001,-0.0001963875
13.40001,-0.0001958931
13.50002,-0.0001953412
13.60002,-0.0001948139
13.70002,-0.0001942582
13.80002,-0.0001938015
13.90002,-0.0001933777
14.00002,-0.0001928899
14.10002,-0.0001923861
14.20002,-0.0001919811
14.30002,-0.0001914717
14.40002,-0.00019095
14.50002,-0.0001904292
14.60002,-0.0001899884
14.70002,-0.0001895147
14.80002,-0.0001891183
14.90002,-0.0001886672
15.00002,-0.0001882265
15.10002,-0.0001877387
15.20002,-0.000187329
15.30002,-0.0001869306
15.40002,-0.0001864965
15.50002,-0.0001860963
15.60002,-0.0001856518
15.70002,-0.000185195
15.80002,-0.0001847769
15.90002,-0.0001843889
16.00002,-0.0001839388
16.10003,-0.0001835602
16.20003,-0.0001831289
16.30003,-0.0001827004
16.40003,-0.0001823585
16.50003,-0.0001819856
16.60003,-0.0001815552
16.70003,-0.0001811559
16.80003,-0.0001807312
16.90003,-0.0001803423
17.00003,-0.0001800588
17.10003,-0.0001796925
17.20003,-0.000179361
17.30003,-0.0001788958
17.40003,-0.0001785238
17.50003,-0.0001781311
17.60003,-0.0001777422
17.70003,-0.0001774418
17.80003,-0.0001771347
17.90003,-0.0001767129
18.00003,-0.000176307
18.10003,-0.0001759962
18.20003,-0.0001756836
18.30003,-0.000175256
18.40003,-0.0001748784
18.50003,-0.0001745083
18.60003,-0.000174189
18.70004,-0.0001738707
18.80004,-0.0001735053
18.90004,-0.0001730778
19.00004,-0.0001727604
19.10004,-0.0001723837
19.20004,-0.0001720522
19.30004,-0.000171781
19.40004,-0.0001714976
19.50004,-0.0001711406
19.60004,-0.000170796
19.70004,-0.0001704852
19.80004,-0.000170117
19.90004,-0.0001697111
20.00004,-0.0001694182
20.10004,-0.0001690575
20.20004,-0.0001687835
20.30004,-0.0001684689
20.40004,-0.0001681092
20.50004,-0.0001678022
20.60004,-0.0001674801
20.70004,-0.000167158
20.80004,-0.0001668106
20.90004,-0.0001664894
21.00004,-0.0001661947
21.10004,-0.0001659545
21.20004,-0.0001656852
21.30005,-0.0001654271
21.40005,-0.0001651588
21.50005,-0.0001649262
21.60005,-0.0001646964
21.70005,-0.0001643752
21.80005,-0.0001640183
21.90005,-0.0001636934
22.00005,-0.00016336
22.10005,-0.0001630766
22.20005,-0.0001628101
22.30005,-0.0001625737
22.40005,-0.0001623402
22.50005,-0.000162036
22.60005,-0.0001616668
22.70005,-0.0001614182
22.80005,-0.0001611498
22.90005,-0.0001608249
23.00005,-0.0001605311
23.10005,-0.0001603051
23.20005,-0.0001599821
23.30005,-0.0001596656
23.40005,-0.0001594095
23.50005,-0.0001591392
23.60005,-0.0001588501
23.70005,-0.0001586665
23.80005,-0.0001583397
23.90005,-0.000158093
24.00006,-0.0001579319
24.10006,-0.0001576418
24.20006,-0.0001574271
24.30006,-0.0001572906
24.40006,-0.0001569779
24.50006,-0.0001567453
24.60006,-0.0001564939
24.70006,-0.000156265
24.80006,-0.0001560984
24.90006,-0.0001558921
25.00006,-0.000155651
25.10006,-0.0001554919
25.20006,-0.0001552715
25.30006,-0.0001550568
25.40006,-0.0001548609
25.50006,-0.0001546114
25.60006,-0.000154343
25.70006,-0.0001541047
25.80006,-0.0001538495
25.90006,-0.0001536075
26.00006,-0.0001532939
26.10006,-0.0001530462
26.20006,-0.0001528296
26.30006,-0.0001526092
26.40006,-0.000152355
26.50006,-0.0001521516
26.60007,-0.0001519133
26.70007,-0.0001517193
26.80007,-0.0001514453
26.90007,-0.0001511665
27.00007,-0.0001509669
27.10007,-0.0001507239
27.20007,-0.0001504367
27.30007,-0.0001502408
27.40007,-0.0001500167
27.50007,-0.0001497539
27.60007,-0.0001495411
27.70007,-0.0001492567
27.80007,-0.0001489497
27.90007,-0.0001487905
28.00007,-0.000148572
28.10007,-0.0001483036
28.20007,-0.0001480616
28.30007,-0.0001478582
28.40007,-0.0001476011
28.50007,-0.0001474194
28.60007,-0.0001472084
28.70007,-0.000146973
28.80007,-0.0001467799
28.90007,-0.0001466038
29.00007,-0.000146326
29.10007,-0.0001461075
29.20008,-0.0001459145
29.30008,-0.0001457195
29.40008,-0.0001454898
29.50008,-0.0001452694
29.60008,-0.0001450292
29.70008,-0.0001447938
29.80008,-0.0001446356
29.90008,-0.0001444407
30.00008,-0.0001441789
30.10008,-0.0001440009
30.20008,-0.0001438982
30.30008,-0.0001437504
30.40008,-0.0001437042
30.50008,-0.0001434349
30.60008,-0.0001430931
30.70008,-0.0001429094
30.80008,-0.0001426975
30.90008,-0.0001423962
31.00008,-0.0001422417
31.10008,-0.00014206
31.20008,-0.0001418019
31.30008,-0.0001416833
31.40008,-0.0001414544
31.50008,-0.000141219
31.60008,-0.0001411079
31.70008,-0.0001409449
31.80009,-0.000140766
31.90009,-0.0001407359
32.00008,-0.0001404487
32.10008,-0.0001401426
32.20008,-0.000139975
32.30008,-0.0001398365
32.40008,-0.0001396312
32.50008,-0.0001396209
32.60007,-0.0001393299
32.70007,-0.0001390229
32.80007,-0.0001389155
32.90007,-0.0001387536
33.00007,-0.000138487
33.10007,-0.0001383345
33.20007,-0.0001382036
33.30006,-0.0001380331
33.40006,-0.0001379145
33.50006,-0.0001377487
33.60006,-0.0001375773
33.70006,-0.000137356
33.80006,-0.0001371488
33.90005,-0.0001369256
34.00005,-0.0001368277
34.10005,-0.0001366365
34.20005,-0.0001364171
34.30005,-0.0001362956
34.40005,-0.0001361224
34.50005,-0.0001359575
34.60004,-0.0001357909
34.70004,-0.0001356119
34.80004,-0.0001354537
34.90004,-0.0001353294
35.00004,-0.0001351373
35.10004,-0.0001349103
35.20004,-0.0001347474
35.30003,-0.0001345864
35.40003,-0.0001344131
35.50003,-0.000134254
35.60003,-0.0001341061
35.70003,-0.0001339357
35.80003,-0.0001338575
35.90002,-0.0001337096
36.00002,-0.0001334949
36.10002,-0.0001333254
36.20002,-0.0001331672
36.30002,-0.000133009
36.40002,-0.0001328131
36.50002,-0.0001326577
36.60001,-0.000132459
36.70001,-0.000132281
36.80001,-0.0001321595
36.90001,-0.0001319806
37.00001,-0.0001318073
37.10001,-0.0001316736
37.2,-0.0001315041
37.3,-0.0001313242
37.4,-0.0001311877
37.5,-0.0001309777
37.6,-0.0001308279
37.7,-0.0001307008
37.8,-0.0001305341
37.89999,-0.000130358
37.99999,-0.000130245
38.09999,-0.0001300595
38.19999,-0.0001299455
38.29999,-0.0001298014
38.39999,-0.0001296545
38.49998,-0.0001294916
38.59998,-0.0001293278
38.69998,-0.0001291356
38.79998,-0.0001289746
38.89998,-0.0001288333
38.99998,-0.0001286902
39.09998,-0.0001285329
39.19997,-0.0001284124
39.29997,-0.0001282542
39.39997,-0.0001281214
39.49997,-0.0001280235
39.59997,-0.0001278822
39.69997,-0.0001277466
39.79996,-0.0001276129
39.89996,-0.0001274923
39.99996,-0.0001273944
40.09996,-0.0001273087
40.19996,-0.0001271589
40.29996,-0.0001270394
40.39996,-0.0001268727
40.49995,-0.000126738
40.59995,-0.0001265685
40.69995,-0.0001264715
40.79995,-0.0001262944
40.89995,-0.0001261127
40.99995,-0.0001259658
41.09995,-0.0001258773
41.19994,-0.0001257718
41.29994,-0.0001256023
41.39994,-0.0001254506
41.49994,-0.000125315
41.59994,-0.0001252049
41.69994,-0.0001250542
41.79993,-0.0001248847
41.89993,-0.000124798
41.99993,-0.00012467
42.09993,-0.0001245767
42.19993,-0.0001244477
42.29993,-0.000124282
42.39993,-0.000124152
42.49992,-0.0001239872
42.59992,-0.0001238601
42.69992,-0.0001237414
42.79992,-0.0001235907
42.89992,-0.0001234448
42.99992,-0.0001233223
43.09991,-0.0001232216
43.19991,-0.0001230812
43.29991,-0.0001229042
43.39991,-0.0001227733
43.49991,-0.0001226518
43.59991,-0.000122519
43.69991,-0.0001224098
43.7999,-0.0001222516
43.8999,-0.0001221282
43.9999,-0.0001219917
44.0999,-0.0001218532
44.1999,-0.0001217233
44.2999,-0.0001216103
44.39989,-0.0001214728
44.49989,-0.000121292
44.59989,-0.0001211987
44.69989,-0.0001210782
44.79989,-0.0001209407
44.89989,-0.0001208315
44.99989,-0.0001206958
45.09988,-0.00012058
45.19988,-0.0001204755
45.29988,-0.0001203521
45.39988,-0.0001202306
45.49988,-0.000120127
45.59988,-0.0001200178
45.69987,-0.0001198718
45.79987,-0.0001197494
45.89987,-0.0001196242
45.99987,-0.0001194961
46.09987,-0.0001194019
46.19987,-0.0001192635
46.29987,-0.0001191326
46.39986,-0.0001189847
46.49986,-0.0001188538
46.59986,-0.0001187455
46.69986,-0.0001186052
46.79986,-0.0001185026
46.89986,-0.0001183622
46.99986,-0.0001182681
47.09985,-0.000118172
47.19985,-0.0001180515
47.29985,-0.0001179206
47.39985,-0.0001178707
47.49985,-0.0001177953
47.59985,-0.0001177049
47.69984,-0.0001176117
47.79984,-0.0001174827
47.89984,-0.0001173715
47.99984,-0.0001172284
48.09984,-0.0001170711
48.19984,-0.0001170052
48.29984,-0.0001168912
48.39983,-0.0001167651
48.49983,-0.000116733
48.59983,-0.0001166097
48.69983,-0.0001164854
48.79983,-0.0001164091
48.89983,-0.0001162481
48.99982,-0.000116119
49.09982,-0.0001161247
49.19982,-0.0001160578
49.29982,-0.0001158412
49.39982,-0.0001157358
49.49982,-0.0001156143
49.59982,-0.0001154316
49.69981,-0.0001153704
49.79981,-0.0001152489
49.89981,-0.000115101
49.99981,-0.0001150417
50.09981,-0.0001149033
50.19981,-0.0001147469
50.2998,-0.0001146782
50.3998,-0.0001146113
50.4998,-0.0001144531
50.5998,-0.0001143655
50.6998,-0.0001142516
50.7998,-0.0001140943
50.8998,-0.000114034
50.99979,-0.0001139286
51.09979,-0.0001137864
51.19979,-0.0001136752
51.29979,-0.000113599
51.39979,-0.000113501
51.49979,-0.0001133974
51.59978,-0.0001132741
51.69978,-0.0001131328
51.79978,-0.0001130292
51.89978,-0.0001129247
51.99978,-0.0001128578
52.09978,-0.0001127505
52.19978,-0.0001126864
52.29977,-0.0001125593
52.39977,-0.0001124774
52.49977,-0.0001123681
52.59977,-0.0001122721
52.69977,-0.0001121534
52.79977,-0.0001121082
52.89977,-0.0001119425
52.99976,-0.000111804
53.09976,-0.0001117117
53.19976,-0.0001115874
53.29976,-0.000111514
53.39976,-0.0001114019
53.49976,-0.0001112898
53.59975,-0.0001112117
53.69975,-0.0001111015
53.79975,-0.0001110139
53.89975,-0.0001109263
53.99975,-0.0001107983
54.09975,-0.0001106598
54.19975,-0.0001105647
54.29974,-0.0001104969
54.39974,-0.0001103811
54.49974,-0.0001103001
54.59974,-0.0001101833
54.69974,-0.0001101155
54.79974,-0.000110026
54.89973,-0.0001099215
54.99973,-0.000109832
55.09973,-0.0001097699
55.19973,-0.0001096767
55.29973,-0.0001095702
55.39973,-0.0001094582
55.49973,-0.0001093678
55.59972,-0.0001092849
55.69972,-0.0001092293
55.79972,-0.0001091182
55.89972,-0.0001090353
55.99972,-0.000108993
56.09972,-0.0001089073
56.19971,-0.0001088244
56.29971,-0.0001087839
56.39971,-0.0001086972
56.49971,-0.0001086012
56.59971,-0.0001085258
56.69971,-0.0001083978
56.79971,-0.0001082593
56.8997,-0.0001081736
56.9997,-0.0001080418
57.0997,-0.0001079796
57.1997,-0.0001079382
57.2997,-0.0001078714
57.3997,-0.0001077499
57.49969,-0.000107651
57.59969,-0.000107553
57.69969,-0.0001074372
57.79969,-0.0001074382
57.89969,-0.0001072771
57.99969,-0.0001071679
58.09969,-0.000107149
58.19968,-0.0001070266
58.29968,-0.0001069249
58.39968,-0.0001068373
58.49968,-0.0001067611
58.59968,-0.0001066603
58.69968,-0.0001065859
58.79967,-0.0001064644
58.89967,-0.0001064729
58.99967,-0.0001064437
59.09967,-0.0001063928
59.19967,-0.0001062337
59.29967,-0.0001060595
59.39967,-0.000106003
59.49966,-0.0001058711
59.59966,-0.0001058014
59.69966,-0.0001056818
59.79966,-0.0001056074
59.89966,-0.0001055443
59.99966,-0.0001054944
60.09966,-0.0001053918
60.19965,-0.0001052854
60.29965,-0.0001052006
60.39965,-0.0001051516
60.49965,-0.0001050188
60.59965,-0.0001049397
60.69965,-0.0001048672
60.79964,-0.0001047881
60.89964,-0.0001047034
60.99964,-0.0001046488
61.09964,-0.0001045461
61.19964,-0.0001045037
61.29964,-0.0001043813
61.39964,-0.0001042589
61.49963,-0.0001041835
61.59963,-0.0001041054
61.69963,-0.0001040234
61.79963,-0.0001039773
61.89963,-0.0001038954
61.99963,-0.0001038031
62.09962,-0.0001037098
62.19962,-0.0001036176
62.29962,-0.000103529
62.39962,-0.0001034235
62.49962,-0.000103319
62.59962,-0.0001032286
62.69962,-0.0001031853
62.79961,-0.0001030921
62.89961,-0.0001029904
62.99961,-0.0001028708
63.09961,-0.0001028011
63.19961,-0.0001027483
63.29961,-0.000102689
63.3996,-0.0001025901
63.4996,-0.0001024602
63.5996,-0.0001023839
63.6996,-0.0001023217
63.7996,-0.0001022445
63.8996,-0.0001021663
63.9996,-0.0001020759
64.09959,-0.0001019742
64.19959,-0.0001019121
64.29959,-0.0001018537
64.39959,-0.000101752
64.49959,-0.0001016635
64.59959,-0.0001015872
64.69958,-0.0001014723
64.79958,-0.0001014469
64.89958,-0.0001013809
64.99958,-0.0001013009
65.09958,-0.0001012463
65.19958,-0.0001011625
65.29958,-0.00010104
65.39957,-0.0001009534
65.49957,-0.0001008809
65.59957,-0.0001007839
65.69957,-0.0001007368
65.79957,-0.0001006718
65.89957,-0.0001005682
65.99957,-0.0001005117
66.09956,-0.0001004401
66.19956,-0.0001003705
66.29956,-0.0001003027
66.39956,-0.0001001981
66.49956,-0.0001000974
66.59956,-0.0001000277
66.69955,-9.996269E-05
66.79955,-9.987887E-05
66.89955,-9.979695E-05
66.99955,-9.969995E-05
67.09955,-9.963497E-05
67.19955,-9.956057E-05
67.29955,-9.948335E-05
67.39954,-9.938823E-05
67.49954,-9.932513E-05
67.59954,-9.924226E-05
67.69954,-9.920365E-05
67.79954,-9.91076E-05
67.89954,-9.902285E-05
67.99953,-9.896635E-05
68.09953,-9.889383E-05
68.19953,-9.879682E-05
68.29953,-9.877517E-05
68.39953,-9.869417E-05
68.49953,-9.86226E-05
68.59953,-9.855857E-05
68.69952,-9.849547E-05
68.79952,-9.838246E-05
68.89952,-9.832879E-05
68.99952,-9.822613E-05
69.09952,-9.816964E-05
69.19952,-9.809429E-05
69.29951,-9.803403E-05
69.39951,-9.793608E-05
69.49951,-9.787487E-05
69.59951,-9.779388E-05
69.69951,-9.77176E-05
69.79951,-9.767711E-05
69.89951,-9.761025E-05
69.9995,-9.749347E-05
70.0995,-9.742849E-05
70.1995,-9.736256E-05
70.2995,-9.727405E-05
70.3995,-9.725238E-05
70.4995,-9.71488E-05
70.59949,-9.707816E-05
70.69949,-9.701884E-05
70.79949,-9.693502E-05
70.89949,-9.686533E-05
70.99949,-9.68418E-05
71.09949,-9.677398E-05
71.19949,-9.663178E-05
71.29948,-9.658941E-05
71.39948,-9.656022E-05
71.49948,-9.645097E-05
71.59948,-9.635021E-05
71.69948,-9.628146E-05
71.79948,-9.624096E-05
71.89948,-9.617599E-05
71.99947,-9.610537E-05
72.09947,-9.605074E-05
72.19947,-9.600647E-05
72.29947,-9.593397E-05
72.39947,-9.584922E-05
72.49947,-9.581625E-05
72.59946,-9.57136E-05
72.69946,-9.563543E-05
72.79946,-9.555915E-05
72.89946,-9.55149E-05
72.99946,-9.542637E-05
73.09946,-9.539718E-05
73.19946,-9.529453E-05
73.29945,-9.521355E-05
73.39945,-9.518529E-05
73.49945,-9.516456E-05
73.59945,-9.507511E-05
73.69945,-9.498564E-05
73.79945,-9.491219E-05
73.89944,-9.488958E-05
73.99944,-9.483873E-05
74.09944,-9.474079E-05
74.19944,-9.463909E-05
74.29944,-9.459859E-05
74.39944,-9.455338E-05
74.49944,-9.448746E-05
74.59943,-9.440177E-05
74.69943,-9.433208E-05
74.79943,-9.42332E-05
74.89943,-9.414467E-05
74.99943,-9.40778E-05
75.09943,-9.406463E-05
75.19942,-9.404203E-05
75.29942,-9.406745E-05
75.39942,-9.397799E-05
75.49942,-9.385933E-05
75.59942,-9.381036E-05
75.69942,-9.372372E-05
75.79942,-9.366251E-05
75.89941,-9.36465E-05
75.99941,-9.357964E-05
76.09941,-9.350053E-05
76.19941,-9.347605E-05
76.29941,-9.339506E-05
76.39941,-9.329712E-05
76.4994,-9.32811E-05
76.5994,-9.32585E-05
76.6994,-9.316998E-05
76.7994,-9.314832E-05
76.8994,-9.306545E-05
76.9994,-9.295904E-05
77.0994,-9.295149E-05
77.19939,-9.282813E-05
77.29939,-9.272266E-05
77.39939,-9.269534E-05
77.49939,-9.260401E-05
77.59939,-9.256822E-05
77.69939,-9.253808E-05
77.79939,-9.246745E-05
77.89938,-9.244014E-05
77.99938,-9.239776E-05
78.09938,-9.22857E-05
78.19938,-9.216233E-05
78.29938,-9.212372E-05
78.39938,-9.207569E-05
78.49937,-9.203896E-05
78.59937,-9.197304E-05
78.69937,-9.187133E-05
78.79937,-9.184873E-05
78.89937,-9.181671E-05
78.99937,-9.169994E-05
79.09937,-9.162743E-05
79.19936,-9.155398E-05
79.29936,-9.149936E-05
79.39936,-9.145226E-05
79.49936,-9.143719E-05
79.59936,-9.136563E-05
79.69936,-9.130535E-05
79.79935,-9.123096E-05
79.89935,-9.115656E-05
79.99935,-9.110948E-05
80.09935,-9.109535E-05
80.19935,-9.099835E-05
80.29935,-9.093242E-05
80.39935,-9.087592E-05
80.49934,-9.082508E-05
80.59934,-9.075727E-05
80.69934,-9.069699E-05
80.79934,-9.062071E-05
80.89934,-9.057834E-05
80.99934,-9.054915E-05
81.09933,-9.048322E-05
81.19933,-9.037681E-05
81.29933,-9.029394E-05
81.39933,-9.025061E-05
81.49933,-9.021672E-05
81.59933,-9.011877E-05
81.69933,-9.007075E-05
81.79932,-9.002271E-05
81.89932,-8.995114E-05
81.99932,-8.988146E-05
82.09932,-8.982401E-05
82.19932,-8.97741E-05
82.29932,-8.970441E-05
82.39931,-8.964226E-05
82.49931,-8.955845E-05
82.59931,-8.950947E-05
82.69931,-8.946239E-05
82.79931,-8.941907E-05
82.89931,-8.932866E-05
82.99931,-8.926086E-05
83.0993,-8.923637E-05
83.1993,-8.915726E-05
83.2993,-8.91309E-05
83.3993,-8.907345E-05
83.4993,-8.897927E-05
83.5993,-8.892748E-05
83.6993,-8.889358E-05
83.79929,-8.884932E-05
83.89929,-8.878528E-05
83.99929,-8.871936E-05
84.09929,-8.860918E-05
84.19929,-8.861106E-05
84.29929,-8.860353E-05
84.39928,-8.854043E-05
84.49928,-8.842836E-05
84.59928,-8.841518E-05
84.69928,-8.835019E-05
84.79928,-8.825508E-05
84.89928,-8.821365E-05
84.99928,-8.814114E-05
85.09927,-8.814679E-05
85.19927,-8.809404E-05
85.29927,-8.801589E-05
85.39927,-8.79349E-05
85.49927,-8.788404E-05
85.59927,-8.780306E-05
85.69926,-8.774561E-05
85.79926,-8.773242E-05
85.89926,-8.764955E-05
85.99926,-8.76147E-05
86.09926,-8.752807E-05
86.19926,-8.747722E-05
86.29926,-8.745556E-05
86.39925,-8.741036E-05
86.49925,-8.735761E-05
86.59925,-8.729735E-05
86.69925,-8.722012E-05
86.79925,-8.712689E-05
86.89925,-8.710146E-05
86.99924,-8.70864E-05
87.09924,-8.700729E-05
87.19924,-8.695456E-05
87.29924,-8.690558E-05
87.39924,-8.689429E-05
87.49924,-8.677562E-05
87.59924,-8.670688E-05
87.69923,-8.665885E-05
87.79923,-8.660141E-05
87.89923,-8.652984E-05
87.99923,-8.647521E-05
88.09923,-8.637916E-05
88.19923,-8.634243E-05
88.29922,-8.630853E-05
88.39922,-8.627839E-05
88.49922,-8.621153E-05
88.59922,-8.616538E-05
88.69922,-8.611924E-05
88.79922,-8.607875E-05
88.89922,-8.603825E-05
88.99921,-8.593278E-05
89.09921,-8.590829E-05
89.19921,-8.588381E-05
89.29921,-8.583107E-05
89.39921,-8.581694E-05
89.49921,-8.581318E-05
89.59921,-8.57482E-05
89.6992,-8.565874E-05
89.7992,-8.559375E-05
89.8992,-8.556926E-05
89.9992,-8.551182E-05
90.0992,-8.547133E-05
90.1992,-8.543648E-05
90.29919,-8.539034E-05
90.39919,-8.534324E-05
90.49919,-8.521706E-05
90.59919,-8.516997E-05
90.69919,-8.513513E-05
90.79919,-8.508804E-05
90.89919,-8.504472E-05
90.99918,-8.499763E-05
91.09918,-8.494678E-05
91.19918,-8.489593E-05
91.29918,-8.485355E-05
91.39918,-8.481494E-05
91.49918,-8.474432E-05
91.59917,-8.46991E-05
91.69917,-8.461434E-05
91.79917,-8.461058E-05
91.89917,-8.460399E-05
91.99917,-8.455502E-05
92.09917,-8.451076E-05
92.19917,-8.447215E-05
92.29916,-8.442601E-05
92.39916,-8.431865E-05
92.49916,-8.424331E-05
92.59916,-8.418116E-05
92.69916,-8.420093E-05
92.79916,-8.414537E-05
92.89915,-8.407474E-05
92.99915,-8.398433E-05
93.09915,-8.397303E-05
93.19915,-8.391841E-05
93.29915,-8.384213E-05
93.39915,-8.384872E-05
93.49915,-8.380918E-05
93.59914,-8.372348E-05
93.69914,-8.367073E-05
93.79914,-8.358787E-05
93.89914,-8.350217E-05
93.99914,-8.349086E-05
94.09914,-8.344378E-05
94.19913,-8.33967E-05
94.29913,-8.33788E-05
94.39913,-8.329028E-05
94.49913,-8.327898E-05
94.59913,-8.325073E-05
94.69913,-8.318858E-05
94.79913,-8.313866E-05
94.89912,-8.306331E-05
94.99912,-8.302565E-05
95.09912,-8.294937E-05
95.19912,-8.292959E-05
95.29912,-8.288911E-05
95.39912,-8.289098E-05
95.49911,-8.281659E-05
95.59911,-8.278174E-05
95.69911,-8.267062E-05
95.79911,-8.265179E-05
95.89911,-8.26207E-05
95.99911,-8.257457E-05
96.09911,-8.255008E-05
96.1991,-8.253972E-05
96.2991,-8.249922E-05
96.3991,-8.248134E-05
96.4991,-8.236926E-05
96.5991,-8.230993E-05
96.6991,-8.232123E-05
96.7991,-8.224778E-05
96.89909,-8.221294E-05
96.99909,-8.219222E-05
97.09909,-8.212913E-05
97.19909,-8.20858E-05
97.29909,-8.206697E-05
97.39909,-8.198881E-05
97.49908,-8.193795E-05
97.59908,-8.192289E-05
97.69908,-8.185319E-05
97.79908,-8.178822E-05
97.89908,-8.171194E-05
97.99908,-8.167333E-05
98.09908,-8.167615E-05
98.19907,-8.161965E-05
98.29907,-8.158857E-05
98.39907,-8.154619E-05
98.49907,-8.147462E-05
98.59907,-8.14021E-05
98.69907,-8.138799E-05
98.79906,-8.14134E-05
98.89906,-8.14153E-05
98.99906,-8.134184E-05
99.09906,-8.122318E-05
99.19906,-8.116385E-05
99.29906,-8.115725E-05
99.39906,-8.113276E-05
99.49905,-8.114031E-05
99.59905,-8.108474E-05
99.69905,-8.10998E-05
99.79905,-8.108851E-05
99.89905,-8.097927E-05
99.99905,-8.09077E-05
100.099,-8.086814E-05
100.199,-8.082388E-05
100.299,-8.075702E-05
100.399,-8.074573E-05
100.499,-8.067415E-05
100.599,-8.060164E-05
100.699,-8.061576E-05
100.799,-8.053383E-05
100.899,-8.048958E-05
100.999,-8.049145E-05
101.099,-8.045755E-05
101.199,-8.040953E-05
101.299,-8.035396E-05
101.399,-8.029934E-05
101.499,-8.02692E-05
101.599,-8.021741E-05
101.699,-8.015243E-05
101.799,-8.012041E-05
101.899,-8.011476E-05
101.999,-8.006296E-05
102.099,-8.002059E-05
102.199,-7.999516E-05
102.299,-7.993207E-05
102.399,-7.985484E-05
102.499,-7.987273E-05
102.599,-7.980964E-05
102.699,-7.973619E-05
102.799,-7.977479E-05
102.899,-7.969381E-05
102.999,-7.960811E-05
103.099,-7.958456E-05
103.199,-7.955631E-05
103.299,-7.948851E-05
103.399,-7.946779E-05
103.499,-7.941034E-05
103.599,-7.931711E-05
103.699,-7.931335E-05
103.799,-7.925214E-05
103.899,-7.91815E-05
103.999,-7.917963E-05
104.099,-7.911935E-05
104.199,-7.904307E-05
104.299,-7.901293E-05
104.399,-7.900352E-05
104.499,-7.895078E-05
104.599,-7.889239E-05
104.699,-7.883777E-05
104.799,-7.877185E-05
104.899,-7.877091E-05
104.999,-7.872476E-05
105.099,-7.869558E-05
105.199,-7.865225E-05
105.299,-7.859009E-05
105.399,-7.854112E-05
105.499,-7.853171E-05
105.599,-7.84479E-05
105.699,-7.83782E-05
105.799,-7.837538E-05
105.899,-7.834619E-05
105.999,-7.827744E-05
106.099,-7.824071E-05
106.199,-7.817761E-05
106.299,-7.814654E-05
106.3989,-7.814089E-05
106.4989,-7.808721E-05
106.5989,-7.804295E-05
106.6989,-7.798645E-05
106.7989,-7.794972E-05
106.8989,-7.789604E-05
106.9989,-7.78838E-05
107.0989,-7.782165E-05
107.1989,-7.777456E-05
107.2989,-7.772558E-05
107.3989,-7.767567E-05
107.4989,-7.764648E-05
107.5989,-7.764177E-05
107.6989,-7.759185E-05
107.7989,-7.756926E-05
107.8989,-7.753253E-05
107.9989,-7.746756E-05
108.0989,-7.738751E-05
108.1989,-7.737997E-05
108.2989,-7.731688E-05
108.3989,-7.731405E-05
108.4989,-7.72905E-05
108.5989,-7.722929E-05
108.6989,-7.714643E-05
108.7989,-7.71436E-05
108.8989,-7.712382E-05
108.9989,-7.704472E-05
109.0989,-7.70174E-05
109.1989,-7.695337E-05
109.2989,-7.69157E-05
109.3989,-7.687615E-05
109.4989,-7.683471E-05
109.5989,-7.679704E-05
109.6989,-7.680834E-05
109.7989,-7.675277E-05
109.8989,-7.668592E-05
109.9989,-7.665578E-05
110.0989,-7.66153E-05
110.1989,-7.658326E-05
110.2989,-7.657197E-05
110.3989,-7.648909E-05
110.4989,-7.648909E-05
110.5989,-7.651452E-05
110.6989,-7.646837E-05
110.7989,-7.639304E-05
110.8989,-7.630263E-05
110.9989,-7.629227E-05
111.0989,-7.624801E-05
111.1989,-7.622918E-05
111.2989,-7.614254E-05
111.3989,-7.611052E-05
111.4989,-7.611335E-05
111.5989,-7.605967E-05
111.6989,-7.597303E-05
111.7989,-7.595419E-05
111.8989,-7.592405E-05
111.9989,-7.590239E-05
112.0989,-7.582988E-05
112.1989,-7.578562E-05
112.2989,-7.57489E-05
112.3989,-7.573006E-05
112.4989,-7.567261E-05
112.5989,-7.565566E-05
112.6989,-7.564342E-05
112.7989,-7.557467E-05
112.8988,-7.551251E-05
112.9988,-7.550498E-05
113.0988,-7.545696E-05
113.1988,-7.54174E-05
113.2988,-7.538633E-05
113.3988,-7.532888E-05
113.4988,-7.530816E-05
113.5988,-7.528556E-05
113.6988,-7.520929E-05
113.7988,-7.515278E-05
113.8988,-7.517444E-05
113.9988,-7.515089E-05
114.0988,-7.506707E-05
114.1988,-7.505201E-05
114.2988,-7.503788E-05
114.3988,-7.50021E-05
114.4988,-7.496161E-05
114.5988,-7.49004E-05
114.6988,-7.487309E-05
114.7988,-7.487025E-05
114.8988,-7.480998E-05
114.9988,-7.473276E-05
115.0988,-7.479022E-05
115.1988,-7.475725E-05
115.2988,-7.468285E-05
115.3988,-7.462729E-05
115.4988,-7.45802E-05
115.5988,-7.453501E-05
115.6988,-7.452652E-05
115.7988,-7.448603E-05
115.8988,-7.442105E-05
115.9988,-7.442576E-05
116.0988,-7.437397E-05
116.1988,-7.434572E-05
116.2988,-7.431652E-05
116.3988,-7.426755E-05
116.4988,-7.422517E-05
116.5988,-7.423647E-05
116.6988,-7.418185E-05
116.7988,-7.408485E-05
116.8988,-7.410086E-05
116.9988,-7.405755E-05
117.0988,-7.40114E-05
117.1988,-7.39888E-05
117.2988,-7.393323E-05
117.3988,-7.393041E-05
117.4988,-7.391534E-05
117.5988,-7.385036E-05
117.6988,-7.379009E-05
117.7988,-7.375242E-05
117.8988,-7.375525E-05
117.9988,-7.371476E-05
118.0988,-7.372041E-05
118.1988,-7.365166E-05
118.2988,-7.361775E-05
118.3988,-7.359986E-05
118.4988,-7.355466E-05
118.5988,-7.347368E-05
118.6988,-7.346991E-05
118.7988,-7.342376E-05
118.8988,-7.341999E-05
118.9988,-7.334371E-05
119.0988,-7.33343E-05
119.1988,-7.333147E-05
119.2988,-7.327497E-05
119.3988,-7.32081E-05
119.4987,-7.315347E-05
119.5987,-7.317232E-05
119.6987,-7.312241E-05
119.7987,-7.306684E-05
119.8987,-7.30367E-05
119.9987,-7.301881E-05
120.0987,-7.297267E-05
120.1987,-7.293595E-05
120.2987,-7.292558E-05
120.3987,-7.292369E-05
120.4987,-7.288603E-05
120.5987,-7.285213E-05
120.6987,-7.280034E-05
120.7987,-7.276831E-05
120.8987,-7.274101E-05
120.9987,-7.272217E-05
121.0987,-7.265531E-05
121.1987,-7.264871E-05
121.2987,-7.258562E-05
121.3987,-7.25423E-05
121.4987,-7.250086E-05
121.5987,-7.24679E-05
121.6987,-7.245754E-05
121.7987,-7.244907E-05
121.8987,-7.23709E-05
121.9987,-7.232287E-05
122.0987,-7.228614E-05
122.1987,-7.226166E-05
122.2987,-7.221364E-05
122.3987,-7.219668E-05
122.4987,-7.214394E-05
122.5987,-7.212041E-05
122.6987,-7.212323E-05
122.7987,-7.208273E-05
122.8987,-7.201681E-05
122.9987,-7.202529E-05
123.0987,-7.193205E-05
123.1987,-7.193864E-05
123.2987,-7.192453E-05
123.3987,-7.189722E-05
123.4987,-7.184259E-05
123.5987,-7.178891E-05
123.6987,-7.178986E-05
123.7987,-7.177761E-05
123.8987,-7.175878E-05
123.9987,-7.168815E-05
124.0987,-7.165613E-05
124.1987,-7.16486E-05
124.2987,-7.161374E-05
124.3987,-7.157891E-05
124.4987,-7.152617E-05
124.5987,-7.14998E-05
124.6987,-7.144047E-05
124.7987,-7.143953E-05
124.8987,-7.138679E-05
124.9987,-7.135383E-05
125.0987,-7.136137E-05
125.1987,-7.133123E-05
125.2987,-7.127944E-05
125.3987,-7.128509E-05
125.4987,-7.124836E-05
125.5987,-7.115606E-05
125.6987,-7.114195E-05
125.7987,-7.114476E-05
125.8987,-7.115795E-05
125.9986,-7.114854E-05
126.0986,-7.110333E-05
126.1986,-7.106472E-05
126.2986,-7.105908E-05
126.3986,-7.099597E-05
126.4986,-7.093947E-05
126.5986,-7.090368E-05
126.6986,-7.086414E-05
126.7986,-7.079821E-05
126.8986,-7.078879E-05
126.9986,-7.075301E-05
127.0986,-7.069933E-05
127.1986,-7.06692E-05
127.2986,-7.064659E-05
127.3986,-7.059197E-05
127.4986,-7.063529E-05
127.5986,-7.059009E-05
127.6986,-7.051947E-05
127.7986,-7.050345E-05
127.8986,-7.046106E-05
127.9986,-7.042905E-05
128.0986,-7.043E-05
128.1986,-7.039139E-05
128.2986,-7.035655E-05
128.3986,-7.032169E-05
128.4986,-7.030475E-05
128.5986,-7.026708E-05
128.6987,-7.025107E-05
128.7987,-7.019362E-05
128.8987,-7.01503E-05
128.9987,-7.014088E-05
129.0987,-7.012205E-05
129.1987,-7.008532E-05
129.2987,-7.004389E-05
129.3987,-6.999774E-05
129.4987,-6.991675E-05
129.5987,-6.991487E-05
129.6987,-6.983388E-05
129.7987,-6.986872E-05
129.8987,-6.988191E-05
129.9987,-6.986495E-05
130.0987,-6.984612E-05
130.1987,-6.983011E-05
130.2988,-6.976325E-05
130.3988,-6.974347E-05
130.4988,-6.971899E-05
130.5988,-6.965683E-05
130.6988,-6.970203E-05
130.7988,-6.968791E-05
130.8988,-6.968132E-05
130.9988,-6.963517E-05
131.0988,-6.961634E-05
131.1988,-6.953346E-05
131.2988,-6.945342E-05
131.3988,-6.948732E-05
131.4988,-6.944965E-05
131.5988,-6.940916E-05
131.6988,-6.94101E-05
131.7988,-6.93875E-05
131.8988,-6.934041E-05
131.9989,-6.942517E-05
132.0989,-6.940633E-05
132.1989,-6.933946E-05
132.2989,-6.931311E-05
132.3989,-6.928486E-05
132.4989,-6.925943E-05
132.5989,-6.925189E-05
132.6989,-6.91822E-05
132.7989,-6.913512E-05
132.8989,-6.916431E-05
132.9989,-6.908614E-05
133.0989,-6.903906E-05
133.1989,-6.901645E-05
133.2989,-6.898726E-05
133.3989,-6.898068E-05
133.4989,-6.897313E-05
133.599,-6.893829E-05
133.699,-6.888461E-05
133.799,-6.886296E-05
133.899,-6.885353E-05
133.999,-6.884883E-05
134.099,-6.883847E-05
134.199,-6.877066E-05
134.299,-6.877349E-05
134.399,-6.876879E-05
134.499,-6.870004E-05
134.599,-6.865483E-05
134.699,-6.864165E-05
134.799,-6.863882E-05
134.899,-6.858326E-05
134.999,-6.861339E-05
135.099,-6.856255E-05
135.1991,-6.854277E-05
135.2991,-6.847496E-05
135.3991,-6.841092E-05
135.4991,-6.837325E-05
135.5991,-6.839492E-05
135.6991,-6.837608E-05
135.7991,-6.832806E-05
135.8991,-6.829792E-05
135.9991,-6.82593E-05
136.0991,-6.822729E-05
136.1991,-6.821127E-05
136.2991,-6.819715E-05
136.3991,-6.816419E-05
136.4991,-6.813312E-05
136.5991,-6.811804E-05
136.6991,-6.807096E-05
136.7991,-6.805589E-05
136.8992,-6.802952E-05
136.9992,-6.802199E-05
137.0992,-6.796265E-05
137.1992,-6.793158E-05
137.2992,-6.788261E-05
137.3992,-6.792122E-05
137.4992,-6.787884E-05
137.5992,-6.784212E-05
137.6992,-6.777337E-05
137.7992,-6.775925E-05
137.8992,-6.777808E-05
137.9992,-6.770368E-05
138.0992,-6.766319E-05
138.1992,-6.764718E-05
138.2992,-6.760009E-05
138.3992,-6.756148E-05
138.4993,-6.753134E-05
138.5993,-6.746731E-05
138.6993,-6.745601E-05
138.7993,-6.744376E-05
138.8993,-6.740139E-05
138.9993,-6.739291E-05
139.0993,-6.733547E-05
139.1993,-6.730062E-05
139.2993,-6.734488E-05
139.3993,-6.729968E-05
139.4993,-6.724789E-05
139.5993,-6.720927E-05
139.6993,-6.720646E-05
139.7993,-6.723187E-05
139.8993,-6.720456E-05
139.9993,-6.713017E-05
140.0993,-6.710285E-05
140.1994,-6.706708E-05
140.2994,-6.70181E-05
140.3994,-6.699833E-05
140.4994,-6.696537E-05
140.5994,-6.695123E-05
140.6994,-6.697384E-05
140.7994,-6.694371E-05
140.8994,-6.68486E-05
140.9994,-6.677984E-05
141.0994,-6.679021E-05
141.1994,-6.672711E-05
141.2994,-6.671204E-05
141.3994,-6.672522E-05
141.4994,-6.666495E-05
141.5994,-6.663105E-05
141.6994,-6.663199E-05
141.7995,-6.658302E-05
141.8995,-6.655949E-05
141.9995,-6.656984E-05
142.0995,-6.655383E-05
142.1995,-6.653311E-05
142.2995,-6.651804E-05
142.3995,-6.643705E-05
142.4995,-6.640975E-05
142.5995,-6.640598E-05
142.6995,-6.636736E-05
142.7995,-6.632593E-05
142.8995,-6.630992E-05
142.9995,-6.628638E-05
143.0995,-6.625154E-05
143.1995,-6.626284E-05
143.2995,-6.623835E-05
143.3996,-6.617149E-05
143.4996,-6.616489E-05
143.5996,-6.613381E-05
143.6996,-6.611404E-05
143.7996,-6.607919E-05
143.8996,-6.602551E-05
143.9996,-6.600198E-05
144.0996,-6.59756E-05
144.1996,-6.59709E-05
144.2996,-6.590874E-05
144.3996,-6.589085E-05
144.4996,-6.587484E-05
144.5996,-6.58287E-05
144.6996,-6.580986E-05
144.7996,-6.578067E-05
144.8996,-6.573828E-05
144.9996,-6.574299E-05
145.0997,-6.573452E-05
145.1997,-6.566766E-05
145.2997,-6.56573E-05
145.3997,-6.563847E-05
145.4997,-6.560173E-05
145.5997,-6.55556E-05
145.6997,-6.55264E-05
145.7997,-6.553205E-05
145.8997,-6.552735E-05
145.9997,-6.550003E-05
146.0997,-6.541339E-05
146.1997,-6.542093E-05
146.2997,-6.538891E-05
146.3997,-6.533429E-05
146.4997,-6.534465E-05
146.5997,-6.530133E-05
146.6998,-6.527872E-05
146.7998,-6.52646E-05
146.8998,-6.523258E-05
146.9998,-6.519868E-05
147.0998,-6.517042E-05
147.1998,-6.51676E-05
147.2998,-6.512522E-05
147.3998,-6.511674E-05
147.4998,-6.505648E-05
147.5998,-6.503105E-05
147.6998,-6.502352E-05
147.7998,-6.501505E-05
147.8998,-6.49689E-05
147.9998,-6.494535E-05
148.0998,-6.490486E-05
148.1998,-6.484742E-05
148.2999,-6.486342E-05
148.3999,-6.480786E-05
148.4999,-6.478902E-05
148.5999,-6.477301E-05
148.6999,-6.475041E-05
148.7999,-6.469674E-05
148.8999,-6.469579E-05
148.9999,-6.466754E-05
149.0999,-6.464588E-05
149.1999,-6.464683E-05
149.2999,-6.458467E-05
149.3999,-6.457431E-05
149.4999,-6.455359E-05
149.5999,-6.454511E-05
149.6999,-6.448296E-05
149.7999,-6.447919E-05
149.8999,-6.444247E-05
150,-6.442174E-05
150.1,-6.438408E-05
150.2,-6.437938E-05
150.3,-6.431533E-05
150.4,-6.429462E-05
150.5,-6.426825E-05
150.6,-6.424753E-05
150.7,-6.422398E-05
150.8,-6.419574E-05
150.9,-6.416183E-05
151,-6.415147E-05
151.1,-6.41251E-05
151.2,-6.410815E-05
151.3,-6.405071E-05
151.4,-6.402716E-05
151.5,-6.402151E-05
151.6001,-6.402245E-05
151.7001,-6.401586E-05
151.8001,-6.397632E-05
151.9001,-6.393487E-05
152.0001,-6.3933E-05
152.1001,-6.393581E-05
152.2001,-6.38925E-05
152.3001,-6.384541E-05
152.4001,-6.381339E-05
152.5001,-6.382469E-05
152.6001,-6.379079E-05
152.7001,-6.375123E-05
152.8001,-6.372864E-05
152.9001,-6.369756E-05
153.0001,-6.366459E-05
153.1001,-6.364106E-05
153.2001,-6.36241E-05
153.3002,-6.361563E-05
153.4002,-6.360999E-05
153.5002,-6.35855E-05
153.6002,-6.355253E-05
153.7002,-6.352428E-05
153.8002,-6.350074E-05
153.9002,-6.348567E-05
154.0002,-6.347437E-05
154.1002,-6.342634E-05
154.2002,-6.343199E-05
154.3002,-6.338961E-05
154.4002,-6.337642E-05
154.5002,-6.336795E-05
154.6002,-6.332839E-05
154.7002,-6.329543E-05
154.8002,-6.328696E-05
154.9003,-6.326813E-05
155.0003,-6.323423E-05
155.1003,-6.32427E-05
155.2003,-6.322198E-05
155.3003,-6.320786E-05
155.4003,-6.316077E-05
155.5003,-6.311651E-05
155.6003,-6.308072E-05
155.7003,-6.307979E-05
155.8003,-6.304305E-05
155.9003,-6.299032E-05
156.0003,-6.300821E-05
156.1003,-6.302893E-05
156.2003,-6.297808E-05
156.3003,-6.293005E-05
156.4003,-6.290744E-05
156.5004,-6.292251E-05
156.6004,-6.28839E-05
156.7004,-6.285847E-05
156.8004,-6.281327E-05
156.9004,-6.280668E-05
157.0004,-6.283681E-05
157.1004,-6.282363E-05
157.2004,-6.280762E-05
157.3004,-6.282551E-05
157.4004,-6.278784E-05
157.5004,-6.273228E-05
157.6004,-6.27304E-05
157.7004,-6.272946E-05
157.8004,-6.270214E-05
157.9004,-6.270026E-05
158.0004,-6.264941E-05
158.1004,-6.264847E-05
158.2005,-6.262209E-05
158.3005,-6.262586E-05
158.4005,-6.253829E-05
158.5005,-6.256842E-05
158.6005,-6.253734E-05
158.7005,-6.247896E-05
158.8005,-6.246389E-05
158.9005,-6.247236E-05
159.0005,-6.243281E-05
159.1005,-6.242528E-05
159.2005,-6.239043E-05
159.3005,-6.236595E-05
159.4005,-6.235088E-05
159.5005,-6.233016E-05
159.6005,-6.227931E-05
159.7005,-6.229532E-05
159.8006,-6.222657E-05
159.9006,-6.221244E-05
160.0006,-6.224918E-05
160.1006,-6.224446E-05
160.2006,-6.217477E-05
160.3006,-6.211827E-05
160.4006,-6.210039E-05
160.5006,-6.207589E-05
160.6006,-6.208249E-05
160.7006,-6.204953E-05
160.8006,-6.203634E-05
160.9006,-6.200997E-05
161.0006,-6.19384E-05
161.1006,-6.192522E-05
161.2006,-6.188284E-05
161.3006,-6.190356E-05
161.4007,-6.186495E-05
161.5007,-6.183387E-05
161.6007,-6.179903E-05
161.7007,-6.182539E-05
161.8007,-6.18141E-05
161.9007,-6.180938E-05
162.0007,-6.174535E-05
162.1007,-6.169826E-05
162.2007,-6.167001E-05
162.3007,-6.167472E-05
162.4007,-6.164741E-05
162.5007,-6.165494E-05
162.6007,-6.161915E-05
162.7007,-6.156642E-05
162.8007,-6.154382E-05
162.9007,-6.150615E-05
163.0007,-6.14779E-05
163.1008,-6.146848E-05
163.2008,-6.143458E-05
163.3008,-6.141856E-05
163.4008,-6.14374E-05
163.5008,-6.141197E-05
163.6008,-6.136866E-05
163.7008,-6.135547E-05
163.8008,-6.128955E-05
163.9008,-6.126601E-05
164.0008,-6.12952E-05
164.1008,-6.127354E-05
164.2008,-6.129238E-05
164.3008,-6.130933E-05
164.4008,-6.126601E-05
164.5008,-6.120197E-05
164.6008,-6.1153E-05
164.7009,-6.111815E-05
164.8009,-6.112663E-05
164.9009,-6.111909E-05
165.0009,-6.107483E-05
165.1009,-6.103434E-05
165.2009,-6.103999E-05
165.3009,-6.102869E-05
165.4009,-6.098725E-05
165.5009,-6.097031E-05
165.6009,-6.097784E-05
165.7009,-6.093546E-05
165.8009,-6.092793E-05
165.9009,-6.087896E-05
166.0009,-6.084317E-05
166.1009,-6.086954E-05
166.2009,-6.078761E-05
166.3009,-6.073581E-05
166.401,-6.074711E-05
166.501,-6.073958E-05
166.601,-6.069626E-05
166.701,-6.067366E-05
166.801,-6.065859E-05
166.901,-6.060115E-05
167.001,-6.064352E-05
167.101,-6.058608E-05
167.201,-6.055783E-05
167.301,-6.054558E-05
167.401,-6.053805E-05
167.501,-6.049002E-05
167.601,-6.049096E-05
167.701,-6.043916E-05
167.801,-6.039585E-05
167.901,-6.040432E-05
168.0011,-6.039867E-05
168.1011,-6.036571E-05
168.2011,-6.036194E-05
168.3011,-6.035347E-05
168.4011,-6.033275E-05
168.5011,-6.03902E-05
168.6011,-6.03836E-05
168.7011,-6.034499E-05
168.8011,-6.031203E-05
168.9011,-6.02527E-05
169.0011,-6.018678E-05
169.1011,-6.018396E-05
169.2011,-6.01444E-05
169.3011,-6.01284E-05
169.4011,-6.016418E-05
169.5011,-6.012934E-05
169.6012,-6.00992E-05
169.7012,-6.008602E-05
169.8012,-6.00474E-05
169.9012,-6.00088E-05
170.0012,-5.99975E-05
170.1012,-5.99975E-05
170.2012,-5.996547E-05
170.3012,-5.998243E-05
170.4012,-5.995324E-05
170.5012,-5.99052E-05
170.6012,-5.992498E-05
170.7012,-5.986942E-05
170.8012,-5.984682E-05
170.9012,-5.989578E-05
171.0012,-5.987413E-05
171.1012,-5.98487E-05
171.2012,-5.981762E-05
171.3013,-5.980915E-05
171.4013,-5.973098E-05
171.5013,-5.973852E-05
171.6013,-5.974323E-05
171.7013,-5.96952E-05
171.8013,-5.97065E-05
171.9013,-5.966695E-05
172.0013,-5.960385E-05
172.1013,-5.962457E-05
172.2013,-5.959726E-05
172.3013,-5.954452E-05
172.4013,-5.955205E-05
172.5013,-5.953605E-05
172.6013,-5.949743E-05
172.7013,-5.950308E-05
172.8013,-5.946165E-05
172.9014,-5.944187E-05
173.0014,-5.946542E-05
173.1014,-5.942492E-05
173.2014,-5.937784E-05
173.3014,-5.937878E-05
173.4014,-5.935712E-05
173.5014,-5.934016E-05
173.6014,-5.934864E-05
173.7014,-5.92799E-05
173.8014,-5.926577E-05
173.9014,-5.926294E-05
174.0014,-5.920738E-05
174.1014,-5.918478E-05
174.2014,-5.918007E-05
174.3014,-5.915653E-05
174.4014,-5.913298E-05
174.5014,-5.912074E-05
174.6015,-5.91085E-05
174.7015,-5.909249E-05
174.8015,-5.907554E-05
174.9015,-5.906424E-05
175.0015,-5.90341E-05
175.1015,-5.899361E-05
175.2015,-5.899173E-05
175.3015,-5.899737E-05
175.4015,-5.895688E-05
175.5015,-5.89437E-05
175.6015,-5.892863E-05
175.7015,-5.892769E-05
175.8015,-5.891073E-05
175.9015,-5.889567E-05
176.0015,-5.885612E-05
176.1015,-5.887778E-05
176.2016,-5.883916E-05
176.3016,-5.879302E-05
176.4016,-5.880621E-05
176.5016,-5.876571E-05
176.6016,-5.874311E-05
176.7016,-5.874311E-05
176.8016,-5.872333E-05
176.9016,-5.868754E-05
177.0016,-5.867154E-05
177.1016,-5.867625E-05
177.2016,-5.865835E-05
177.3016,-5.866589E-05
177.4016,-5.862068E-05
177.5016,-5.86075E-05
177.6016,-5.861221E-05
177.7016,-5.857266E-05
177.8017,-5.855006E-05
177.9017,-5.855476E-05
178.0017,-5.852651E-05
178.1017,-5.849449E-05
178.2017,-5.847471E-05
178.3017,-5.845588E-05
178.4017,-5.843139E-05
178.5017,-5.843328E-05
178.6017,-5.839467E-05
178.7017,-5.837866E-05
178.8017,-5.838243E-05
178.9017,-5.834947E-05
179.0017,-5.831933E-05
179.1017,-5.832875E-05
179.2017,-5.830144E-05
179.3017,-5.826094E-05
179.4017,-5.824964E-05
179.5018,-5.822421E-05
179.6018,-5.817901E-05
179.7018,-5.819879E-05
179.8018,-5.818467E-05
179.9018,-5.81291E-05
180.0018,-5.815076E-05
180.1018,-5.814229E-05
180.2018,-5.809425E-05
180.3018,-5.8066E-05
180.4018,-5.804341E-05
180.5018,-5.80321E-05
180.6018,-5.804717E-05
180.7018,-5.79982E-05
180.8018,-5.795394E-05
180.9018,-5.797089E-05
181.0018,-5.795864E-05
181.1019,-5.789649E-05
181.2019,-5.790779E-05
181.3019,-5.786636E-05
181.4019,-5.784281E-05
181.5019,-5.784375E-05
181.6019,-5.781174E-05
181.7019,-5.776465E-05
181.8019,-5.777312E-05
181.9019,-5.774205E-05
182.0019,-5.773452E-05
182.1019,-5.773828E-05
182.2019,-5.769967E-05
182.3019,-5.765729E-05
182.4019,-5.768178E-05
182.5019,-5.761868E-05
182.6019,-5.758195E-05
182.702,-5.759891E-05
182.802,-5.75763E-05
182.902,-5.758384E-05
183.002,-5.758478E-05
183.102,-5.75424E-05
183.202,-5.750379E-05
183.302,-5.752545E-05
183.402,-5.74793E-05
183.502,-5.742845E-05
183.602,-5.744634E-05
183.702,-5.741433E-05
183.802,-5.738324E-05
183.902,-5.740397E-05
184.002,-5.737383E-05
184.102,-5.735688E-05
184.202,-5.731545E-05
184.302,-5.727401E-05
184.4021,-5.726082E-05
184.5021,-5.724105E-05
184.6021,-5.724387E-05
184.7021,-5.719396E-05
184.8021,-5.71836E-05
184.9021,-5.717607E-05
185.0021,-5.71723E-05
185.1021,-5.718925E-05
185.2021,-5.717701E-05
185.3021,-5.711579E-05
185.4021,-5.708378E-05
185.5021,-5.707342E-05
185.6021,-5.703104E-05
185.7021,-5.701409E-05
185.8021,-5.701785E-05
185.9021,-5.6967E-05
186.0022,-5.69623E-05
186.1022,-5.694158E-05
186.2022,-5.690956E-05
186.3022,-5.689732E-05
186.4022,-5.691238E-05
186.5022,-5.690956E-05
186.6022,-5.690014E-05
186.7022,-5.686247E-05
186.8022,-5.682763E-05
186.9022,-5.681727E-05
187.0022,-5.680785E-05
187.1022,-5.676265E-05
187.2022,-5.67504E-05
187.3022,-5.67278E-05
187.4022,-5.669579E-05
187.5022,-5.669107E-05
187.6022,-5.669013E-05
187.7023,-5.665152E-05
187.8023,-5.66148E-05
187.9023,-5.661668E-05
188.0023,-5.66195E-05
188.1023,-5.659973E-05
188.2023,-5.655547E-05
188.3023,-5.655547E-05
188.4023,-5.653475E-05
188.5023,-5.653663E-05
188.6023,-5.648766E-05
188.7023,-5.646882E-05
188.8023,-5.646506E-05
188.9023,-5.644717E-05
189.0023,-5.644246E-05
189.1023,-5.638784E-05
189.2023,-5.635865E-05
189.3024,-5.636053E-05
189.4024,-5.638407E-05
189.5024,-5.636712E-05
189.6024,-5.634263E-05
189.7024,-5.634169E-05
189.8024,-5.631156E-05
189.9024,-5.625976E-05
190.0024,-5.622963E-05
190.1024,-5.623716E-05
190.2024,-5.621927E-05
190.3024,-5.619667E-05
190.4024,-5.617218E-05
190.5024,-5.617124E-05
190.6024,-5.616653E-05
190.7024,-5.612227E-05
190.8024,-5.609967E-05
190.9025,-5.610249E-05
191.0025,-5.610437E-05
191.1025,-5.61072E-05
191.2025,-5.609967E-05
191.3025,-5.605729E-05
191.4025,-5.601586E-05
191.5025,-5.601209E-05
191.6025,-5.597442E-05
191.7025,-5.593016E-05
191.8025,-5.59471E-05
191.9025,-5.59198E-05
192.0025,-5.591697E-05
192.1025,-5.590191E-05
192.2025,-5.58859E-05
192.3025,-5.586518E-05
192.4025,-5.588119E-05
192.5025,-5.587459E-05
192.6026,-5.582939E-05
192.7026,-5.581244E-05
192.8026,-5.581338E-05
192.9026,-5.581055E-05
193.0026,-5.581244E-05
193.1026,-5.581527E-05
193.2026,-5.578795E-05
193.3026,-5.580396E-05
193.4026,-5.576817E-05
193.5026,-5.570885E-05
193.6026,-5.570885E-05
193.7026,-5.567024E-05
193.8026,-5.566177E-05
193.9026,-5.565329E-05
194.0026,-5.566177E-05
194.1026,-5.561373E-05
194.2027,-5.560526E-05
194.3027,-5.559114E-05
194.4027,-5.558266E-05
194.5027,-5.559773E-05
194.6027,-5.561091E-05
194.7027,-5.55497E-05
194.8027,-5.559019E-05
194.9027,-5.559114E-05
195.0027,-5.55497E-05
195.1027,-5.555911E-05
195.2027,-5.55092E-05
195.3027,-5.54866E-05
195.4027,-5.548754E-05
195.5027,-5.543763E-05
195.6027,-5.544328E-05
195.7027,-5.548095E-05
195.8027,-5.54235E-05
195.9028,-5.537642E-05
196.0028,-5.539055E-05
196.1028,-5.536418E-05
196.2028,-5.535005E-05
196.3028,-5.531992E-05
196.4028,-5.528695E-05
196.5028,-5.528225E-05
196.6028,-5.52992E-05
196.7028,-5.527471E-05
196.8028,-5.526059E-05
196.9028,-5.524552E-05
197.0028,-5.521726E-05
197.1028,-5.518337E-05
197.2028,-5.520031E-05
197.3028,-5.517489E-05
197.4028,-5.514663E-05
197.5029,-5.516076E-05
197.6029,-5.511556E-05
197.7029,-5.507789E-05
197.8029,-5.509955E-05
197.9029,-5.504305E-05
198.0029,-5.503551E-05
198.1029,-5.504776E-05
198.2029,-5.502515E-05
198.3029,-5.49856E-05
198.4029,-5.497336E-05
198.5029,-5.496488E-05
198.6029,-5.501103E-05
198.7029,-5.499031E-05
198.8029,-5.49517E-05
198.9029,-5.489896E-05
199.0029,-5.491026E-05
199.103,-5.488766E-05
199.203,-5.483775E-05
199.303,-5.481892E-05
199.403,-5.48208E-05
199.503,-5.477936E-05
199.603,-5.479349E-05
199.703,-5.475111E-05
199.803,-5.470779E-05
199.903,-5.470873E-05
200.003,-5.471156E-05
200.103,-5.468142E-05
200.203,-5.4672E-05
200.303,-5.463999E-05
200.403,-5.459572E-05
200.503,-5.463151E-05
200.603,-5.460797E-05
200.703,-5.457218E-05
200.8031,-5.456935E-05
200.9031,-5.452886E-05
201.0031,-5.451756E-05
201.1031,-5.450626E-05
201.2031,-5.44959E-05
201.3031,-5.447707E-05
201.4031,-5.447424E-05
201.5031,-5.44328E-05
201.6031,-5.44215E-05
201.7031,-5.441868E-05
201.8031,-5.43876E-05
201.9031,-5.434051E-05
202.0031,-5.437065E-05
202.1031,-5.435841E-05
202.2031,-5.433015E-05
202.3031,-5.433675E-05
202.4032,-5.433015E-05
202.5032,-5.430096E-05
202.6032,-5.432262E-05
202.7032,-5.428401E-05
202.8032,-5.426141E-05
202.9032,-5.428778E-05
203.0032,-5.423316E-05
203.1032,-5.420208E-05
203.2032,-5.418325E-05
203.3032,-5.415028E-05
203.4032,-5.411826E-05
203.5032,-5.40966E-05
203.6032,-5.408625E-05
203.7032,-5.408436E-05
203.8032,-5.408342E-05
203.9032,-5.407871E-05
204.0033,-5.404293E-05
204.1033,-5.401656E-05
204.2033,-5.402786E-05
204.3033,-5.398737E-05
204.4033,-5.397607E-05
204.5033,-5.3961E-05
204.6033,-5.393275E-05
204.7033,-5.39318E-05
204.8033,-5.391673E-05
204.9033,-5.3864E-05
205.0033,-5.385834E-05
205.1033,-5.387342E-05
205.2033,-5.385364E-05
205.3033,-5.384987E-05
205.4033,-5.385552E-05
205.5033,-5.382256E-05
205.6033,-5.379243E-05
205.7034,-5.379337E-05
205.8034,-5.374251E-05
205.9034,-5.372462E-05
206.0034,-5.373498E-05
206.1034,-5.370202E-05
206.2034,-5.371803E-05
206.3034,-5.368978E-05
206.4034,-5.366247E-05
206.5034,-5.367E-05
206.6034,-5.3654E-05
206.7034,-5.362668E-05
206.8034,-5.359372E-05
206.9034,-5.358713E-05
207.0034,-5.359089E-05
207.1034,-5.356264E-05
207.2034,-5.355982E-05
207.3035,-5.353062E-05
207.4035,-5.350802E-05
207.5035,-5.341385E-05
207.6035,-5.348354E-05
207.7035,-5.35052E-05
207.8035,-5.345152E-05
207.9035,-5.342986E-05
208.0035,-5.346282E-05
208.1035,-5.341668E-05
208.2035,-5.33743E-05
208.3035,-5.336206E-05
208.4035,-5.336865E-05
208.5035,-5.336676E-05
208.6035,-5.335075E-05
208.7035,-5.33225E-05
208.8035,-5.329519E-05
208.9035,-5.329896E-05
209.0036,-5.328295E-05
209.1036,-5.325281E-05
209.2036,-5.324528E-05
209.3036,-5.323586E-05
209.4036,-5.320761E-05
209.5036,-5.31916E-05
209.6036,-5.317277E-05
209.7036,-5.314451E-05
209.8036,-5.314169E-05
209.9036,-5.315676E-05
210.0036,-5.312285E-05
210.1036,-5.308801E-05
210.2036,-5.306541E-05
210.3036,-5.305693E-05
210.4036,-5.3072E-05
210.5036,-5.30494E-05
210.6037,-5.300702E-05
210.7037,-5.298913E-05
210.8037,-5.299196E-05
210.9037,-5.300514E-05
211.0037,-5.298536E-05
211.1037,-5.295523E-05
211.2037,-5.292321E-05
211.3037,-5.292415E-05
211.4037,-5.291756E-05
211.5037,-5.287707E-05
211.6037,-5.287235E-05
211.7037,-5.286576E-05
211.8037,-5.286953E-05
211.9037,-5.288083E-05
212.0037,-5.287989E-05
212.1037,-5.281868E-05
212.2038,-5.28102E-05
212.3038,-5.281397E-05
212.4038,-5.276782E-05
212.5038,-5.282056E-05
212.6038,-5.278383E-05
212.7038,-5.277347E-05
212.8038,-5.272073E-05
212.9038,-5.269908E-05
213.0038,-5.269813E-05
213.1038,-5.268401E-05
213.2038,-5.264257E-05
213.3038,-5.261997E-05
213.4038,-5.256912E-05
213.5038,-5.259078E-05
213.6038,-5.255216E-05
213.7038,-5.254463E-05
213.8038,-5.253993E-05
213.9039,-5.249284E-05
214.0039,-5.247589E-05
214.1039,-5.248719E-05
214.2039,-5.247494E-05
214.3039,-5.244858E-05
214.4039,-5.241467E-05
214.5039,-5.240149E-05
214.6039,-5.242032E-05
214.7039,-5.242032E-05
214.8039,-5.24175E-05
214.9039,-5.238171E-05
215.0039,-5.236947E-05
215.1039,-5.233369E-05
215.2039,-5.234969E-05
215.3039,-5.233557E-05
215.4039,-5.230826E-05
215.504,-5.230543E-05
215.604,-5.230073E-05
215.704,-5.226965E-05
215.804,-5.224328E-05
215.904,-5.224422E-05
216.004,-5.225646E-05
216.104,-5.221691E-05
216.204,-5.216512E-05
216.304,-5.216605E-05
216.404,-5.218207E-05
216.504,-5.2167E-05
216.604,-5.211332E-05
216.704,-5.210202E-05
216.804,-5.209919E-05
216.904,-5.209543E-05
217.004,-5.207188E-05
217.104,-5.210013E-05
217.2041,-5.205399E-05
217.3041,-5.204551E-05
217.4041,-5.204834E-05
217.5041,-5.200973E-05
217.6041,-5.198147E-05
217.7041,-5.197583E-05
217.8041,-5.196264E-05
217.9041,-5.197866E-05
218.0041,-5.196453E-05
218.1041,-5.191273E-05
218.2041,-5.190331E-05
218.3041,-5.188448E-05
218.4041,-5.187318E-05
218.5041,-5.185999E-05
218.6041,-5.183833E-05
218.7041,-5.181103E-05
218.8042,-5.181761E-05
218.9042,-5.179596E-05
219.0042,-5.177147E-05
219.1042,-5.178183E-05
219.2042,-5.174793E-05
219.3042,-5.174134E-05
219.4042,-5.17404E-05
219.5042,-5.17451E-05
219.6042,-5.169896E-05
219.7042,-5.168483E-05
219.8042,-5.167259E-05
219.9042,-5.165846E-05
220.0042,-5.166317E-05
220.1042,-5.164622E-05
220.2042,-5.159819E-05
220.3042,-5.161985E-05
220.4043,-5.160479E-05
220.5043,-5.159537E-05
220.6043,-5.15916E-05
220.7043,-5.156335E-05
220.8043,-5.15351E-05
220.9043,-5.15351E-05
221.0043,-5.152945E-05
221.1043,-5.149837E-05
221.2043,-5.147954E-05
221.3043,-5.145882E-05
221.4043,-5.142115E-05
221.5043,-5.144375E-05
221.6043,-5.143339E-05
221.7043,-5.138913E-05
221.8043,-5.138254E-05
221.9043,-5.136088E-05
222.0043,-5.135334E-05
222.1044,-5.135711E-05
222.2044,-5.131944E-05
222.3044,-5.129307E-05
222.4044,-5.130344E-05
222.5044,-5.131002E-05
222.6044,-5.129684E-05
222.7044,-5.130344E-05
222.8044,-5.12394E-05
222.9044,-5.123375E-05
223.0044,-5.125163E-05
223.1044,-5.123469E-05
223.2044,-5.119984E-05
223.3044,-5.11989E-05
223.4044,-5.115652E-05
223.5044,-5.116406E-05
223.6044,-5.115181E-05
223.7045,-5.112356E-05
223.8045,-5.109813E-05
223.9045,-5.114145E-05
224.0045,-5.111038E-05
224.1045,-5.107553E-05
224.2045,-5.106423E-05
224.3045,-5.103975E-05
224.4045,-5.105764E-05
224.5045,-5.105387E-05
224.6045,-5.100396E-05
224.7045,-5.098324E-05
224.8045,-5.099643E-05
224.9045,-5.098513E-05
225.0045,-5.095405E-05
225.1045,-5.093427E-05
225.2045,-5.091732E-05
225.3046,-5.090884E-05
225.4046,-5.092956E-05
225.5046,-5.086836E-05
225.6046,-5.084763E-05
225.7046,-5.084481E-05
225.8046,-5.08175E-05
225.9046,-5.081938E-05
226.0046,-5.08222E-05
226.1046,-5.078265E-05
226.2046,-5.078736E-05
226.3046,-5.076005E-05
226.4046,-5.076759E-05
226.5046,-5.075346E-05
226.6046,-5.073086E-05
226.7046,-5.069225E-05
226.8046,-5.067059E-05
226.9046,-5.069601E-05
227.0047,-5.067624E-05
227.1047,-5.064987E-05
227.2047,-5.063198E-05
227.3047,-5.059619E-05
227.4047,-5.059901E-05
227.5047,-5.060561E-05
227.6047,-5.058395E-05
227.7047,-5.055663E-05
227.8047,-5.059148E-05
227.9047,-5.056511E-05
228.0047,-5.053404E-05
228.1047,-5.051426E-05
228.2047,-5.052179E-05
228.3047,-5.05039E-05
228.4047,-5.05152E-05
228.5047,-5.048978E-05
228.6048,-5.045116E-05
228.7048,-5.045022E-05
228.8048,-5.043798E-05
228.9048,-5.037959E-05
229.0048,-5.037112E-05
229.1048,-5.036829E-05
229.2048,-5.034663E-05
229.3048,-5.034004E-05
229.4048,-5.029955E-05
229.5048,-5.031932E-05
229.6048,-5.031273E-05
229.7048,-5.027506E-05
229.8048,-5.025057E-05
229.9048,-5.023739E-05
230.0048,-5.024022E-05
230.1048,-5.019407E-05
230.2048,-5.020066E-05
230.3049,-5.018371E-05
230.4049,-5.020349E-05
230.5049,-5.020537E-05
230.6049,-5.017712E-05
230.7049,-5.013945E-05
230.8049,-5.016111E-05
230.9049,-5.014887E-05
231.0049,-5.009614E-05
231.1049,-5.008859E-05
231.2049,-5.010084E-05
231.3049,-5.007165E-05
231.4049,-5.006976E-05
231.5049,-5.004622E-05
231.6049,-5.004905E-05
231.7049,-5.005564E-05
231.8049,-5.002739E-05
231.905,-5.001326E-05
232.005,-4.999913E-05
232.105,-4.998124E-05
232.205,-4.9969E-05
232.305,-4.99464E-05
232.405,-4.993321E-05
232.505,-4.992851E-05
232.605,-4.993227E-05
232.705,-4.992662E-05
232.805,-4.985975E-05
232.905,-4.985787E-05
233.005,-4.986447E-05
233.105,-4.985787E-05
233.205,-4.984752E-05
233.305,-4.980608E-05
233.405,-4.979195E-05
233.5051,-4.979666E-05
233.6051,-4.978348E-05
233.7051,-4.975146E-05
233.8051,-4.974486E-05
233.9051,-4.974298E-05
234.0051,-4.972791E-05
234.1051,-4.972791E-05
234.2051,-4.970248E-05
234.3051,-4.969213E-05
234.4051,-4.969025E-05
234.5051,-4.967706E-05
234.6051,-4.964881E-05
234.7051,-4.964787E-05
234.8051,-4.961302E-05
234.9051,-4.962338E-05
235.0051,-4.962056E-05
235.1051,-4.961397E-05
235.2052,-4.957064E-05
235.3052,-4.957064E-05
235.4052,-4.955652E-05
235.5052,-4.954993E-05
235.6052,-4.952074E-05
235.7052,-4.952074E-05
235.8052,-4.954239E-05
235.9052,-4.949719E-05
236.0052,-4.947741E-05
236.1052,-4.944539E-05
236.2052,-4.943127E-05
236.3052,-4.94614E-05
236.4052,-4.938324E-05
236.5052,-4.938136E-05
236.6052,-4.941714E-05
236.7052,-4.937382E-05
236.8053,-4.93644E-05
236.9053,-4.939831E-05
237.0053,-4.93597E-05
237.1053,-4.933898E-05
237.2053,-4.929377E-05
237.3053,-4.928718E-05
237.4053,-4.931449E-05
237.5053,-4.929943E-05
237.6053,-4.925234E-05
237.7053,-4.921844E-05
237.8053,-4.923256E-05
237.9053,-4.920243E-05
238.0053,-4.920431E-05
238.1053,-4.921467E-05
238.2053,-4.916852E-05
238.3053,-4.916194E-05
238.4053,-4.917135E-05
238.5054,-4.9177E-05
238.6054,-4.916005E-05
238.7054,-4.914404E-05
238.8054,-4.911202E-05
238.9054,-4.908189E-05
239.0054,-4.908471E-05
239.1054,-4.906682E-05
239.2054,-4.907058E-05
239.3054,-4.906305E-05
239.4054,-4.903386E-05
239.5054,-4.901502E-05
239.6054,-4.902162E-05
239.7054,-4.898677E-05
239.8054,-4.899148E-05
239.9054,-4.898489E-05
240.0054,-4.895193E-05
240.1055,-4.894628E-05
240.2055,-4.896511E-05
240.3055,-4.893875E-05
240.4055,-4.892273E-05
240.5055,-4.891803E-05
240.6055,-4.889542E-05
240.7055,-4.889731E-05
240.8055,-4.889354E-05
240.9055,-4.885493E-05
241.0055,-4.887E-05
241.1055,-4.888601E-05
241.2055,-4.885305E-05
241.3055,-4.883139E-05
241.4055,-4.881161E-05
241.5055,-4.878806E-05
241.6055,-4.878242E-05
241.7056,-4.878053E-05
241.8056,-4.87504E-05
241.9056,-4.871838E-05
242.0056,-4.872309E-05
242.1056,-4.872779E-05
242.2056,-4.871084E-05
242.3056,-4.869672E-05
242.4056,-4.866187E-05
242.5056,-4.866753E-05
242.6056,-4.8676E-05
242.7056,-4.864963E-05
242.8056,-4.863927E-05
242.9056,-4.862985E-05
243.0056,-4.860066E-05
243.1056,-4.860443E-05
243.2056,-4.861479E-05
243.3056,-4.859124E-05
243.4057,-4.855075E-05
243.5057,-4.854604E-05
243.6057,-4.854698E-05
243.7057,-4.854416E-05
243.8057,-4.852344E-05
243.9057,-4.848012E-05
244.0057,-4.849895E-05
244.1057,-4.851685E-05
244.2057,-4.849895E-05
244.3057,-4.848295E-05
244.4057,-4.846599E-05
244.5057,-4.844339E-05
244.6057,-4.842833E-05
244.7057,-4.843491E-05
244.8057,-4.84142E-05
244.9057,-4.839442E-05
245.0058,-4.838595E-05
245.1058,-4.836146E-05
245.2058,-4.83737E-05
245.3058,-4.837653E-05
245.4058,-4.834451E-05
245.5058,-4.835204E-05
245.6058,-4.836334E-05
245.7058,-4.832944E-05
245.8058,-4.831155E-05
245.9058,-4.830778E-05
246.0058,-4.83511E-05
246.1058,-4.830119E-05
246.2058,-4.83172E-05
246.3058,-4.832662E-05
246.4058,-4.831438E-05
246.5058,-4.830496E-05
246.6059,-4.8272E-05
246.7059,-4.821455E-05
246.8059,-4.825881E-05
246.9059,-4.823904E-05
247.0059,-4.819948E-05
247.1059,-4.820702E-05
247.2059,-4.819101E-05
247.3059,-4.816935E-05
247.4059,-4.81571E-05
247.5059,-4.814863E-05
247.6059,-4.813262E-05
247.7059,-4.814015E-05
247.8059,-4.812979E-05
247.9059,-4.814015E-05
248.0059,-4.81637E-05
248.1059,-4.817406E-05
248.2059,-4.811473E-05
248.306,-4.808647E-05
248.406,-4.808271E-05
248.506,-4.806482E-05
248.606,-4.803939E-05
248.706,-4.805352E-05
248.806,-4.800737E-05
248.906,-4.800925E-05
249.006,-4.80036E-05
249.106,-4.799418E-05
249.206,-4.799607E-05
249.306,-4.798289E-05
249.406,-4.796876E-05
249.506,-4.795557E-05
249.606,-4.796405E-05
249.706,-4.794333E-05
249.806,-4.795087E-05
249.9061,-4.793297E-05
250.0061,-4.791414E-05
250.1061,-4.791132E-05
250.2061,-4.793203E-05
250.3061,-4.790284E-05
250.4061,-4.790095E-05
250.5061,-4.788212E-05
250.6061,-4.792073E-05
250.7061,-4.794333E-05
250.8061,-4.792167E-05
250.9061,-4.786234E-05
251.0061,-4.786328E-05
251.1061,-4.785669E-05
251.2061,-4.782373E-05
251.3061,-4.779925E-05
251.4061,-4.780961E-05
251.5061,-4.777288E-05
251.6062,-4.778983E-05
251.7062,-4.777288E-05
251.8062,-4.775405E-05
251.9062,-4.777571E-05
252.0062,-4.773803E-05
252.1062,-4.772673E-05
252.2062,-4.772391E-05
252.3062,-4.772202E-05
252.4062,-4.76966E-05
252.5062,-4.76966E-05
252.6062,-4.766458E-05
252.7062,-4.7674E-05
252.8062,-4.769377E-05
252.9062,-4.769849E-05
253.0062,-4.764386E-05
253.1062,-4.764386E-05
253.2063,-4.762126E-05
253.3063,-4.762691E-05
253.4063,-4.760807E-05
253.5063,-4.759678E-05
253.6063,-4.756758E-05
253.7063,-4.757041E-05
253.8063,-4.758642E-05
253.9063,-4.753368E-05
254.0063,-4.751673E-05
254.1063,-4.751484E-05
254.2063,-4.749695E-05
254.3063,-4.749036E-05
254.4063,-4.74913E-05
254.5063,-4.745081E-05
254.6063,-4.744987E-05
254.7063,-4.746211E-05
254.8064,-4.745175E-05
254.9064,-4.743857E-05
255.0064,-4.744139E-05
255.1064,-4.74282E-05
255.2064,-4.741502E-05
255.3064,-4.740466E-05
255.4064,-4.7383E-05
255.5064,-4.740372E-05
255.6064,-4.737076E-05
255.7064,-4.735475E-05
255.8064,-4.733215E-05
255.9064,-4.735852E-05
256.0064,-4.735852E-05
256.1064,-4.731049E-05
256.2064,-4.729542E-05
256.3064,-4.732932E-05
256.4064,-4.7286E-05
256.5064,-4.729448E-05
256.6064,-4.726434E-05
256.7065,-4.723327E-05
256.8065,-4.724174E-05
256.9065,-4.722762E-05
257.0065,-4.720878E-05
257.1065,-4.722291E-05
257.2065,-4.718995E-05
257.3065,-4.717299E-05
257.4065,-4.721067E-05
257.5065,-4.720313E-05
257.6065,-4.715981E-05
257.7065,-4.718242E-05
257.8065,-4.716075E-05
257.9065,-4.713815E-05
258.0065,-4.718336E-05
258.1065,-4.716735E-05
258.2065,-4.714945E-05
258.3065,-4.71956E-05
258.4066,-4.712873E-05
258.5066,-4.712591E-05
258.6066,-4.713156E-05
258.7066,-4.709766E-05
258.8066,-4.706187E-05
258.9066,-4.704869E-05
259.0066,-4.703456E-05
259.1066,-4.700537E-05
259.2066,-4.698559E-05
259.3066,-4.698653E-05
259.4066,-4.699595E-05
259.5066,-4.698089E-05
259.6066,-4.696582E-05
259.7066,-4.696582E-05
259.8066,-4.696488E-05
259.9066,-4.697147E-05
260.0067,-4.696676E-05
260.1067,-4.695546E-05
260.2067,-4.695828E-05
260.3067,-4.693097E-05
260.4067,-4.692721E-05
260.5067,-4.693286E-05
260.6067,-4.692249E-05
260.7067,-4.690554E-05
260.8067,-4.691967E-05
260.9067,-4.693474E-05
261.0067,-4.689707E-05
261.1067,-4.68886E-05
261.2067,-4.686788E-05
261.3067,-4.686222E-05
261.4067,-4.688954E-05
261.5067,-4.684527E-05
261.6068,-4.685281E-05
261.7068,-4.687352E-05
261.8068,-4.685469E-05
261.9068,-4.684339E-05
262.0068,-4.684433E-05
262.1068,-4.682079E-05
262.2068,-4.681891E-05
262.3068,-4.68029E-05
262.4068,-4.679442E-05
262.5068,-4.675958E-05
262.6068,-4.676052E-05
262.7068,-4.674734E-05
262.8068,-4.674545E-05
262.9068,-4.675392E-05
263.0068,-4.671155E-05
263.1068,-4.669742E-05
263.2068,-4.67285E-05
263.3069,-4.668612E-05
263.4069,-4.667859E-05
263.5069,-4.671531E-05
263.6069,-4.670778E-05
263.7069,-4.665881E-05
263.8069,-4.665504E-05
263.9069,-4.665881E-05
264.0069,-4.664375E-05
264.1069,-4.665316E-05
264.2069,-4.662491E-05
264.3069,-4.661172E-05
264.4069,-4.660514E-05
264.5069,-4.657029E-05
264.6069,-4.654581E-05
264.7069,-4.657594E-05
264.8069,-4.657594E-05
264.907,-4.651755E-05
265.007,-4.652415E-05
265.107,-4.652509E-05
265.207,-4.649589E-05
265.307,-4.651567E-05
265.407,-4.64893E-05
265.507,-4.644881E-05
265.607,-4.649118E-05
265.707,-4.647235E-05
265.807,-4.646764E-05
265.907,-4.646105E-05
266.007,-4.644975E-05
266.107,-4.645352E-05
266.207,-4.643562E-05
266.307,-4.642149E-05
266.407,-4.640643E-05
266.507,-4.63923E-05
266.6071,-4.638195E-05
266.7071,-4.635087E-05
266.8071,-4.636688E-05
266.9071,-4.637158E-05
267.0071,-4.634239E-05
267.1071,-4.633862E-05
267.2071,-4.631508E-05
267.3071,-4.633674E-05
267.4071,-4.631414E-05
267.5071,-4.631414E-05
267.6071,-4.626988E-05
267.7071,-4.626517E-05
267.8071,-4.627835E-05
267.9071,-4.628871E-05
268.0071,-4.628118E-05
268.1071,-4.624539E-05
268.2072,-4.622656E-05
268.3072,-4.623032E-05
268.4072,-4.625293E-05
268.5072,-4.620207E-05
268.6072,-4.619548E-05
268.7072,-4.619642E-05
268.8072,-4.616158E-05
268.9072,-4.61823E-05
269.0072,-4.616723E-05
269.1072,-4.612956E-05
269.2072,-4.611449E-05
269.3072,-4.613804E-05
269.4072,-4.609095E-05
269.5072,-4.612956E-05
269.6072,-4.61079E-05
269.7072,-4.607494E-05
269.8073,-4.607964E-05
269.9073,-4.608342E-05
270.0073,-4.606269E-05
270.1073,-4.605234E-05
270.2073,-4.601843E-05
270.3073,-4.600431E-05
270.4073,-4.60222E-05
270.5073,-4.60222E-05
270.6073,-4.599583E-05
270.7073,-4.597982E-05
270.8073,-4.597418E-05
270.9073,-4.597229E-05
271.0073,-4.596947E-05
271.1073,-4.596381E-05
271.2073,-4.592237E-05
271.3073,-4.592991E-05
271.4073,-4.590919E-05
271.5074,-4.588376E-05
271.6074,-4.592237E-05
271.7074,-4.587811E-05
271.8074,-4.585363E-05
271.9074,-4.587153E-05
272.0074,-4.583857E-05
272.1074,-4.582915E-05
272.2074,-4.582915E-05
272.3074,-4.578488E-05
272.4074,-4.579713E-05
272.5074,-4.582255E-05
272.6074,-4.584892E-05
272.7074,-4.579524E-05
272.8074,-4.577264E-05
272.9074,-4.575946E-05
273.0074,-4.574156E-05
273.1075,-4.573874E-05
273.2075,-4.572744E-05
273.3075,-4.568977E-05
273.4075,-4.568506E-05
273.5075,-4.567847E-05
273.6075,-4.562196E-05
273.7075,-4.566246E-05
273.8075,-4.564456E-05
273.9075,-4.559748E-05
274.0075,-4.560313E-05
274.1075,-4.560125E-05
274.2075,-4.56069E-05
274.3075,-4.561631E-05
274.4075,-4.559089E-05
274.5075,-4.556075E-05
274.6075,-4.556829E-05
274.7076,-4.556452E-05
274.8076,-4.553156E-05
274.9076,-4.552403E-05
275.0076,-4.550048E-05
275.1076,-4.54873E-05
275.2076,-4.551932E-05
275.3076,-4.548541E-05
275.4076,-4.544492E-05
275.5076,-4.544963E-05
275.6076,-4.54421E-05
275.7076,-4.544586E-05
275.8076,-4.542985E-05
275.9076,-4.542703E-05
276.0076,-4.538465E-05
276.1076,-4.542043E-05
276.2076,-4.540254E-05
276.3076,-4.537806E-05
276.4077,-4.537523E-05
276.5077,-4.53498E-05
276.6077,-4.532908E-05
276.7077,-4.535169E-05
276.8077,-4.532155E-05
276.9077,-4.531214E-05
277.0077,-4.533097E-05
277.1077,-4.53225E-05
277.2077,-4.529801E-05
277.3077,-4.529613E-05
277.4077,-4.527917E-05
277.5077,-4.52707E-05
277.6077,-4.530742E-05
277.7077,-4.529142E-05
277.8077,-4.527447E-05
277.9077,-4.528671E-05
278.0078,-4.526882E-05
278.1078,-4.525752E-05
278.2078,-4.522926E-05
278.3078,-4.523397E-05
278.4078,-4.519442E-05
278.5078,-4.519913E-05
278.6078,-4.519819E-05
278.7078,-4.516993E-05
278.8078,-4.516711E-05
278.9078,-4.514545E-05
279.0078,-4.511343E-05
279.1078,-4.510966E-05
279.2078,-4.512567E-05
279.3078,-4.507105E-05
279.4078,-4.509271E-05
279.5078,-4.507482E-05
279.6078,-4.509742E-05
279.7079,-4.510778E-05
279.8079,-4.509365E-05
279.9079,-4.507011E-05
280.0079,-4.507858E-05
280.1079,-4.50767E-05
280.2079,-4.505316E-05
280.3079,-4.504186E-05
280.4079,-4.50428E-05
280.5079,-4.500795E-05
280.6079,-4.500513E-05
280.7079,-4.499665E-05
280.8079,-4.495804E-05
280.9079,-4.498159E-05
281.0079,-4.496464E-05
281.1079,-4.495899E-05
281.2079,-4.494581E-05
281.308,-4.493733E-05
281.408,-4.491284E-05
281.508,-4.491002E-05
281.608,-4.491096E-05
281.708,-4.490813E-05
281.808,-4.489024E-05
281.908,-4.48893E-05
282.008,-4.485257E-05
282.108,-4.485163E-05
282.208,-4.485445E-05
282.308,-4.484221E-05
282.408,-4.485257E-05
282.508,-4.48262E-05
282.608,-4.479324E-05
282.708,-4.481208E-05
282.808,-4.480831E-05
282.9081,-4.478948E-05
283.0081,-4.479136E-05
283.1081,-4.477064E-05
283.2081,-4.473768E-05
283.3081,-4.476876E-05
283.4081,-4.475369E-05
283.5081,-4.472638E-05
283.6081,-4.47405E-05
283.7081,-4.473485E-05
283.8081,-4.469907E-05
283.9081,-4.473203E-05
284.0081,-4.471696E-05
284.1081,-4.469531E-05
284.2081,-4.469624E-05
284.3081,-4.465481E-05
284.4081,-4.468306E-05
284.5081,-4.470001E-05
284.6082,-4.468306E-05
284.7082,-4.464256E-05
284.8082,-4.467081E-05
284.9082,-4.466234E-05
285.0082,-4.463974E-05
285.1082,-4.465387E-05
285.2082,-4.463503E-05
285.3082,-4.461431E-05
285.4082,-4.461997E-05
285.5082,-4.45823E-05
285.6082,-4.457853E-05
285.7082,-4.458889E-05
285.8082,-4.457005E-05
285.9082,-4.453709E-05
286.0082,-4.455122E-05
286.1082,-4.455028E-05
286.2083,-4.453332E-05
286.3083,-4.453426E-05
286.4083,-4.450507E-05
286.5083,-4.4474E-05
286.6083,-4.449566E-05
286.7083,-4.450601E-05
286.8083,-4.446175E-05
286.9083,-4.446081E-05
287.0083,-4.446647E-05
287.1083,-4.443821E-05
287.2083,-4.446552E-05
287.3083,-4.444857E-05
287.4083,-4.440807E-05
287.5083,-4.441937E-05
287.6083,-4.441373E-05
287.7083,-4.439112E-05
287.8083,-4.43996E-05
287.9084,-4.440713E-05
288.0084,-4.436664E-05
288.1084,-4.437323E-05
288.2084,-4.435157E-05
288.3084,-4.434592E-05
288.4084,-4.435628E-05
288.5084,-4.433179E-05
288.6084,-4.431013E-05
288.7084,-4.433933E-05
288.8084,-4.436475E-05
288.9084,-4.432143E-05
289.0084,-4.432803E-05
289.1084,-4.431013E-05
289.2084,-4.428377E-05
289.3084,-4.431013E-05
289.4084,-4.429695E-05
289.5085,-4.423573E-05
289.6085,-4.426116E-05
289.7085,-4.427811E-05
289.8085,-4.423197E-05
289.9085,-4.424986E-05
290.0085,-4.419901E-05
290.1085,-4.419242E-05
290.2085,-4.423008E-05
290.3085,-4.418771E-05
290.4085,-4.418112E-05
290.5085,-4.416511E-05
290.6085,-4.418017E-05
290.7085,-4.417547E-05
290.8085,-4.416793E-05
290.9085,-4.413968E-05
291.0085,-4.411143E-05
291.1086,-4.413497E-05
291.2086,-4.414627E-05
291.3086,-4.411237E-05
291.4086,-4.411331E-05
291.5086,-4.409448E-05
291.6086,-4.409542E-05
291.7086,-4.411049E-05
291.8086,-4.408506E-05
291.9086,-4.408412E-05
292.0086,-4.412273E-05
292.1086,-4.410484E-05
292.2086,-4.406246E-05
292.3086,-4.405398E-05
292.4086,-4.405775E-05
292.5086,-4.404645E-05
292.6086,-4.403892E-05
292.7086,-4.401914E-05
292.8087,-4.39843E-05
292.9087,-4.397676E-05
293.0087,-4.3973E-05
293.1087,-4.395228E-05
293.2087,-4.395981E-05
293.3087,-4.394663E-05
293.4087,-4.391084E-05
293.5087,-4.391932E-05
293.6087,-4.389766E-05
293.7087,-4.389766E-05
293.8087,-4.391743E-05
293.9087,-4.386846E-05
294.0087,-4.383927E-05
294.1087,-4.386375E-05
294.2087,-4.38468E-05
294.3087,-4.382985E-05
294.4088,-4.385151E-05
294.5088,-4.383833E-05
294.6088,-4.381196E-05
294.7088,-4.383456E-05
294.8088,-4.381196E-05
294.9088,-4.379501E-05
295.0088,-4.381102E-05
295.1088,-4.379972E-05
295.2088,-4.374792E-05
295.3088,-4.376487E-05
295.4088,-4.375922E-05
295.5088,-4.371778E-05
295.6088,-4.374415E-05
295.7088,-4.373851E-05
295.8088,-4.371402E-05
295.9088,-4.369895E-05
296.0089,-4.367917E-05
296.1089,-4.369519E-05
296.2089,-4.369047E-05
296.3089,-4.368953E-05
296.4089,-4.365751E-05
296.5089,-4.366128E-05
296.6089,-4.368388E-05
296.7089,-4.364527E-05
296.8089,-4.366599E-05
296.9089,-4.364339E-05
297.0089,-4.363021E-05
297.1089,-4.365469E-05
297.2089,-4.364339E-05
297.3089,-4.36076E-05
297.4089,-4.359913E-05
297.5089,-4.360572E-05
297.6089,-4.358124E-05
297.709,-4.354639E-05
297.809,-4.354921E-05
297.909,-4.354356E-05
298.009,-4.354639E-05
298.109,-4.35398E-05
298.209,-4.35106E-05
298.309,-4.351155E-05
298.409,-4.351625E-05
298.509,-4.349365E-05
298.609,-4.350307E-05
298.709,-4.348235E-05
298.809,-4.345693E-05
298.909,-4.348612E-05
299.009,-4.348141E-05
299.109,-4.345787E-05
299.209,-4.347105E-05
299.3091,-4.34654E-05
299.4091,-4.345693E-05
299.5091,-4.342961E-05
299.6091,-4.341172E-05
299.7091,-4.34202E-05
299.8091,-4.343997E-05
299.9091,-4.341267E-05
300.0091,-4.339665E-05
300.1091,-4.339006E-05
300.2091,-4.33797E-05
300.3091,-4.336652E-05
300.4091,-4.334957E-05
300.5091,-4.336557E-05
300.6091,-4.335993E-05
300.7091,-4.334957E-05
300.8091,-4.332508E-05
300.9091,-4.331284E-05
301.0092,-4.332508E-05
301.1092,-4.331284E-05
301.2092,-4.329024E-05
301.3092,-4.328647E-05
301.4092,-4.327893E-05
301.5092,-4.327329E-05
301.6092,-4.326105E-05
301.7092,-4.326293E-05
301.8092,-4.32262E-05
301.9092,-4.32149E-05
302.0092,-4.325822E-05
302.1092,-4.320548E-05
302.2092,-4.320454E-05
302.3092,-4.321867E-05
302.4092,-4.322997E-05
302.5092,-4.321301E-05
302.6093,-4.320642E-05
302.7093,-4.319889E-05
302.8093,-4.315934E-05
302.9093,-4.318853E-05
303.0093,-4.317441E-05
303.1093,-4.314898E-05
303.2093,-4.314238E-05
303.3093,-4.31245E-05
303.4093,-4.309624E-05
303.5093,-4.314144E-05
303.6093,-4.310849E-05
303.7093,-4.308494E-05
303.8093,-4.310566E-05
303.9093,-4.310189E-05
304.0093,-4.309247E-05
304.1093,-4.309812E-05
304.2094,-4.309436E-05
304.3094,-4.306799E-05
304.4094,-4.310189E-05
304.5094,-4.304633E-05
304.6094,-4.301525E-05
304.7094,-4.30209E-05
304.8094,-4.30209E-05
304.9094,-4.299548E-05
305.0094,-4.299736E-05
305.1094,-4.296063E-05
305.2094,-4.293426E-05
305.3094,-4.297853E-05
305.4094,-4.296157E-05
305.5094,-4.292485E-05
305.6094,-4.293426E-05
305.7094,-4.291825E-05
305.8094,-4.290884E-05
305.9095,-4.294839E-05
306.0095,-4.291731E-05
306.1095,-4.289848E-05
306.2095,-4.291072E-05
306.3095,-4.289848E-05
306.4095,-4.286457E-05
306.5095,-4.288153E-05
306.6095,-4.286269E-05
306.7095,-4.285233E-05
306.8095,-4.286269E-05
306.9095,-4.284103E-05
307.0095,-4.283067E-05
307.1095,-4.283632E-05
307.2095,-4.280713E-05
307.3095,-4.2793E-05
307.4095,-4.282691E-05
307.5096,-4.282597E-05
307.6096,-4.280336E-05
307.7096,-4.282879E-05
307.8096,-4.280242E-05
307.9096,-4.278171E-05
308.0096,-4.282785E-05
308.1096,-4.283162E-05
308.2096,-4.278736E-05
308.3096,-4.284292E-05
308.4096,-4.282973E-05
308.5096,-4.27704E-05
308.6096,-4.278736E-05
308.7096,-4.277417E-05
308.8096,-4.273179E-05
308.9096,-4.275345E-05
309.0096,-4.272991E-05
309.1096,-4.268E-05
309.2097,-4.270542E-05
309.3097,-4.270636E-05
309.4097,-4.264609E-05
309.5097,-4.26621E-05
309.6097,-4.26395E-05
309.7097,-4.264986E-05
309.8097,-4.266022E-05
309.9097,-4.263573E-05
310.0097,-4.26122E-05
310.1097,-4.261784E-05
310.2097,-4.263385E-05
310.3097,-4.261596E-05
310.4097,-4.259524E-05
310.5097,-4.261125E-05
310.6097,-4.255569E-05
310.7097,-4.260372E-05
310.8098,-4.259618E-05
310.9098,-4.257735E-05
311.0098,-4.25651E-05
311.1098,-4.255569E-05
311.2098,-4.254909E-05
311.3098,-4.25717E-05
311.4098,-4.253591E-05
311.5098,-4.251331E-05
311.6098,-4.25651E-05
311.7098,-4.259807E-05
311.8098,-4.254344E-05
311.9098,-4.252743E-05
312.0098,-4.255098E-05
312.1098,-4.254533E-05
312.2098,-4.255852E-05
312.3098,-4.254344E-05
312.4099,-4.252273E-05
312.5099,-4.254533E-05
312.6099,-4.248695E-05
312.7099,-4.246528E-05
312.8099,-4.246811E-05
312.9099,-4.246058E-05
313.0099,-4.243703E-05
313.1099,-4.24342E-05
313.2099,-4.242196E-05
313.3099,-4.243609E-05
313.4099,-4.242479E-05
313.5099,-4.241914E-05
313.6099,-4.239465E-05
313.7099,-4.241349E-05
313.8099,-4.241066E-05
313.9099,-4.240501E-05
314.0099,-4.241443E-05
314.11,-4.239089E-05
314.21,-4.239277E-05
314.31,-4.238335E-05
314.41,-4.23438E-05
314.51,-4.232779E-05
314.61,-4.234568E-05
314.71,-4.235321E-05
314.81,-4.234568E-05
314.91,-4.23099E-05
315.01,-4.23033E-05
315.11,-4.232214E-05
315.21,-4.228635E-05
315.31,-4.228541E-05
315.41,-4.227223E-05
315.51,-4.227128E-05
315.61,-4.226375E-05
315.7101,-4.222231E-05
315.8101,-4.22242E-05
315.9101,-4.224303E-05
316.0101,-4.221855E-05
316.1101,-4.220348E-05
316.2101,-4.22129E-05
316.3101,-4.218559E-05
316.4101,-4.21903E-05
316.5101,-4.219595E-05
316.6101,-4.219595E-05
316.7101,-4.215451E-05
316.8101,-4.21724E-05
316.9101,-4.216299E-05
317.0101,-4.216393E-05
317.1101,-4.21385E-05
317.2101,-4.213473E-05
317.3102,-4.213473E-05
317.4102,-4.213191E-05
317.5102,-4.211496E-05
317.6102,-4.211119E-05
317.7102,-4.210837E-05
317.8102,-4.20867E-05
317.9102,-4.209141E-05
318.0102,-4.209989E-05
318.1102,-4.208388E-05
318.2102,-4.206693E-05
318.3102,-4.20641E-05
318.4102,-4.20302E-05
318.5102,-4.203774E-05
318.6102,-4.204809E-05
318.7102,-4.201137E-05
318.8102,-4.200571E-05
318.9102,-4.202549E-05
319.0103,-4.199065E-05
319.1103,-4.201608E-05
319.2103,-4.199065E-05
319.3103,-4.194921E-05
319.4103,-4.195863E-05
319.5103,-4.195392E-05
319.6103,-4.193697E-05
319.7103,-4.196616E-05
319.8103,-4.191625E-05
319.9103,-4.192567E-05
320.0103,-4.195392E-05
320.1103,-4.195392E-05
320.2103,-4.189554E-05
320.3103,-4.19219E-05
320.4103,-4.190401E-05
320.5103,-4.187482E-05
320.6104,-4.191531E-05
320.7104,-4.189177E-05
320.8104,-4.186917E-05
320.9104,-4.187858E-05
321.0104,-4.18654E-05
321.1104,-4.183056E-05
321.2104,-4.182961E-05
321.3104,-4.182679E-05
321.4104,-4.181455E-05
321.5104,-4.182585E-05
321.6104,-4.177311E-05
321.7104,-4.180984E-05
321.8104,-4.183244E-05
321.9104,-4.178818E-05
322.0104,-4.17684E-05
322.1104,-4.177217E-05
322.2104,-4.175899E-05
322.3105,-4.175239E-05
322.4105,-4.174392E-05
322.5105,-4.174862E-05
322.6105,-4.172414E-05
322.7105,-4.172037E-05
322.8105,-4.170342E-05
322.9105,-4.174486E-05
323.0105,-4.174392E-05
323.1105,-4.171943E-05
323.2105,-4.170154E-05
323.3105,-4.171943E-05
323.4105,-4.16893E-05
323.5105,-4.165539E-05
323.6105,-4.167517E-05
323.7105,-4.167893E-05
323.8105,-4.16601E-05
323.9106,-4.163844E-05
324.0106,-4.162244E-05
324.1106,-4.160266E-05
324.2106,-4.161019E-05
324.3106,-4.161679E-05
324.4106,-4.156028E-05
324.5106,-4.15584E-05
324.6106,-4.157629E-05
324.7106,-4.157158E-05
324.8106,-4.15518E-05
324.9106,-4.155745E-05
325.0106,-4.150848E-05
325.1106,-4.150943E-05
325.2106,-4.153109E-05
325.3106,-4.150848E-05
325.4106,-4.148965E-05
325.5107,-4.149624E-05
325.6107,-4.147552E-05
325.7107,-4.149906E-05
325.8107,-4.147835E-05
325.9107,-4.147458E-05
326.0107,-4.147741E-05
326.1107,-4.147835E-05
326.2107,-4.145951E-05
326.3107,-4.145763E-05
326.4107,-4.146045E-05
326.5107,-4.14435E-05
326.6107,-4.144444E-05
326.7107,-4.141431E-05
326.8107,-4.139453E-05
326.9107,-4.141431E-05
327.0107,-4.140866E-05
327.1107,-4.138041E-05
327.2108,-4.13757E-05
327.3108,-4.138888E-05
327.4108,-4.138512E-05
327.5108,-4.137005E-05
327.6108,-4.13578E-05
327.7108,-4.136157E-05
327.8108,-4.134839E-05
327.9108,-4.131731E-05
328.0108,-4.133238E-05
328.1108,-4.132861E-05
328.2108,-4.132956E-05
328.3108,-4.131731E-05
328.4108,-4.12787E-05
328.5108,-4.128718E-05
328.6108,-4.127117E-05
328.7108,-4.127682E-05
328.8109,-4.127305E-05
328.9109,-4.126834E-05
329.0109,-4.124103E-05
329.1109,-4.125045E-05
329.2109,-4.127305E-05
329.3109,-4.123632E-05
329.4109,-4.123161E-05
329.5109,-4.120807E-05
329.6109,-4.117605E-05
329.7109,-4.119959E-05
329.8109,-4.117605E-05
329.9109,-4.11704E-05
330.0109,-4.118829E-05
330.1109,-4.114686E-05
330.2109,-4.115062E-05
330.3109,-4.114215E-05
330.4109,-4.114592E-05
330.511,-4.112897E-05
330.611,-4.113085E-05
330.711,-4.11073E-05
330.811,-4.111013E-05
330.911,-4.109789E-05
331.011,-4.107811E-05
331.111,-4.109318E-05
331.211,-4.108941E-05
331.311,-4.108941E-05
331.411,-4.105834E-05
331.511,-4.10508E-05
331.611,-4.105739E-05
331.711,-4.105928E-05
331.811,-4.106964E-05
331.911,-4.099995E-05
332.011,-4.101972E-05
332.1111,-4.104327E-05
332.2111,-4.102066E-05
332.3111,-4.101972E-05
332.4111,-4.104703E-05
332.5111,-4.105268E-05
332.6111,-4.10169E-05
332.7111,-4.100371E-05
332.8111,-4.099053E-05
332.9111,-4.102632E-05
333.0111,-4.103479E-05
333.1111,-4.103479E-05
333.2111,-4.100842E-05
333.3111,-4.102066E-05
333.4111,-4.101125E-05
333.5111,-4.098582E-05
333.6111,-4.098771E-05
333.7112,-4.097735E-05
333.8112,-4.09764E-05
333.9112,-4.09943E-05
334.0112,-4.09604E-05
334.1112,-4.093402E-05
334.2112,-4.095192E-05
334.3112,-4.093967E-05
334.4112,-4.087941E-05
334.5112,-4.089918E-05
334.6112,-4.090389E-05
334.7112,-4.088317E-05
334.8112,-4.087282E-05
334.9112,-4.089259E-05
335.0112,-4.08568E-05
335.1112,-4.087187E-05
335.2112,-4.084927E-05
335.3112,-4.083044E-05
335.4113,-4.084079E-05
335.5113,-4.084174E-05
335.6113,-4.080407E-05
335.7113,-4.082196E-05
335.8113,-4.080972E-05
335.9113,-4.080407E-05
336.0113,-4.082573E-05
336.1113,-4.080878E-05
336.2113,-4.075792E-05
336.3113,-4.080313E-05
336.4113,-4.080783E-05
336.5113,-4.0789E-05
336.6113,-4.080878E-05
336.7113,-4.08116E-05
336.8113,-4.079465E-05
336.9113,-4.081066E-05
337.0114,-4.08003E-05
337.1114,-4.078241E-05
337.2114,-4.078241E-05
337.3114,-4.077394E-05
337.4114,-4.074851E-05
337.5114,-4.075887E-05
337.6114,-4.076828E-05
337.7114,-4.075321E-05
337.8114,-4.073061E-05
337.9114,-4.07212E-05
338.0114,-4.073721E-05
338.1114,-4.073532E-05
338.2114,-4.073438E-05
338.3114,-4.070047E-05
338.4114,-4.071272E-05
338.5114,-4.070707E-05
338.6115,-4.067976E-05
338.7115,-4.065151E-05
338.8115,-4.07033E-05
338.9115,-4.0692E-05
339.0115,-4.068259E-05
339.1115,-4.066281E-05
339.2115,-4.065527E-05
339.3115,-4.067694E-05
339.4115,-4.066657E-05
339.5115,-4.064586E-05
339.6115,-4.063738E-05
339.7115,-4.063456E-05
339.8115,-4.063456E-05
339.9115,-4.06581E-05
340.0115,-4.063079E-05
340.1115,-4.059783E-05
340.2115,-4.060725E-05
340.3116,-4.060442E-05
340.4116,-4.062043E-05
340.5116,-4.062702E-05
340.6116,-4.061384E-05
340.7116,-4.05837E-05
340.8116,-4.059218E-05
340.9116,-4.06129E-05
341.0116,-4.056769E-05
341.1116,-4.058182E-05
341.2116,-4.057994E-05
341.3116,-4.05385E-05
341.4116,-4.056487E-05
341.5116,-4.056675E-05
341.6116,-4.053473E-05
341.7116,-4.055545E-05
341.8116,-4.053473E-05
341.9117,-4.051966E-05
342.0117,-4.056958E-05
342.1117,-4.056675E-05
342.2117,-4.051025E-05
342.3117,-4.053002E-05
342.4117,-4.053567E-05
342.5117,-4.049424E-05
342.6117,-4.051778E-05
342.7117,-4.050271E-05
342.8117,-4.052155E-05
342.9117,-4.050837E-05
343.0117,-4.047917E-05
343.1117,-4.045092E-05
343.2117,-4.046787E-05
343.3117,-4.050742E-05
343.4117,-4.047258E-05
343.5117,-4.048294E-05
343.6118,-4.046128E-05
343.7118,-4.043774E-05
343.8118,-4.046222E-05
343.9118,-4.044244E-05
344.0118,-4.041702E-05
344.1118,-4.039818E-05
344.2118,-4.038311E-05
344.3118,-4.040006E-05
344.4118,-4.042172E-05
344.5118,-4.039536E-05
344.6118,-4.03737E-05
344.7118,-4.035392E-05
344.8118,-4.035392E-05
344.9118,-4.035392E-05
345.0118,-4.037935E-05
345.1118,-4.035486E-05
345.2119,-4.033885E-05
345.3119,-4.035015E-05
345.4119,-4.03219E-05
345.5119,-4.029742E-05
345.6119,-4.033791E-05
345.7119,-4.030024E-05
345.8119,-4.03106E-05
345.9119,-4.033038E-05
346.0119,-4.031719E-05
346.1119,-4.030024E-05
346.2119,-4.02814E-05
346.3119,-4.027576E-05
346.4119,-4.028988E-05
346.5119,-4.030118E-05
346.6119,-4.026917E-05
346.7119,-4.02362E-05
346.812,-4.026351E-05
346.912,-4.027764E-05
347.012,-4.025598E-05
347.112,-4.024468E-05
347.212,-4.022679E-05
347.312,-4.023809E-05
347.412,-4.023526E-05
347.512,-4.019006E-05
347.612,-4.019665E-05
347.712,-4.020136E-05
347.812,-4.019853E-05
347.912,-4.019477E-05
348.012,-4.016463E-05
348.112,-4.013356E-05
348.212,-4.015992E-05
348.312,-4.017405E-05
348.412,-4.01505E-05
348.5121,-4.013544E-05
348.6121,-4.01458E-05
348.7121,-4.013356E-05
348.8121,-4.010813E-05
348.9121,-4.012791E-05
349.0121,-4.010059E-05
349.1121,-4.010436E-05
349.2121,-4.013167E-05
349.3121,-4.010813E-05
349.4121,-4.007234E-05
349.5121,-4.008929E-05
349.6121,-4.007799E-05
349.7121,-4.005822E-05
349.8121,-4.007329E-05
349.9121,-4.002337E-05
350.0121,-4.007893E-05
350.1122,-4.011472E-05
350.2122,-4.008553E-05
350.3122,-4.002714E-05
350.4122,-4.006857E-05
350.5122,-4.005257E-05
350.6122,-4.001867E-05
350.7122,-4.00196E-05
350.8122,-4.000736E-05
350.9122,-4.001395E-05
351.0122,-4.003185E-05
351.1122,-4.002808E-05
351.2122,-3.998288E-05
351.3122,-4.000642E-05
351.4122,-3.998476E-05
351.5122,-3.996499E-05
351.6122,-3.997911E-05
351.7122,-3.999794E-05
351.8123,-3.998476E-05
351.9123,-4.000265E-05
352.0123,-3.998947E-05
352.1123,-3.998006E-05
352.2123,-3.998665E-05
352.3123,-3.998947E-05
352.4123,-3.996969E-05
352.5123,-3.997723E-05
352.6123,-3.999606E-05
352.7123,-3.99857E-05
352.8123,-3.997911E-05
352.9123,-3.996122E-05
353.0123,-3.996593E-05
353.1123,-3.996216E-05
353.2123,-3.993485E-05
353.3123,-3.99066E-05
353.4124,-3.990283E-05
353.5124,-3.988682E-05
353.6124,-3.988682E-05
353.7124,-3.993391E-05
353.8124,-3.988211E-05
353.9124,-3.985951E-05
354.0124,-3.990377E-05
354.1124,-3.987364E-05
354.2124,-3.983785E-05
354.3124,-3.982561E-05
354.4124,-3.983974E-05
354.5124,-3.984162E-05
354.6124,-3.985668E-05
354.7124,-3.981525E-05
354.8124,-3.982749E-05
354.9124,-3.982749E-05
355.0125,-3.981148E-05
355.1125,-3.982749E-05
355.2125,-3.986987E-05
355.3125,-3.985198E-05
355.4125,-3.98661E-05
355.5125,-3.986516E-05
355.6125,-3.984068E-05
355.7125,-3.985292E-05
355.8125,-3.985198E-05
355.9125,-3.984162E-05
356.0125,-3.982184E-05
356.1125,-3.983126E-05
356.2125,-3.98096E-05
356.3125,-3.981148E-05
356.4125,-3.980395E-05
356.5125,-3.979265E-05
356.6125,-3.980583E-05
356.7126,-3.980583E-05
356.8126,-3.981148E-05
356.9126,-3.977381E-05
357.0126,-3.980772E-05
357.1126,-3.981148E-05
357.2126,-3.981713E-05
357.3126,-3.979641E-05
357.4126,-3.978605E-05
357.5126,-3.979453E-05
357.6126,-3.982843E-05
357.7126,-3.98096E-05
357.8126,-3.978794E-05
357.9126,-3.980489E-05
358.0126,-3.980678E-05
358.1126,-3.979076E-05
358.2126,-3.98096E-05
358.3127,-3.977947E-05
358.4127,-3.975404E-05
358.5127,-3.976722E-05
358.6127,-3.977099E-05
358.7127,-3.976063E-05
358.8127,-3.978135E-05
358.9127,-3.97644E-05
359.0127,-3.973049E-05
359.1127,-3.976345E-05
359.2127,-3.977005E-05
359.3127,-3.974744E-05
359.4127,-3.975875E-05
359.5127,-3.974933E-05
359.6127,-3.971354E-05
359.7127,-3.974744E-05
359.8127,-3.97578E-05
359.9128,-3.972861E-05
360.0128,-3.972672E-05
360.1128,-3.972955E-05
360.2128,-3.970978E-05
360.3128,-3.973426E-05
360.4128,-3.97126E-05
360.5128,-3.969565E-05
360.6128,-3.969941E-05
360.7128,-3.970036E-05
360.8128,-3.970601E-05
360.9128,-3.969659E-05
361.0128,-3.967399E-05
361.1128,-3.973049E-05
361.2128,-3.973897E-05
361.3128,-3.975498E-05
361.4128,-3.972672E-05
361.5128,-3.97352E-05
361.6129,-3.970695E-05
361.7129,-3.970506E-05
361.8129,-3.968623E-05
361.9129,-3.967776E-05
362.0129,-3.96608E-05
362.1129,-3.967776E-05
362.2129,-3.965327E-05
362.3129,-3.963821E-05
362.4129,-3.964197E-05
362.5129,-3.961466E-05
362.6129,-3.964291E-05
362.7129,-3.96269E-05
362.8129,-3.959771E-05
362.9129,-3.960054E-05
363.0129,-3.964197E-05
363.1129,-3.960807E-05
363.213,-3.960807E-05
363.313,-3.957887E-05
363.413,-3.957605E-05
363.513,-3.959489E-05
363.613,-3.961843E-05
363.713,-3.958264E-05
363.813,-3.956192E-05
363.913,-3.958735E-05
364.013,-3.958076E-05
364.113,-3.952991E-05
364.213,-3.954591E-05
364.313,-3.956852E-05
364.413,-3.954309E-05
364.513,-3.953838E-05
364.613,-3.949789E-05
364.713,-3.95073E-05
364.813,-3.953085E-05
364.9131,-3.950165E-05
365.0131,-3.949224E-05
365.1131,-3.949035E-05
365.2131,-3.949317E-05
365.3131,-3.950636E-05
365.4131,-3.951107E-05
365.5131,-3.946398E-05
365.6131,-3.944232E-05
365.7131,-3.946493E-05
365.8131,-3.946022E-05
365.9131,-3.946869E-05
366.0131,-3.947057E-05
366.1131,-3.942066E-05
366.2131,-3.942632E-05
366.3131,-3.944515E-05
366.4131,-3.940183E-05
366.5132,-3.940842E-05
366.6132,-3.939712E-05
366.7132,-3.937546E-05
366.8132,-3.941313E-05
366.9132,-3.941878E-05
367.0132,-3.937452E-05
367.1132,-3.936981E-05
367.2132,-3.937075E-05
367.3132,-3.936228E-05
367.4132,-3.936604E-05
367.5132,-3.934627E-05
367.6132,-3.93538E-05
367.7132,-3.934345E-05
367.8132,-3.934815E-05
367.9132,-3.93312E-05
368.0132,-3.931048E-05
368.1133,-3.93312E-05
368.2133,-3.932932E-05
368.3133,-3.932837E-05
368.4133,-3.929824E-05
368.5133,-3.932743E-05
368.6133,-3.932084E-05
368.7133,-3.929636E-05
368.8133,-3.926998E-05
368.9133,-3.929636E-05
369.0133,-3.927281E-05
369.1133,-3.926998E-05
369.2133,-3.929824E-05
369.3133,-3.927376E-05
369.4133,-3.925021E-05
369.5133,-3.927658E-05
369.6133,-3.926151E-05
369.7133,-3.922572E-05
369.8134,-3.922667E-05
369.9134,-3.921913E-05
370.0134,-3.919276E-05
370.1134,-3.921537E-05
370.2134,-3.919747E-05
370.3134,-3.915698E-05
370.4134,-3.916546E-05
370.5134,-3.919182E-05
370.6134,-3.917581E-05
370.7134,-3.918146E-05
370.8134,-3.910518E-05
370.9134,-3.916075E-05
371.0134,-3.918335E-05
371.1134,-3.916263E-05
371.2134,-3.910424E-05
371.3134,-3.912778E-05
371.4135,-3.913532E-05
371.5135,-3.912025E-05
371.6135,-3.910236E-05
371.7135,-3.907317E-05
371.8135,-3.90468E-05
371.9135,-3.907787E-05
372.0135,-3.907976E-05
372.1135,-3.907882E-05
372.2135,-3.906092E-05
372.3135,-3.904021E-05
372.4135,-3.906752E-05
372.5135,-3.904868E-05
372.6135,-3.904962E-05
372.7135,-3.903549E-05
372.8135,-3.902608E-05
372.9135,-3.902326E-05
373.0135,-3.901855E-05
373.1136,-3.902702E-05
373.2136,-3.900253E-05
373.3136,-3.8995E-05
373.4136,-3.899312E-05
373.5136,-3.897146E-05
373.6136,-3.898841E-05
373.7136,-3.899123E-05
373.8136,-3.894697E-05
373.9136,-3.896016E-05
374.0136,-3.896675E-05
374.1136,-3.894415E-05
374.2136,-3.897334E-05
374.3136,-3.893096E-05
374.4136,-3.892908E-05
374.5136,-3.895922E-05
374.6136,-3.894792E-05
374.7137,-3.893756E-05
374.8137,-3.895357E-05
374.9137,-3.894792E-05
375.0137,-3.894603E-05
375.1137,-3.891778E-05
375.2137,-3.891401E-05
375.3137,-3.892343E-05
375.4137,-3.891401E-05
375.5137,-3.889989E-05
375.6137,-3.888576E-05
375.7137,-3.890554E-05
375.8137,-3.889424E-05
375.9137,-3.890459E-05
376.0137,-3.891025E-05
376.1137,-3.888011E-05
376.2137,-3.887728E-05
376.3138,-3.888482E-05
376.4138,-3.886316E-05
376.5138,-3.884244E-05
376.6138,-3.885468E-05
376.7138,-3.884903E-05
376.8138,-3.88528E-05
376.9138,-3.881702E-05
377.0138,-3.879159E-05
377.1138,-3.878594E-05
377.2138,-3.881137E-05
377.3138,-3.878594E-05
377.4138,-3.875863E-05
377.5138,-3.879064E-05
377.6138,-3.879818E-05
377.7138,-3.877087E-05
377.8138,-3.878594E-05
377.9138,-3.876993E-05
378.0139,-3.87558E-05
378.1139,-3.879064E-05
378.2139,-3.874827E-05
378.3139,-3.872567E-05
378.4139,-3.874921E-05
378.5139,-3.873979E-05
378.6139,-3.875204E-05
378.7139,-3.873603E-05
378.8139,-3.87106E-05
378.9139,-3.870495E-05
379.0139,-3.872943E-05
379.1139,-3.869647E-05
379.2139,-3.86541E-05
379.3139,-3.869836E-05
379.4139,-3.86993E-05
379.5139,-3.870495E-05
379.614,-3.86993E-05
379.714,-3.870212E-05
379.814,-3.868046E-05
379.914,-3.869365E-05
380.014,-3.86588E-05
380.114,-3.86475E-05
380.214,-3.867858E-05
380.314,-3.86701E-05
380.414,-3.864279E-05
380.514,-3.862396E-05
380.614,-3.863809E-05
380.714,-3.863055E-05
380.814,-3.864468E-05
380.914,-3.860889E-05
381.014,-3.857311E-05
381.114,-3.860513E-05
381.2141,-3.862679E-05
381.3141,-3.858629E-05
381.4141,-3.859759E-05
381.5141,-3.85797E-05
381.6141,-3.855145E-05
381.7141,-3.859194E-05
381.8141,-3.86136E-05
381.9141,-3.856557E-05
382.0141,-3.856745E-05
382.1141,-3.855615E-05
382.2141,-3.853544E-05
382.3141,-3.85618E-05
382.4141,-3.854956E-05
382.5141,-3.852225E-05
382.6141,-3.855145E-05
382.7141,-3.854392E-05
382.8141,-3.853167E-05
382.9142,-3.854485E-05
383.0142,-3.852885E-05
383.1142,-3.854768E-05
383.2142,-3.854485E-05
383.3142,-3.852602E-05
383.4142,-3.849306E-05
383.5142,-3.852696E-05
383.6142,-3.850342E-05
383.7142,-3.846386E-05
383.8142,-3.848929E-05
383.9142,-3.849118E-05
384.0142,-3.84601E-05
384.1142,-3.851754E-05
384.2142,-3.847893E-05
384.3142,-3.844974E-05
384.4142,-3.849588E-05
384.5143,-3.847705E-05
384.6143,-3.843185E-05
384.7143,-3.845539E-05
384.8143,-3.845445E-05
384.9143,-3.844974E-05
385.0143,-3.84488E-05
385.1143,-3.84196E-05
385.2143,-3.839606E-05
385.3143,-3.843938E-05
385.4143,-3.841301E-05
385.5143,-3.837722E-05
385.6143,-3.837817E-05
385.7143,-3.842243E-05
385.8143,-3.840265E-05
385.9143,-3.840077E-05
386.0143,-3.838947E-05
386.1143,-3.837534E-05
386.2144,-3.83857E-05
386.3144,-3.83744E-05
386.4144,-3.835462E-05
386.5144,-3.83405E-05
386.6144,-3.834144E-05
386.7144,-3.833673E-05
386.8144,-3.835274E-05
386.9144,-3.832449E-05
387.0144,-3.830095E-05
387.1144,-3.83179E-05
387.2144,-3.830471E-05
387.3144,-3.830189E-05
387.4144,-3.829718E-05
387.5144,-3.826328E-05
387.6144,-3.829624E-05
387.7144,-3.82953E-05
387.8145,-3.826328E-05
387.9145,-3.82774E-05
388.0145,-3.827458E-05
388.1145,-3.826045E-05
388.2145,-3.826892E-05
388.3145,-3.825763E-05
388.4145,-3.826045E-05
388.5145,-3.827646E-05
388.6145,-3.829341E-05
388.7145,-3.829435E-05
388.8145,-3.825292E-05
388.9145,-3.83E-05
389.0145,-3.828965E-05
389.1145,-3.824633E-05
389.2145,-3.823973E-05
389.3145,-3.823314E-05
389.4146,-3.821713E-05
389.5146,-3.822467E-05
389.6146,-3.820206E-05
389.7146,-3.817852E-05
389.8146,-3.821996E-05
389.9146,-3.817287E-05
390.0146,-3.817098E-05
390.1146,-3.818323E-05
390.2146,-3.81757E-05
390.3146,-3.813991E-05
390.4146,-3.814933E-05
390.5146,-3.817852E-05
390.6146,-3.81465E-05
390.7146,-3.811166E-05
390.8146,-3.813143E-05
390.9146,-3.811919E-05
391.0146,-3.813143E-05
391.1147,-3.812484E-05
391.2147,-3.81013E-05
391.3147,-3.808811E-05
391.4147,-3.809659E-05
391.5147,-3.809471E-05
391.6147,-3.809377E-05
391.7147,-3.805421E-05
391.8147,-3.806175E-05
391.9147,-3.805421E-05
392.0147,-3.805892E-05
392.1147,-3.806458E-05
392.2147,-3.807493E-05
392.3147,-3.804668E-05
392.4147,-3.804856E-05
392.5147,-3.805798E-05
392.6147,-3.805515E-05
392.7148,-3.804103E-05
392.8148,-3.803443E-05
392.9148,-3.802784E-05
393.0148,-3.806363E-05
393.1148,-3.805798E-05
393.2148,-3.801748E-05
393.3148,-3.800336E-05
393.4148,-3.802784E-05
393.5148,-3.800618E-05
393.6148,-3.803538E-05
393.7148,-3.801277E-05
393.8148,-3.802784E-05
393.9148,-3.802784E-05
394.0148,-3.803349E-05
394.1148,-3.798076E-05
394.2148,-3.797511E-05
394.3148,-3.796569E-05
394.4149,-3.796098E-05
394.5149,-3.797417E-05
394.6149,-3.797793E-05
394.7149,-3.792614E-05
394.8149,-3.793179E-05
394.9149,-3.794685E-05
395.0149,-3.792237E-05
395.1149,-3.793744E-05
395.2149,-3.790542E-05
395.3149,-3.78781E-05
395.4149,-3.7896E-05
395.5149,-3.79186E-05
395.6149,-3.791107E-05
395.7149,-3.79026E-05
395.8149,-3.789223E-05
395.9149,-3.784891E-05
396.015,-3.788564E-05
396.115,-3.791013E-05
396.215,-3.787246E-05
396.315,-3.787246E-05
396.415,-3.787152E-05
396.515,-3.786681E-05
396.615,-3.791013E-05
396.715,-3.787717E-05
396.815,-3.787717E-05
396.915,-3.787528E-05
397.015,-3.785927E-05
397.115,-3.782443E-05
397.215,-3.785551E-05
397.315,-3.78508E-05
397.415,-3.785457E-05
397.515,-3.783761E-05
397.6151,-3.783573E-05
397.7151,-3.780089E-05
397.8151,-3.781878E-05
397.9151,-3.782537E-05
398.0151,-3.77877E-05
398.1151,-3.780183E-05
398.2151,-3.779523E-05
398.3151,-3.778958E-05
398.4151,-3.778488E-05
398.5151,-3.778864E-05
398.6151,-3.774909E-05
398.7151,-3.775851E-05
398.8151,-3.777358E-05
398.9151,-3.778488E-05
399.0151,-3.780089E-05
399.1151,-3.776604E-05
399.2151,-3.773214E-05
399.3152,-3.776604E-05
399.4152,-3.777734E-05
399.5152,-3.770107E-05
399.6152,-3.774156E-05
399.7152,-3.774627E-05
399.8152,-3.774627E-05
399.9152,-3.77086E-05
400.0152,-3.770671E-05
400.1152,-3.771237E-05
400.2152,-3.774438E-05
400.3152,-3.773591E-05
400.4152,-3.767469E-05
400.5152,-3.770012E-05
400.6152,-3.770766E-05
400.7152,-3.768129E-05
400.8152,-3.769353E-05
400.9153,-3.764362E-05
401.0153,-3.766151E-05
401.1153,-3.769353E-05
401.2153,-3.76681E-05
401.3153,-3.763703E-05
401.4153,-3.765115E-05
401.5153,-3.764644E-05
401.6153,-3.764362E-05
401.7153,-3.764079E-05
401.8153,-3.762384E-05
401.9153,-3.759747E-05
402.0153,-3.761348E-05
402.1153,-3.762855E-05
402.2153,-3.759465E-05
402.3153,-3.76003E-05
402.4153,-3.759088E-05
402.5154,-3.756169E-05
402.6154,-3.758429E-05
402.7154,-3.75824E-05
402.8154,-3.756075E-05
402.9154,-3.754756E-05
403.0154,-3.756075E-05
403.1154,-3.754568E-05
403.2154,-3.757299E-05
403.3154,-3.756075E-05
403.4154,-3.754285E-05
403.5154,-3.756263E-05
403.6154,-3.754285E-05
403.7154,-3.753249E-05
403.8154,-3.754285E-05
403.9154,-3.753814E-05
404.0154,-3.753532E-05
404.1154,-3.753061E-05
404.2155,-3.752496E-05
404.3155,-3.752778E-05
404.4155,-3.752214E-05
404.5155,-3.751177E-05
404.6155,-3.747693E-05
404.7155,-3.747222E-05
404.8155,-3.746469E-05
404.9155,-3.746751E-05
405.0155,-3.74581E-05
405.1155,-3.746751E-05
405.2155,-3.744585E-05
405.3155,-3.744868E-05
405.4155,-3.744774E-05
405.5155,-3.74289E-05
405.6155,-3.743079E-05
405.7155,-3.741383E-05
405.8156,-3.737899E-05
405.9156,-3.7395E-05
406.0156,-3.740819E-05
406.1156,-3.736015E-05
406.2156,-3.741854E-05
406.3156,-3.743644E-05
406.4156,-3.742325E-05
406.5156,-3.73611E-05
406.6156,-3.736675E-05
406.7156,-3.737051E-05
406.8156,-3.737334E-05
406.9156,-3.738088E-05
407.0156,-3.735545E-05
407.1156,-3.735357E-05
407.2156,-3.73498E-05
407.3156,-3.737334E-05
407.4156,-3.735545E-05
407.5157,-3.73432E-05
407.6157,-3.736487E-05
407.7157,-3.736204E-05
407.8157,-3.734038E-05
407.9157,-3.733285E-05
408.0157,-3.731872E-05
408.1157,-3.733756E-05
408.2157,-3.728952E-05
408.3157,-3.72754E-05
408.4157,-3.731872E-05
408.5157,-3.731495E-05
408.6157,-3.728764E-05
408.7157,-3.728105E-05
408.8157,-3.726221E-05
408.9157,-3.727163E-05
409.0157,-3.727728E-05
409.1158,-3.722266E-05
409.2158,-3.722361E-05
409.3158,-3.727352E-05
409.4158,-3.726599E-05
409.5158,-3.723961E-05
409.6158,-3.72415E-05
409.7158,-3.724526E-05
409.8158,-3.723208E-05
409.9158,-3.724621E-05
410.0158,-3.723302E-05
410.1158,-3.719442E-05
410.2158,-3.722831E-05
410.3158,-3.720665E-05
410.4158,-3.720477E-05
410.5158,-3.72189E-05
410.6158,-3.716616E-05
410.7159,-3.718405E-05
410.8159,-3.721042E-05
410.9159,-3.716992E-05
411.0159,-3.716992E-05
411.1159,-3.716051E-05
411.2159,-3.716804E-05
411.3159,-3.716428E-05
411.4159,-3.71445E-05
411.5159,-3.713131E-05
411.6159,-3.716804E-05
411.7159,-3.716333E-05
411.8159,-3.715862E-05
411.9159,-3.711342E-05
412.0159,-3.714356E-05
412.1159,-3.714356E-05
412.2159,-3.712378E-05
412.3159,-3.711437E-05
412.416,-3.713038E-05
412.516,-3.710588E-05
412.616,-3.711625E-05
412.716,-3.709459E-05
412.816,-3.705786E-05
412.916,-3.71106E-05
413.016,-3.710495E-05
413.116,-3.705786E-05
413.216,-3.707669E-05
413.316,-3.705786E-05
413.416,-3.706069E-05
413.516,-3.708894E-05
413.616,-3.706257E-05
413.716,-3.704844E-05
413.816,-3.710777E-05
413.916,-3.710118E-05
414.0161,-3.706634E-05
414.1161,-3.70588E-05
414.2161,-3.709835E-05
414.3161,-3.703809E-05
414.4161,-3.706445E-05
414.5161,-3.706163E-05
414.6161,-3.702584E-05
414.7161,-3.702867E-05
414.8161,-3.703714E-05
414.9161,-3.7007E-05
415.0161,-3.702772E-05
415.1161,-3.70023E-05
415.2161,-3.699194E-05
415.3161,-3.700418E-05
415.4161,-3.700418E-05
415.5161,-3.698817E-05
415.6161,-3.698817E-05
415.7162,-3.698629E-05
415.8162,-3.697122E-05
415.9162,-3.696557E-05
416.0162,-3.699476E-05
416.1162,-3.696368E-05
416.2162,-3.698346E-05
416.3162,-3.693543E-05
416.4162,-3.695333E-05
416.5162,-3.696651E-05
416.6162,-3.69392E-05
416.7162,-3.693261E-05
416.8162,-3.694203E-05
416.9162,-3.690719E-05
417.0162,-3.693073E-05
417.1162,-3.694297E-05
417.2162,-3.688929E-05
417.3163,-3.688647E-05
417.4163,-3.693543E-05
417.5163,-3.691942E-05
417.6163,-3.691849E-05
417.7163,-3.691095E-05
417.8163,-3.692319E-05
417.9163,-3.691754E-05
418.0163,-3.69053E-05
418.1163,-3.689306E-05
418.2163,-3.690247E-05
418.3163,-3.688647E-05
418.4163,-3.687893E-05
418.5163,-3.687046E-05
418.6163,-3.687987E-05
418.7163,-3.684503E-05
418.8163,-3.684691E-05
418.9164,-3.688176E-05
419.0164,-3.686481E-05
419.1164,-3.68714E-05
419.2164,-3.686386E-05
419.3164,-3.68601E-05
419.4164,-3.68714E-05
419.5164,-3.685538E-05
419.6164,-3.679983E-05
419.7164,-3.68196E-05
419.8164,-3.681678E-05
419.9164,-3.679983E-05
420.0164,-3.680642E-05
420.1164,-3.678381E-05
420.2164,-3.677158E-05
420.3164,-3.680548E-05
420.4164,-3.680077E-05
420.5164,-3.67565E-05
420.6165,-3.677628E-05
420.7165,-3.677911E-05
420.8165,-3.676875E-05
420.9165,-3.681301E-05
421.0165,-3.678381E-05
421.1165,-3.675933E-05
421.2165,-3.67744E-05
421.3165,-3.676498E-05
421.4165,-3.673673E-05
421.5165,-3.674521E-05
421.6165,-3.67292E-05
421.7165,-3.672637E-05
421.8165,-3.675086E-05
421.9165,-3.671507E-05
422.0165,-3.669153E-05
422.1165,-3.671318E-05
422.2166,-3.671601E-05
422.3166,-3.668965E-05
422.4166,-3.670659E-05
422.5166,-3.670754E-05
422.6166,-3.670189E-05
422.7166,-3.669812E-05
422.8166,-3.666892E-05
422.9166,-3.66953E-05
423.0166,-3.669341E-05
423.1166,-3.669812E-05
423.2166,-3.668776E-05
423.3166,-3.666798E-05
423.4166,-3.667834E-05
423.5166,-3.666987E-05
423.6166,-3.66661E-05
423.7166,-3.661525E-05
423.8167,-3.665951E-05
423.9167,-3.665762E-05
424.0167,-3.665292E-05
424.1167,-3.66322E-05
424.2167,-3.663408E-05
424.3167,-3.66209E-05
424.4167,-3.660771E-05
424.5167,-3.662184E-05
424.6167,-3.661525E-05
424.7167,-3.657569E-05
424.8167,-3.659265E-05
424.9167,-3.661336E-05
425.0167,-3.659359E-05
425.1167,-3.66209E-05
425.2167,-3.660489E-05
425.3167,-3.658511E-05
425.4167,-3.658888E-05
425.5168,-3.659076E-05
425.6168,-3.659359E-05
425.7168,-3.661713E-05
425.8168,-3.660112E-05
425.9168,-3.663785E-05
426.0168,-3.663408E-05
426.1168,-3.662749E-05
426.2168,-3.663408E-05
426.3168,-3.662561E-05
426.4168,-3.661901E-05
426.5168,-3.662843E-05
426.6168,-3.661525E-05
426.7168,-3.661336E-05
426.8168,-3.659453E-05
426.9168,-3.660677E-05
427.0168,-3.662466E-05
427.1169,-3.659735E-05
427.2169,-3.656251E-05
427.3169,-3.659359E-05
427.4169,-3.659923E-05
427.5169,-3.654368E-05
427.6169,-3.656628E-05
427.7169,-3.655121E-05
427.8169,-3.654838E-05
427.9169,-3.654744E-05
428.0169,-3.65465E-05
428.1169,-3.653426E-05
428.2169,-3.655874E-05
428.3169,-3.653708E-05
428.4169,-3.649565E-05
428.5169,-3.652107E-05
428.6169,-3.653426E-05
428.7169,-3.651637E-05
428.817,-3.651165E-05
428.917,-3.649565E-05
429.017,-3.651072E-05
429.117,-3.650412E-05
429.217,-3.649565E-05
429.317,-3.646739E-05
429.417,-3.65239E-05
429.517,-3.653803E-05
429.617,-3.649188E-05
429.717,-3.651165E-05
429.817,-3.650507E-05
429.917,-3.649094E-05
430.017,-3.652861E-05
430.117,-3.650883E-05
430.217,-3.649094E-05
430.317,-3.64834E-05
430.4171,-3.651448E-05
430.5171,-3.649188E-05
430.6171,-3.649471E-05
430.7171,-3.646363E-05
430.8171,-3.648152E-05
430.9171,-3.650224E-05
431.0171,-3.650507E-05
431.1171,-3.646928E-05
431.2171,-3.649282E-05
431.3171,-3.649659E-05
431.4171,-3.647211E-05
431.5171,-3.648623E-05
431.6171,-3.646551E-05
431.7171,-3.646269E-05
431.8171,-3.648058E-05
431.9171,-3.647304E-05
432.0172,-3.642784E-05
432.1172,-3.645327E-05
432.2172,-3.646551E-05
432.3172,-3.645704E-05
432.4172,-3.644856E-05
432.5172,-3.642596E-05
432.6172,-3.647399E-05
432.7172,-3.649471E-05
432.8172,-3.648999E-05
432.9172,-3.643632E-05
433.0172,-3.644573E-05
433.1172,-3.646269E-05
433.2172,-3.645044E-05
433.3172,-3.643632E-05
433.4172,-3.642784E-05
433.5172,-3.64203E-05
433.6172,-3.64382E-05
433.7173,-3.643538E-05
433.8173,-3.639488E-05
433.9173,-3.642408E-05
434.0173,-3.640618E-05
434.1173,-3.63751E-05
434.2173,-3.64043E-05
434.3173,-3.641183E-05
434.4173,-3.639017E-05
434.5173,-3.640807E-05
434.6173,-3.638735E-05
434.7173,-3.638735E-05
434.8173,-3.643349E-05
434.9173,-3.640053E-05
435.0173,-3.638076E-05
435.1173,-3.640147E-05
435.2173,-3.6393E-05
435.3174,-3.637982E-05
435.4174,-3.636663E-05
435.5174,-3.637604E-05
435.6174,-3.635345E-05
435.7174,-3.639488E-05
435.8174,-3.636192E-05
435.9174,-3.630447E-05
436.0174,-3.634309E-05
436.1174,-3.635721E-05
436.2174,-3.63299E-05
436.3174,-3.631013E-05
436.4174,-3.633838E-05
436.5174,-3.633555E-05
436.6174,-3.632614E-05
436.7174,-3.630919E-05
436.8174,-3.630071E-05
436.9174,-3.631484E-05
437.0175,-3.629694E-05
437.1175,-3.629035E-05
437.2175,-3.62734E-05
437.3175,-3.630447E-05
437.4175,-3.630541E-05
437.5175,-3.626492E-05
437.6175,-3.62847E-05
437.7175,-3.630071E-05
437.8175,-3.627434E-05
437.9175,-3.629694E-05
438.0175,-3.626304E-05
438.1175,-3.624327E-05
438.2175,-3.627152E-05
438.3175,-3.626963E-05
438.4175,-3.62395E-05
438.5175,-3.623762E-05
438.6176,-3.621877E-05
438.7176,-3.623384E-05
438.8176,-3.624985E-05
438.9176,-3.621784E-05
439.0176,-3.618864E-05
439.1176,-3.625268E-05
439.2176,-3.624891E-05
439.3176,-3.623573E-05
439.4176,-3.620277E-05
439.5176,-3.622254E-05
439.6176,-3.619053E-05
439.7176,-3.620371E-05
439.8176,-3.621501E-05
439.9176,-3.618864E-05
440.0176,-3.619523E-05
440.1176,-3.619053E-05
440.2177,-3.617546E-05
440.3177,-3.617923E-05
440.4177,-3.617546E-05
440.5177,-3.615191E-05
440.6177,-3.616604E-05
440.7177,-3.618488E-05
440.8177,-3.612555E-05
440.9177,-3.613308E-05
441.0177,-3.612366E-05
441.1177,-3.612743E-05
441.2177,-3.61246E-05
441.3177,-3.613591E-05
441.4177,-3.6102E-05
441.5177,-3.611519E-05
441.6177,-3.610295E-05
441.7177,-3.608976E-05
441.8177,-3.6102E-05
441.9178,-3.608317E-05
442.0178,-3.606622E-05
442.1178,-3.607563E-05
442.2178,-3.610483E-05
442.3178,-3.606528E-05
442.4178,-3.606245E-05
442.5178,-3.607469E-05
442.6178,-3.6102E-05
442.7178,-3.608694E-05
442.8178,-3.606716E-05
442.9178,-3.605491E-05
443.0178,-3.610671E-05
443.1178,-3.606151E-05
443.2178,-3.602478E-05
443.3178,-3.605303E-05
443.4178,-3.605397E-05
443.5179,-3.603231E-05
443.6179,-3.605303E-05
443.7179,-3.603608E-05
443.8179,-3.5989E-05
443.9179,-3.600783E-05
444.0179,-3.601253E-05
444.1179,-3.599559E-05
444.2179,-3.599747E-05
444.3179,-3.598523E-05
444.4179,-3.602007E-05
444.5179,-3.603702E-05
444.6179,-3.598429E-05
444.7179,-3.597675E-05
444.8179,-3.598617E-05
444.9179,-3.598712E-05
445.0179,-3.597016E-05
445.118,-3.595698E-05
445.218,-3.596451E-05
445.318,-3.592967E-05
445.418,-3.596262E-05
445.518,-3.597205E-05
445.618,-3.59146E-05
445.718,-3.592025E-05
445.818,-3.592308E-05
445.918,-3.589953E-05
446.018,-3.59146E-05
446.118,-3.587033E-05
446.218,-3.590895E-05
446.318,-3.594096E-05
446.418,-3.592967E-05
446.518,-3.588352E-05
446.618,-3.592308E-05
446.718,-3.592119E-05
446.8181,-3.590707E-05
446.9181,-3.594285E-05
447.0181,-3.592873E-05
447.1181,-3.59259E-05
447.2181,-3.59146E-05
447.3181,-3.590801E-05
447.4181,-3.589765E-05
447.5181,-3.588823E-05
447.6181,-3.587128E-05
447.7181,-3.584774E-05
447.8181,-3.584868E-05
447.9181,-3.585433E-05
448.0181,-3.584114E-05
448.1181,-3.58355E-05
448.2181,-3.584303E-05
448.3181,-3.579876E-05
448.4182,-3.578558E-05
448.5182,-3.582702E-05
448.6182,-3.579406E-05
448.7182,-3.579688E-05
448.8182,-3.579217E-05
448.9182,-3.574415E-05
449.0182,-3.577805E-05
449.1182,-3.580254E-05
449.2182,-3.575545E-05
449.3182,-3.576298E-05
449.4182,-3.578276E-05
449.5182,-3.57724E-05
449.6182,-3.57545E-05
449.7182,-3.574603E-05
449.8182,-3.57385E-05
449.9182,-3.573473E-05
450.0182,-3.576486E-05
450.1183,-3.57432E-05
450.2183,-3.571777E-05
450.3183,-3.575921E-05
450.4183,-3.575262E-05
450.5183,-3.571872E-05
450.6183,-3.573002E-05
450.7183,-3.574885E-05
450.8183,-3.572908E-05
450.9183,-3.573661E-05
451.0183,-3.572155E-05
451.1183,-3.570742E-05
451.2183,-3.572908E-05
451.3183,-3.570647E-05
451.4183,-3.567917E-05
451.5183,-3.568576E-05
451.6183,-3.570554E-05
451.7184,-3.566692E-05
451.8184,-3.568764E-05
451.9184,-3.563208E-05
452.0184,-3.566316E-05
452.1184,-3.570742E-05
452.2184,-3.567823E-05
452.3184,-3.561983E-05
452.4184,-3.563396E-05
452.5184,-3.565751E-05
452.6184,-3.561701E-05
452.7184,-3.564338E-05
452.8184,-3.562455E-05
452.9184,-3.559629E-05
453.0184,-3.562831E-05
453.1184,-3.563208E-05
453.2184,-3.559535E-05
453.3185,-3.559441E-05
453.4185,-3.55671E-05
453.5185,-3.561983E-05
453.6185,-3.562643E-05
453.7185,-3.559723E-05
453.8185,-3.557087E-05
453.9185,-3.559912E-05
454.0185,-3.559723E-05
454.1185,-3.558499E-05
454.2185,-3.558405E-05
454.3185,-3.556804E-05
454.4185,-3.556992E-05
454.5185,-3.559818E-05
454.6185,-3.55897E-05
454.7185,-3.553791E-05
454.8185,-3.556239E-05
454.9185,-3.556428E-05
455.0186,-3.554262E-05
455.1186,-3.555674E-05
455.2186,-3.555674E-05
455.3186,-3.551719E-05
455.4186,-3.553979E-05
455.5186,-3.553885E-05
455.6186,-3.551154E-05
455.7186,-3.552001E-05
455.8186,-3.550024E-05
455.9186,-3.551154E-05
456.0186,-3.551059E-05
456.1186,-3.547858E-05
456.2186,-3.550966E-05
456.3186,-3.547293E-05
456.4186,-3.548517E-05
456.5186,-3.54814E-05
456.6187,-3.550118E-05
456.7187,-3.546257E-05
456.8187,-3.545974E-05
456.9187,-3.546445E-05
457.0187,-3.545127E-05
457.1187,-3.54475E-05
457.2187,-3.547105E-05
457.3187,-3.544279E-05
457.4187,-3.544938E-05
457.5187,-3.548328E-05
457.6187,-3.543902E-05
457.7187,-3.543902E-05
457.8187,-3.543902E-05
457.9187,-3.543997E-05
458.0187,-3.542584E-05
458.1187,-3.540889E-05
458.2188,-3.54249E-05
458.3188,-3.545503E-05
458.4188,-3.545503E-05
458.5188,-3.541642E-05
458.6188,-3.541548E-05
458.7188,-3.543902E-05
458.8188,-3.543714E-05
458.9188,-3.540042E-05
459.0188,-3.539476E-05
459.1188,-3.541925E-05
459.2188,-3.539571E-05
459.3188,-3.536651E-05
459.4188,-3.534956E-05
459.5188,-3.534768E-05
459.6188,-3.539382E-05
459.7188,-3.537028E-05
459.8188,-3.534108E-05
459.9189,-3.535333E-05
460.0189,-3.535615E-05
460.1189,-3.53279E-05
460.2189,-3.533638E-05
460.3189,-3.533167E-05
460.4189,-3.532978E-05
460.5189,-3.536651E-05
460.6189,-3.537969E-05
460.7189,-3.532036E-05
460.8189,-3.533355E-05
460.9189,-3.535898E-05
461.0189,-3.532508E-05
461.1189,-3.531942E-05
461.2189,-3.534203E-05
461.3189,-3.529965E-05
461.4189,-3.531095E-05
461.519,-3.530059E-05
461.619,-3.526857E-05
461.719,-3.527234E-05
461.819,-3.528458E-05
461.919,-3.526763E-05
462.019,-3.528552E-05
462.119,-3.526481E-05
462.219,-3.523749E-05
462.319,-3.525916E-05
462.419,-3.526857E-05
462.519,-3.524409E-05
462.619,-3.524503E-05
462.719,-3.519417E-05
462.819,-3.525821E-05
462.919,-3.531189E-05
463.019,-3.530435E-05
463.119,-3.523278E-05
463.2191,-3.525727E-05
463.3191,-3.526104E-05
463.4191,-3.521772E-05
463.5191,-3.525539E-05
463.6191,-3.524315E-05
463.7191,-3.525256E-05
463.8191,-3.52422E-05
463.9191,-3.521583E-05
464.0191,-3.520547E-05
464.1191,-3.519606E-05
464.2191,-3.520547E-05
464.3191,-3.519794E-05
464.4191,-3.518664E-05
464.5191,-3.518475E-05
464.6191,-3.518758E-05
464.7191,-3.519794E-05
464.8192,-3.518664E-05
464.9192,-3.513673E-05
465.0192,-3.51452E-05
465.1192,-3.515274E-05
465.2192,-3.515368E-05
465.3192,-3.514803E-05
465.4192,-3.513955E-05
465.5192,-3.512449E-05
465.6192,-3.513673E-05
465.7192,-3.512826E-05
465.8192,-3.513579E-05
465.9192,-3.51E-05
466.0192,-3.511507E-05
466.1192,-3.510942E-05
466.2192,-3.511978E-05
466.3192,-3.514143E-05
466.4193,-3.508682E-05
466.5193,-3.508023E-05
466.6193,-3.508399E-05
466.7193,-3.508493E-05
466.8193,-3.509341E-05
466.9193,-3.510377E-05
467.0193,-3.506798E-05
467.1193,-3.506892E-05
467.2193,-3.509058E-05
467.3193,-3.507175E-05
467.4193,-3.507269E-05
467.5193,-3.507834E-05
467.6193,-3.505385E-05
467.7193,-3.505951E-05
467.8193,-3.506704E-05
467.9193,-3.504915E-05
468.0193,-3.503314E-05
468.1194,-3.505009E-05
468.2194,-3.502749E-05
468.3194,-3.503597E-05
468.4194,-3.505762E-05
468.5194,-3.502654E-05
468.6194,-3.501619E-05
468.7194,-3.50369E-05
468.8194,-3.504161E-05
468.9194,-3.501807E-05
469.0194,-3.501054E-05
469.1194,-3.500677E-05
469.2194,-3.50322E-05
469.3194,-3.502278E-05
469.4194,-3.499641E-05
469.5194,-3.502654E-05
469.6194,-3.502372E-05
469.7195,-3.502184E-05
469.8195,-3.50322E-05
469.9195,-3.501807E-05
470.0195,-3.499735E-05
470.1195,-3.502372E-05
470.2195,-3.504161E-05
470.3195,-3.500583E-05
470.4195,-3.499453E-05
470.5195,-3.500583E-05
470.6195,-3.500959E-05
470.7195,-3.498228E-05
470.8195,-3.497663E-05
470.9195,-3.499076E-05
471.0195,-3.500112E-05
471.1195,-3.49917E-05
471.2195,-3.495497E-05
471.3195,-3.501713E-05
471.4196,-3.499453E-05
471.5196,-3.500206E-05
471.6196,-3.494932E-05
471.7196,-3.498228E-05
471.8196,-3.498134E-05
471.9196,-3.499264E-05
472.0196,-3.5003E-05
472.1196,-3.497098E-05
472.2196,-3.497852E-05
472.3196,-3.500489E-05
472.4196,-3.49465E-05
472.5196,-3.490977E-05
472.6196,-3.498699E-05
472.7196,-3.499076E-05
472.8196,-3.492484E-05
472.9196,-3.49465E-05
473.0197,-3.495309E-05
473.1197,-3.495121E-05
473.2197,-3.495027E-05
473.3197,-3.492202E-05
473.4197,-3.492578E-05
473.5197,-3.497758E-05
473.6197,-3.495215E-05
473.7197,-3.490224E-05
473.8197,-3.492296E-05
473.9197,-3.492955E-05
474.0197,-3.49173E-05
474.1197,-3.495215E-05
474.2197,-3.492766E-05
474.3197,-3.488905E-05
474.4197,-3.489941E-05
474.5197,-3.4906E-05
474.6198,-3.487492E-05
474.7198,-3.488905E-05
474.8198,-3.487587E-05
474.9198,-3.487398E-05
475.0198,-3.488434E-05
475.1198,-3.485421E-05
475.2198,-3.484856E-05
475.3198,-3.485797E-05
475.4198,-3.488246E-05
475.5198,-3.487116E-05
475.6198,-3.487964E-05
475.7198,-3.48787E-05
475.8198,-3.489188E-05
475.9198,-3.489659E-05
476.0198,-3.48787E-05
476.1198,-3.483632E-05
476.2198,-3.486362E-05
476.3199,-3.487492E-05
476.4199,-3.487681E-05
476.5199,-3.482784E-05
476.6199,-3.483349E-05
476.7199,-3.485797E-05
476.8199,-3.48269E-05
476.9199,-3.482501E-05
477.0199,-3.479676E-05
477.1199,-3.482125E-05
477.2199,-3.481654E-05
477.3199,-3.481936E-05
477.4199,-3.479582E-05
477.5199,-3.479111E-05
477.6199,-3.476945E-05
477.7199,-3.480995E-05
477.8199,-3.479582E-05
477.92,-3.479111E-05
478.02,-3.476569E-05
478.12,-3.477416E-05
478.22,-3.477134E-05
478.32,-3.479582E-05
478.42,-3.477982E-05
478.52,-3.473932E-05
478.62,-3.476097E-05
478.72,-3.476945E-05
478.82,-3.473932E-05
478.92,-3.472143E-05
479.02,-3.47817E-05
479.12,-3.478829E-05
479.22,-3.476004E-05
479.32,-3.476663E-05
479.42,-3.478075E-05
479.5201,-3.475533E-05
479.6201,-3.476004E-05
479.7201,-3.474026E-05
479.8201,-3.474497E-05
479.9201,-3.477228E-05
480.0201,-3.47299E-05
480.1201,-3.472425E-05
480.2201,-3.476757E-05
480.3201,-3.479582E-05
480.4201,-3.474685E-05
480.5201,-3.477228E-05
480.6201,-3.477982E-05
480.7201,-3.476192E-05
480.8201,-3.481466E-05
480.9201,-3.480523E-05
481.0201,-3.477039E-05
481.1201,-3.482973E-05
481.2202,-3.480995E-05
481.3202,-3.479017E-05
481.4202,-3.480806E-05
481.5202,-3.479959E-05
481.6202,-3.477228E-05
481.7202,-3.478075E-05
481.8202,-3.476192E-05
481.9202,-3.473272E-05
482.0202,-3.474026E-05
482.1202,-3.473084E-05
482.2202,-3.469882E-05
482.3202,-3.471107E-05
482.4202,-3.471013E-05
482.5202,-3.472425E-05
482.6202,-3.470259E-05
482.7202,-3.470541E-05
482.8203,-3.470824E-05
482.9203,-3.470635E-05
483.0203,-3.470165E-05
483.1203,-3.466115E-05
483.2203,-3.469129E-05
483.3203,-3.471483E-05
483.4203,-3.469788E-05
483.5203,-3.46894E-05
483.6203,-3.473838E-05
483.7203,-3.472237E-05
483.8203,-3.46894E-05
483.9203,-3.470259E-05
484.0203,-3.473366E-05
484.1203,-3.473555E-05
484.2203,-3.474685E-05
484.3203,-3.470824E-05
484.4203,-3.471483E-05
484.5204,-3.473838E-05
484.6204,-3.471389E-05
484.7204,-3.469129E-05
484.8204,-3.471389E-05
484.9204,-3.471954E-05
485.0204,-3.471672E-05
485.1204,-3.467246E-05
485.2204,-3.469882E-05
485.3204,-3.46734E-05
485.4204,-3.471483E-05
485.5204,-3.469412E-05
485.6204,-3.467622E-05
485.7204,-3.469882E-05
485.8204,-3.471201E-05
485.9204,-3.469788E-05
486.0204,-3.472896E-05
486.1205,-3.472331E-05
486.2205,-3.472331E-05
486.3205,-3.473932E-05
486.4205,-3.471672E-05
486.5205,-3.471577E-05
486.6205,-3.473178E-05
486.7205,-3.472425E-05
486.8205,-3.470635E-05
486.9205,-3.472331E-05
487.0205,-3.474214E-05
487.1205,-3.472896E-05
487.2205,-3.470635E-05
487.3205,-3.47299E-05
487.4205,-3.472425E-05
487.5205,-3.474214E-05
487.6205,-3.470165E-05
487.7206,-3.471766E-05
487.8206,-3.471483E-05
487.9206,-3.471483E-05
488.0206,-3.468658E-05
488.1206,-3.46734E-05
488.2206,-3.473084E-05
488.3206,-3.469694E-05
488.4206,-3.469223E-05
488.5206,-3.469788E-05
488.6206,-3.471013E-05
488.7206,-3.470918E-05
488.8206,-3.471954E-05
488.9206,-3.470071E-05
489.0206,-3.469506E-05
489.1206,-3.473555E-05
489.2206,-3.470635E-05
489.3206,-3.467999E-05
489.4207,-3.471201E-05
489.5207,-3.472237E-05
489.6207,-3.470447E-05
489.7207,-3.46847E-05
489.8207,-3.468658E-05
489.9207,-3.467999E-05
490.0207,-3.47073E-05
490.1207,-3.466586E-05
490.2207,-3.466398E-05
490.3207,-3.473555E-05
490.4207,-3.474685E-05
490.5207,-3.468093E-05
490.6207,-3.471201E-05
490.7207,-3.471295E-05
490.8207,-3.471107E-05
490.9207,-3.472048E-05
491.0208,-3.471295E-05
491.1208,-3.471013E-05
491.2208,-3.473272E-05
491.3208,-3.472048E-05
491.4208,-3.467811E-05
491.5208,-3.467999E-05
491.6208,-3.469788E-05
491.7208,-3.46894E-05
491.8208,-3.466775E-05
491.9208,-3.468376E-05
492.0208,-3.466775E-05
492.1208,-3.469788E-05
492.2208,-3.468093E-05
492.3208,-3.468564E-05
492.4208,-3.467905E-05
492.5208,-3.465268E-05
492.6208,-3.46508E-05
492.7209,-3.467905E-05
492.8209,-3.46734E-05
492.9209,-3.466586E-05
493.0209,-3.464515E-05
493.1209,-3.466869E-05
493.2209,-3.464703E-05
493.3209,-3.465174E-05
493.4209,-3.470541E-05
493.5209,-3.467528E-05
493.6209,-3.466869E-05
493.7209,-3.468093E-05
493.8209,-3.467057E-05
493.9209,-3.466398E-05
494.0209,-3.466963E-05
494.1209,-3.46734E-05
494.2209,-3.468281E-05
494.321,-3.468564E-05
494.421,-3.467434E-05
494.521,-3.464985E-05
494.621,-3.469318E-05
494.721,-3.469506E-05
494.821,-3.467622E-05
494.921,-3.467811E-05
495.021,-3.469129E-05
495.121,-3.466681E-05
495.221,-3.468187E-05
495.321,-3.464515E-05
495.421,-3.465362E-05
495.521,-3.467622E-05
495.621,-3.465456E-05
495.721,-3.463196E-05
495.821,-3.466681E-05
495.9211,-3.465739E-05
496.0211,-3.463196E-05
496.1211,-3.462914E-05
496.2211,-3.465739E-05
496.3211,-3.464985E-05
496.4211,-3.46508E-05
496.5211,-3.462725E-05
496.6211,-3.461219E-05
496.7211,-3.464232E-05
496.8211,-3.461783E-05
496.9211,-3.461312E-05
497.0211,-3.463196E-05
497.1211,-3.463573E-05
497.2211,-3.460371E-05
497.3211,-3.464138E-05
497.4211,-3.466492E-05
497.5211,-3.462443E-05
497.6212,-3.462254E-05
497.7212,-3.462914E-05
497.8212,-3.461595E-05
497.9212,-3.463384E-05
498.0212,-3.464326E-05
498.1212,-3.461877E-05
498.2212,-3.46329E-05
498.3212,-3.46216E-05
498.4212,-3.460654E-05
498.5212,-3.460182E-05
498.6212,-3.464985E-05
498.7212,-3.459429E-05
498.8212,-3.460842E-05
498.9212,-3.464326E-05
499.0212,-3.464138E-05
499.1212,-3.466963E-05
499.2213,-3.462725E-05
499.3213,-3.463008E-05
499.4213,-3.463196E-05
499.5213,-3.46329E-05
499.6213,-3.462725E-05
499.7213,-3.463478E-05
499.8213,-3.465927E-05
499.9213,-3.465739E-05
500.0213,-3.462537E-05
500.1213,-3.463384E-05
500.2213,-3.460654E-05
500.3213,-3.462349E-05
500.4213,-3.463855E-05
500.5213,-3.462631E-05
500.6213,-3.463008E-05
500.7213,-3.465645E-05
500.8214,-3.462631E-05
500.9214,-3.463102E-05
501.0214,-3.462631E-05
501.1214,-3.462631E-05
501.2214,-3.461407E-05
501.3214,-3.461877E-05
501.4214,-3.460842E-05
501.5214,-3.459524E-05
501.6214,-3.462443E-05
501.7214,-3.461595E-05
501.8214,-3.460182E-05
501.9214,-3.460842E-05
502.0214,-3.460089E-05
502.1214,-3.460559E-05
502.2214,-3.462443E-05
502.3214,-3.458111E-05
502.4214,-3.456793E-05
502.5215,-3.460654E-05
502.6215,-3.460089E-05
502.7215,-3.457734E-05
502.8215,-3.458299E-05
502.9215,-3.457922E-05
503.0215,-3.457451E-05
503.1215,-3.457922E-05
503.2215,-3.459146E-05
503.3215,-3.455663E-05
503.4215,-3.457169E-05
503.5215,-3.458111E-05
503.6215,-3.456039E-05
503.7215,-3.458016E-05
503.8215,-3.456227E-05
503.9215,-3.456604E-05
504.0215,-3.45877E-05
504.1216,-3.456604E-05
504.2216,-3.457169E-05
504.3216,-3.461972E-05
504.4216,-3.461689E-05
504.5216,-3.456698E-05
504.6216,-3.459524E-05
504.7216,-3.458864E-05
504.8216,-3.456886E-05
504.9216,-3.458111E-05
505.0216,-3.457451E-05
505.1216,-3.458016E-05
505.2216,-3.458676E-05
505.3216,-3.457828E-05
505.4216,-3.455756E-05
505.5216,-3.456604E-05
505.6216,-3.457546E-05
505.7216,-3.453967E-05
505.8217,-3.455003E-05
505.9217,-3.453967E-05
506.0217,-3.457922E-05
506.1217,-3.458676E-05
506.2217,-3.457639E-05
506.3217,-3.46216E-05
506.4217,-3.457263E-05
506.5217,-3.455474E-05
506.6217,-3.456321E-05
506.7217,-3.457639E-05
506.8217,-3.456793E-05
506.9217,-3.458393E-05
507.0217,-3.455756E-05
507.1217,-3.455191E-05
507.2217,-3.454061E-05
507.3217,-3.453778E-05
507.4218,-3.456698E-05
507.5218,-3.455191E-05
507.6218,-3.455097E-05
507.7218,-3.459524E-05
507.8218,-3.457734E-05
507.9218,-3.458393E-05
508.0218,-3.455568E-05
508.1218,-3.458487E-05
508.2218,-3.456416E-05
508.3218,-3.456793E-05
508.4218,-3.454155E-05
508.5218,-3.453778E-05
508.6218,-3.454815E-05
508.7218,-3.455474E-05
508.8218,-3.455474E-05
508.9218,-3.456321E-05
509.0219,-3.452366E-05
509.1219,-3.451895E-05
509.2219,-3.456416E-05
509.3219,-3.453685E-05
509.4219,-3.451707E-05
509.5219,-3.452743E-05
509.6219,-3.45472E-05
509.7219,-3.454155E-05
509.8219,-3.454815E-05
509.9219,-3.45425E-05
510.0219,-3.45472E-05
510.1219,-3.457546E-05
510.2219,-3.455474E-05
510.3219,-3.45133E-05
510.4219,-3.453967E-05
510.5219,-3.45651E-05
510.6219,-3.450765E-05
510.722,-3.452555E-05
510.822,-3.45359E-05
510.922,-3.451801E-05
511.022,-3.45312E-05
511.122,-3.452743E-05
511.222,-3.449917E-05
511.322,-3.451047E-05
511.422,-3.453778E-05
511.522,-3.449353E-05
511.622,-3.451519E-05
511.722,-3.453214E-05
511.822,-3.45246E-05
511.922,-3.453967E-05
512.022,-3.452931E-05
512.122,-3.451519E-05
512.222,-3.451047E-05
512.322,-3.451989E-05
512.4219,-3.449824E-05
512.5219,-3.450671E-05
512.6219,-3.451895E-05
512.7219,-3.448034E-05
512.8218,-3.448222E-05
512.9218,-3.449541E-05
513.0218,-3.448882E-05
513.1218,-3.448505E-05
513.2217,-3.450106E-05
513.3217,-3.449259E-05
513.4217,-3.452272E-05
513.5217,-3.450859E-05
513.6216,-3.447751E-05
513.7216,-3.449259E-05
513.8216,-3.453025E-05
513.9216,-3.45359E-05
514.0215,-3.453778E-05
514.1215,-3.449729E-05
514.2215,-3.449729E-05
514.3215,-3.453685E-05
514.4214,-3.455097E-05
514.5214,-3.449824E-05
514.6214,-3.448882E-05
514.7214,-3.452649E-05
514.8214,-3.450388E-05
514.9213,-3.448505E-05
515.0213,-3.450482E-05
515.1213,-3.449353E-05
515.2213,-3.450012E-05
515.3212,-3.449729E-05
515.4212,-3.449635E-05
515.5212,-3.449917E-05
515.6212,-3.450106E-05
515.7211,-3.450953E-05
515.8211,-3.447469E-05
515.9211,-3.448411E-05
516.0211,-3.448317E-05
516.121,-3.448034E-05
516.221,-3.450388E-05
516.321,-3.449541E-05
516.421,-3.446339E-05
516.5209,-3.448317E-05
516.6209,-3.449353E-05
516.7209,-3.44907E-05
516.8209,-3.450294E-05
516.9208,-3.447093E-05
517.0208,-3.447563E-05
517.1208,-3.449447E-05
517.2208,-3.448128E-05
517.3207,-3.444832E-05
517.4207,-3.4502E-05
517.5207,-3.451236E-05
517.6207,-3.448505E-05
517.7206,-3.450671E-05
517.8206,-3.451989E-05
517.9206,-3.449729E-05
518.0206,-3.454061E-05
518.1205,-3.453025E-05
518.2205,-3.44568E-05
518.3205,-3.450577E-05
518.4205,-3.451989E-05
518.5204,-3.446339E-05
518.6204,-3.448599E-05
518.7204,-3.447751E-05
518.8204,-3.447187E-05
518.9203,-3.448788E-05
519.0203,-3.449824E-05
519.1203,-3.445962E-05
519.2203,-3.449917E-05
519.3203,-3.446716E-05
519.4202,-3.448411E-05
519.5202,-3.447751E-05
519.6202,-3.44907E-05
519.7202,-3.448034E-05
519.8201,-3.449635E-05
519.9201,-3.448882E-05
520.0201,-3.448788E-05
520.1201,-3.449635E-05
520.22,-3.451707E-05
520.32,-3.451425E-05
520.42,-3.452272E-05
520.52,-3.450388E-05
520.6199,-3.451142E-05
520.7199,-3.450482E-05
520.8199,-3.450012E-05
520.9199,-3.447751E-05
521.0198,-3.446998E-05
521.1198,-3.446998E-05
521.2198,-3.449541E-05
521.3198,-3.44907E-05
521.4197,-3.448788E-05
521.5197,-3.44681E-05
521.6197,-3.448788E-05
521.7197,-3.450012E-05
521.8196,-3.447657E-05
521.9196,-3.448128E-05
522.0196,-3.447751E-05
522.1196,-3.449447E-05
522.2195,-3.451142E-05
522.3195,-3.448882E-05
522.4195,-3.445303E-05
522.5195,-3.447657E-05
522.6194,-3.451613E-05
522.7194,-3.447846E-05
522.8194,-3.447563E-05
522.9194,-3.448034E-05
523.0193,-3.447187E-05
523.1193,-3.448694E-05
523.2193,-3.449541E-05
523.3193,-3.443702E-05
523.4193,-3.445397E-05
523.5192,-3.450388E-05
523.6192,-3.446716E-05
523.7192,-3.446151E-05
523.8192,-3.448222E-05
523.9191,-3.449541E-05
524.0191,-3.44681E-05
524.1191,-3.446527E-05
524.2191,-3.44794E-05
524.319,-3.448694E-05
524.419,-3.449447E-05
524.519,-3.450294E-05
524.619,-3.447657E-05
524.7189,-3.451236E-05
524.8189,-3.44907E-05
524.9189,-3.446904E-05
525.0189,-3.4502E-05
525.1188,-3.447657E-05
525.2188,-3.446245E-05
525.3188,-3.450106E-05
525.4188,-3.446527E-05
525.5187,-3.44568E-05
525.6187,-3.447093E-05
525.7187,-3.445492E-05
525.8187,-3.445492E-05
525.9186,-3.448599E-05
526.0186,-3.446245E-05
526.1186,-3.444267E-05
526.2186,-3.444832E-05
526.3185,-3.444079E-05
526.4185,-3.445209E-05
526.5185,-3.448505E-05
526.6185,-3.445303E-05
526.7184,-3.442855E-05
526.8184,-3.445868E-05
526.9184,-3.444362E-05
527.0184,-3.444927E-05
527.1183,-3.447657E-05
527.2183,-3.444832E-05
527.3183,-3.443702E-05
527.4183,-3.446245E-05
527.5182,-3.443608E-05
527.6182,-3.444079E-05
527.7182,-3.445397E-05
527.8182,-3.443984E-05
527.9182,-3.445586E-05
528.0181,-3.448128E-05
528.1181,-3.44229E-05
528.2181,-3.441913E-05
528.3181,-3.449259E-05
528.418,-3.449729E-05
528.518,-3.445774E-05
528.618,-3.447751E-05
528.718,-3.448128E-05
528.8179,-3.445397E-05
528.9179,-3.447093E-05
529.0179,-3.444832E-05
529.1179,-3.443796E-05
529.2178,-3.445774E-05
529.3178,-3.445868E-05
529.4178,-3.446057E-05
529.5178,-3.450388E-05
529.6177,-3.443325E-05
529.7177,-3.44389E-05
529.8177,-3.445492E-05
529.9177,-3.445868E-05
530.0176,-3.444738E-05
530.1176,-3.44389E-05
530.2176,-3.445115E-05
530.3176,-3.447093E-05
530.4175,-3.446057E-05
530.5175,-3.443137E-05
530.6175,-3.446245E-05
530.7175,-3.449729E-05
530.8174,-3.448976E-05
530.9174,-3.444927E-05
531.0174,-3.444927E-05
531.1174,-3.447187E-05
531.2173,-3.444362E-05
531.3173,-3.446433E-05
531.4173,-3.446339E-05
531.5173,-3.444927E-05
531.6172,-3.444267E-05
531.7172,-3.445021E-05
531.8172,-3.446245E-05
531.9172,-3.44568E-05
532.0172,-3.444644E-05
532.1171,-3.440689E-05
532.2171,-3.445586E-05
532.3171,-3.445586E-05
532.4171,-3.439088E-05
532.517,-3.44229E-05
532.617,-3.445021E-05
532.717,-3.442572E-05
532.817,-3.444738E-05
532.9169,-3.443231E-05
533.0169,-3.438711E-05
533.1169,-3.443137E-05
533.2169,-3.445962E-05
533.3168,-3.441819E-05
533.4168,-3.441536E-05
533.5168,-3.442478E-05
533.6168,-3.440877E-05
533.7167,-3.442666E-05
533.8167,-3.442007E-05
533.9167,-3.439841E-05
534.0167,-3.441631E-05
534.1166,-3.444456E-05
534.2166,-3.441631E-05
534.3166,-3.442196E-05
534.4166,-3.440594E-05
534.5165,-3.439747E-05
534.6165,-3.441819E-05
534.7165,-3.441536E-05
534.8165,-3.438617E-05
534.9164,-3.439558E-05
535.0164,-3.442007E-05
535.1164,-3.43824E-05
535.2164,-3.441348E-05
535.3163,-3.442101E-05
535.4163,-3.438052E-05
535.5163,-3.441254E-05
535.6163,-3.4405E-05
535.7162,-3.43824E-05
535.8162,-3.439841E-05
535.9162,-3.442101E-05
536.0162,-3.441819E-05
536.1161,-3.438805E-05
536.2161,-3.444267E-05
536.3161,-3.44455E-05
536.4161,-3.440594E-05
536.5161,-3.441159E-05
536.616,-3.440783E-05
536.716,-3.441819E-05
536.816,-3.4405E-05
536.916,-3.441254E-05
537.0159,-3.438146E-05
537.1159,-3.439464E-05
537.2159,-3.438993E-05
537.3159,-3.4405E-05
537.4158,-3.442196E-05
537.5158,-3.440594E-05
537.6158,-3.441348E-05
537.7158,-3.441913E-05
537.8157,-3.441631E-05
537.9157,-3.442007E-05
538.0157,-3.44003E-05
538.1157,-3.43711E-05
538.2156,-3.440971E-05
538.3156,-3.441631E-05
538.4156,-3.443514E-05
538.5156,-3.439747E-05
538.6155,-3.439936E-05
538.7155,-3.442949E-05
538.8155,-3.440783E-05
538.9155,-3.439747E-05
539.0154,-3.439653E-05
539.1154,-3.437487E-05
539.2154,-3.441254E-05
539.3154,-3.441536E-05
539.4153,-3.437958E-05
539.5153,-3.438617E-05
539.6153,-3.438334E-05
539.7153,-3.437393E-05
539.8152,-3.438052E-05
539.9152,-3.438523E-05
540.0152,-3.436827E-05
540.1152,-3.437675E-05
540.2151,-3.436827E-05
540.3151,-3.438146E-05
540.4151,-3.439558E-05
540.5151,-3.439747E-05
540.6151,-3.436545E-05
540.715,-3.437863E-05
540.815,-3.438052E-05
540.915,-3.437675E-05
541.015,-3.439464E-05
541.1149,-3.435509E-05
541.2149,-3.437863E-05
541.3149,-3.440971E-05
541.4149,-3.438711E-05
541.5148,-3.439653E-05
541.6148,-3.438523E-05
541.7148,-3.4405E-05
541.8148,-3.440218E-05
541.9147,-3.440406E-05
542.0147,-3.442196E-05
542.1147,-3.443325E-05
542.2147,-3.443514E-05
542.3146,-3.446716E-05
542.4146,-3.448411E-05
542.5146,-3.445774E-05
542.6146,-3.4502E-05
542.7145,-3.452366E-05
542.8145,-3.447281E-05
542.9145,-3.453496E-05
543.0145,-3.455286E-05
543.1144,-3.451895E-05
543.2144,-3.452366E-05
543.3144,-3.451613E-05
543.4144,-3.449635E-05
543.5143,-3.449635E-05
543.6143,-3.448882E-05
543.7143,-3.447187E-05
543.8143,-3.442478E-05
543.9142,-3.447281E-05
544.0142,-3.446621E-05
544.1142,-3.444362E-05
544.2142,-3.445586E-05
544.3141,-3.44229E-05
544.4141,-3.439464E-05
544.5141,-3.444267E-05
544.6141,-3.445209E-05
544.7141,-3.440594E-05
544.814,-3.442666E-05
544.914,-3.442101E-05
545.014,-3.440689E-05
545.114,-3.444927E-05
545.2139,-3.444362E-05
545.3139,-3.441725E-05
545.4139,-3.441442E-05
545.5139,-3.441913E-05
545.6138,-3.442007E-05
545.7138,-3.444362E-05
545.8138,-3.443043E-05
545.9138,-3.441348E-05
546.0137,-3.446998E-05
546.1137,-3.444456E-05
546.2137,-3.442196E-05
546.3137,-3.446904E-05
546.4136,-3.445868E-05
546.5136,-3.44455E-05
546.6136,-3.447281E-05
546.7136,-3.448128E-05
546.8135,-3.448411E-05
546.9135,-3.448222E-05
547.0135,-3.447751E-05
547.1135,-3.449259E-05
547.2134,-3.449353E-05
547.3134,-3.448599E-05
547.4134,-3.445021E-05
547.5134,-3.449541E-05
547.6133,-3.450859E-05
547.7133,-3.451613E-05
547.8133,-3.448128E-05
547.9133,-3.450765E-05
548.0132,-3.452178E-05
548.1132,-3.448505E-05
548.2132,-3.45133E-05
548.3132,-3.451519E-05
548.4131,-3.447846E-05
548.5131,-3.451801E-05
548.6131,-3.453214E-05
548.7131,-3.44794E-05
548.813,-3.452084E-05
548.913,-3.453496E-05
549.013,-3.451142E-05
549.113,-3.453496E-05
549.213,-3.453685E-05
549.3129,-3.450577E-05
549.4129,-3.454344E-05
549.5129,-3.453778E-05
549.6129,-3.449824E-05
549.7128,-3.452649E-05
549.8128,-3.45538E-05
549.9128,-3.451047E-05
550.0128,-3.452837E-05
550.1127,-3.453402E-05
550.2127,-3.4502E-05
550.3127,-3.455097E-05
550.4127,-3.45472E-05
550.5126,-3.449541E-05
550.6126,-3.451236E-05
550.7126,-3.455568E-05
550.8126,-3.452649E-05
550.9125,-3.45246E-05
551.0125,-3.457639E-05
551.1125,-3.461124E-05
551.2125,-3.457922E-05
551.3124,-3.457828E-05
551.4124,-3.45472E-05
551.5124,-3.454344E-05
551.6124,-3.455097E-05
551.7123,-3.456793E-05
551.8123,-3.455851E-05
551.9123,-3.455568E-05
552.0123,-3.456133E-05
552.1122,-3.458487E-05
552.2122,-3.456227E-05
552.3122,-3.457546E-05
552.4122,-3.457357E-05
552.5121,-3.456886E-05
552.6121,-3.457357E-05
552.7121,-3.458864E-05
552.8121,-3.456698E-05
552.912,-3.457357E-05
553.012,-3.458676E-05
553.112,-3.459524E-05
553.212,-3.45538E-05
553.312,-3.459617E-05
553.4119,-3.459994E-05
553.5119,-3.458582E-05
553.6119,-3.459052E-05
553.7119,-3.459241E-05
553.8118,-3.457075E-05
553.9118,-3.461877E-05
554.0118,-3.460465E-05
554.1118,-3.458111E-05
554.2117,-3.462349E-05
554.3117,-3.461972E-05
554.4117,-3.45877E-05
554.5117,-3.459335E-05
554.6116,-3.460747E-05
554.7116,-3.459429E-05
554.8116,-3.459994E-05
554.9116,-3.460371E-05
555.0115,-3.457263E-05
555.1115,-3.460277E-05
555.2115,-3.461124E-05
555.3115,-3.459241E-05
555.4114,-3.46216E-05
555.5114,-3.463761E-05
555.6114,-3.462725E-05
555.7114,-3.46282E-05
555.8113,-3.46395E-05
555.9113,-3.463008E-05
556.0113,-3.46282E-05
556.1113,-3.466681E-05
556.2112,-3.467246E-05
556.3112,-3.466963E-05
556.4112,-3.471672E-05
556.5112,-3.467999E-05
556.6111,-3.464797E-05
556.7111,-3.469412E-05
556.8111,-3.466398E-05
556.9111,-3.465645E-05
557.011,-3.466209E-05
557.111,-3.466303E-05
557.211,-3.462631E-05
557.311,-3.46894E-05
557.4109,-3.465174E-05
557.5109,-3.462725E-05
557.6109,-3.467151E-05
557.7109,-3.464891E-05
557.8109,-3.464703E-05
557.9108,-3.466869E-05
558.0108,-3.465268E-05
558.1108,-3.46395E-05
558.2108,-3.470918E-05
558.3107,-3.473084E-05
558.4107,-3.466021E-05
558.5107,-3.467434E-05
558.6107,-3.470541E-05
558.7106,-3.466209E-05
558.8106,-3.470824E-05
558.9106,-3.47073E-05
559.0106,-3.467434E-05
559.1105,-3.471483E-05
559.2105,-3.470259E-05
559.3105,-3.467057E-05
559.4105,-3.474779E-05
559.5104,-3.473366E-05
559.6104,-3.46734E-05
559.7104,-3.470071E-05
559.8104,-3.472143E-05
559.9103,-3.470447E-05
560.0103,-3.47073E-05
560.1103,-3.469977E-05
560.2103,-3.469223E-05
560.3102,-3.475533E-05
560.4102,-3.474779E-05
560.5102,-3.468658E-05
560.6102,-3.469318E-05
560.7101,-3.472331E-05
560.8101,-3.471013E-05
560.9101,-3.473178E-05
561.0101,-3.47412E-05
561.11,-3.470447E-05
561.21,-3.471201E-05
561.31,-3.47299E-05
561.41,-3.471013E-05
561.5099,-3.473272E-05
561.6099,-3.471483E-05
561.7099,-3.47073E-05
561.8099,-3.472331E-05
561.9099,-3.471766E-05
562.0098,-3.473461E-05
562.1098,-3.472331E-05
562.2098,-3.473461E-05
562.3098,-3.473555E-05
562.4097,-3.474214E-05
562.5097,-3.474403E-05
562.6097,-3.47186E-05
562.7097,-3.475909E-05
562.8096,-3.474497E-05
562.9096,-3.474214E-05
563.0096,-3.473084E-05
563.1096,-3.474591E-05
563.2095,-3.473744E-05
563.3095,-3.477134E-05
563.4095,-3.47412E-05
563.5095,-3.473366E-05
563.6094,-3.473461E-05
563.7094,-3.474403E-05
563.8094,-3.475627E-05
563.9094,-3.477416E-05
564.0093,-3.474968E-05
564.1093,-3.475156E-05
564.2093,-3.476381E-05
564.3093,-3.477228E-05
564.4092,-3.476097E-05
564.5092,-3.474403E-05
564.6092,-3.475062E-05
564.7092,-3.474403E-05
564.8091,-3.476004E-05
564.9091,-3.477322E-05
565.0091,-3.474309E-05
565.1091,-3.477134E-05
565.209,-3.478923E-05
565.309,-3.476663E-05
565.409,-3.476569E-05
565.509,-3.477416E-05
565.6089,-3.477982E-05
565.7089,-3.478452E-05
565.8089,-3.476475E-05
565.9089,-3.476851E-05
566.0089,-3.476475E-05
566.1088,-3.479111E-05
566.2088,-3.479582E-05
566.3088,-3.477322E-05
566.4088,-3.478264E-05
566.5087,-3.481748E-05
566.6087,-3.477793E-05
566.7087,-3.47864E-05
566.8087,-3.478075E-05
566.9086,-3.480618E-05
567.0086,-3.482784E-05
567.1086,-3.478452E-05
567.2086,-3.476286E-05
567.3085,-3.482596E-05
567.4085,-3.480901E-05
567.5085,-3.477887E-05
567.6085,-3.480335E-05
567.7084,-3.479394E-05
567.8084,-3.480053E-05
567.9084,-3.481842E-05
568.0084,-3.48043E-05
568.1083,-3.476381E-05
568.2083,-3.479111E-05
568.3083,-3.481842E-05
568.4083,-3.480713E-05
568.5082,-3.480147E-05
568.6082,-3.478735E-05
568.7082,-3.479394E-05
568.8082,-3.481371E-05
568.9081,-3.480241E-05
569.0081,-3.478452E-05
569.1081,-3.477604E-05
569.2081,-3.480523E-05
569.308,-3.479582E-05
569.408,-3.482501E-05
569.508,-3.481277E-05
569.608,-3.47817E-05
569.7079,-3.482219E-05
569.8079,-3.480995E-05
569.9079,-3.480901E-05
570.0079,-3.482408E-05
570.1078,-3.480335E-05
570.2078,-3.47864E-05
570.3078,-3.483443E-05
570.4078,-3.481748E-05
570.5078,-3.481748E-05
570.6077,-3.48043E-05
570.7077,-3.480241E-05
570.8077,-3.482125E-05
570.9077,-3.483161E-05
571.0076,-3.484102E-05
571.1076,-3.482125E-05
571.2076,-3.485044E-05
571.3076,-3.481183E-05
571.4075,-3.483538E-05
571.5075,-3.485704E-05
571.6075,-3.48269E-05
571.7075,-3.482501E-05
571.8074,-3.482408E-05
571.9074,-3.482784E-05
572.0074,-3.484291E-05
572.1074,-3.485797E-05
572.2073,-3.483914E-05
572.3073,-3.482784E-05
572.4073,-3.48269E-05
572.5073,-3.483161E-05
572.6072,-3.484951E-05
572.7072,-3.48608E-05
572.8072,-3.480523E-05
572.9072,-3.484856E-05
573.0071,-3.48721E-05
573.1071,-3.483161E-05
573.2071,-3.488246E-05
573.3071,-3.485139E-05
573.407,-3.483066E-05
573.507,-3.488434E-05
573.607,-3.486457E-05
573.707,-3.48269E-05
573.8069,-3.487022E-05
573.9069,-3.485986E-05
574.0069,-3.484667E-05
574.1069,-3.487681E-05
574.2068,-3.486362E-05
574.3068,-3.483726E-05
574.4068,-3.485986E-05
574.5068,-3.484667E-05
574.6068,-3.481654E-05
574.7067,-3.484761E-05
574.8067,-3.484102E-05
574.9067,-3.484385E-05
575.0067,-3.485892E-05
575.1066,-3.485139E-05
575.2066,-3.481277E-05
575.3066,-3.484856E-05
575.4066,-3.484856E-05
575.5065,-3.483066E-05
575.6065,-3.485609E-05
575.7065,-3.485515E-05
575.8065,-3.482125E-05
575.9064,-3.484856E-05
576.0064,-3.486927E-05
576.1064,-3.483726E-05
576.2064,-3.484573E-05
576.3063,-3.485044E-05
576.4063,-3.484291E-05
576.5063,-3.48721E-05
576.6063,-3.485515E-05
576.7062,-3.483726E-05
576.8062,-3.482878E-05
576.9062,-3.485609E-05
577.0062,-3.485609E-05
577.1061,-3.48721E-05
577.2061,-3.486457E-05
577.3061,-3.482408E-05
577.4061,-3.485797E-05
577.506,-3.485609E-05
577.606,-3.484573E-05
577.706,-3.48608E-05
577.806,-3.485139E-05
577.9059,-3.484102E-05
578.0059,-3.485797E-05
578.1059,-3.485044E-05
578.2059,-3.482125E-05
578.3058,-3.487116E-05
578.4058,-3.488905E-05
578.5058,-3.483443E-05
578.6058,-3.486174E-05
578.7057,-3.488623E-05
578.8057,-3.487681E-05
578.9057,-3.488058E-05
579.0057,-3.487964E-05
579.1057,-3.487304E-05
579.2056,-3.492202E-05
579.3056,-3.488529E-05
579.4056,-3.486739E-05
579.5056,-3.489094E-05
579.6055,-3.487964E-05
579.7055,-3.486174E-05
579.8055,-3.488529E-05
579.9055,-3.486269E-05
580.0054,-3.487116E-05
580.1054,-3.486457E-05
580.2054,-3.485421E-05
580.3054,-3.488529E-05
580.4053,-3.490506E-05
580.5053,-3.488623E-05
580.6053,-3.488529E-05
580.7053,-3.489094E-05
580.8052,-3.49173E-05
580.9052,-3.491165E-05
581.0052,-3.493331E-05
581.1052,-3.49239E-05
581.2051,-3.493802E-05
581.3051,-3.491542E-05
581.4051,-3.490695E-05
581.5051,-3.49239E-05
581.605,-3.491165E-05
581.705,-3.488152E-05
581.805,-3.489188E-05
581.905,-3.488811E-05
582.0049,-3.488623E-05
582.1049,-3.492013E-05
582.2049,-3.487398E-05
582.3049,-3.489188E-05
582.4048,-3.489188E-05
582.5048,-3.490035E-05
582.6048,-3.488905E-05
582.7048,-3.487964E-05
582.8047,-3.4906E-05
582.9047,-3.490318E-05
583.0047,-3.48834E-05
583.1047,-3.488152E-05
583.2047,-3.489E-05
583.3046,-3.490318E-05
583.4046,-3.490977E-05
583.5046,-3.489282E-05
583.6046,-3.491825E-05
583.7045,-3.491165E-05
583.8045,-3.490695E-05
583.9045,-3.489753E-05
584.0045,-3.487775E-05
584.1044,-3.490695E-05
584.2044,-3.491165E-05
584.3044,-3.489941E-05
584.4044,-3.489941E-05
584.5043,-3.486174E-05
584.6043,-3.487398E-05
584.7043,-3.490224E-05
584.8043,-3.488529E-05
584.9042,-3.487964E-05
585.0042,-3.489565E-05
585.1042,-3.486362E-05
585.2042,-3.489753E-05
585.3041,-3.492013E-05
585.4041,-3.485327E-05
585.5041,-3.489565E-05
585.6041,-3.493143E-05
585.704,-3.492766E-05
585.804,-3.489E-05
585.904,-3.490883E-05
586.004,-3.4906E-05
586.1039,-3.49173E-05
586.2039,-3.492296E-05
586.3039,-3.489188E-05
586.4039,-3.490506E-05
586.5038,-3.491919E-05
586.6038,-3.490035E-05
586.7038,-3.488529E-05
586.8038,-3.494179E-05
586.9037,-3.495121E-05
587.0037,-3.492013E-05
587.1037,-3.493049E-05
587.2037,-3.495874E-05
587.3036,-3.49465E-05
587.4036,-3.495309E-05
587.5036,-3.497287E-05
587.6036,-3.497381E-05
587.7036,-3.502466E-05
587.8035,-3.499923E-05
587.9035,-3.497758E-05
588.0035,-3.497098E-05
588.1035,-3.495874E-05
588.2034,-3.497381E-05
588.3034,-3.498323E-05
588.4034,-3.494085E-05
588.5034,-3.494555E-05
588.6033,-3.495403E-05
588.7033,-3.491825E-05
588.8033,-3.494461E-05
588.9033,-3.496063E-05
589.0032,-3.492672E-05
589.1032,-3.49013E-05
589.2032,-3.496628E-05
589.3032,-3.497098E-05
589.4031,-3.491165E-05
589.5031,-3.491636E-05
589.6031,-3.496251E-05
589.7031,-3.493143E-05
589.803,-3.495591E-05
589.903,-3.495215E-05
590.003,-3.495215E-05
590.103,-3.496157E-05
590.2029,-3.494367E-05
590.3029,-3.492296E-05
590.4029,-3.499264E-05
590.5029,-3.497381E-05
590.6028,-3.491825E-05
590.7028,-3.494555E-05
590.8028,-3.495215E-05
590.9028,-3.493802E-05
591.0027,-3.495968E-05
591.1027,-3.494179E-05
591.2027,-3.490789E-05
591.3027,-3.497569E-05
591.4026,-3.49917E-05
591.5026,-3.493991E-05
591.6026,-3.498511E-05
591.7026,-3.497758E-05
591.8026,-3.495686E-05
591.9025,-3.498511E-05
592.0025,-3.49691E-05
592.1025,-3.495591E-05
592.2025,-3.496816E-05
592.3024,-3.497852E-05
592.4024,-3.495215E-05
592.5024,-3.495686E-05
592.6024,-3.497475E-05
592.7023,-3.495027E-05
592.8023,-3.497475E-05
592.9023,-3.497758E-05
593.0023,-3.492861E-05
593.1022,-3.493896E-05
593.2022,-3.497193E-05
593.3022,-3.492484E-05
593.4022,-3.491354E-05
593.5021,-3.49804E-05
593.6021,-3.498134E-05
593.7021,-3.496157E-05
593.8021,-3.498323E-05
593.902,-3.499547E-05
594.002,-3.499547E-05
594.102,-3.49917E-05
594.202,-3.500771E-05
594.3019,-3.500583E-05
594.4019,-3.501242E-05
594.5019,-3.498699E-05
594.6019,-3.49917E-05
594.7018,-3.49917E-05
594.8018,-3.499076E-05
594.9018,-3.501524E-05
595.0018,-3.502466E-05
595.1017,-3.500677E-05
595.2017,-3.503879E-05
595.3017,-3.504255E-05
595.4017,-3.500018E-05
595.5016,-3.501336E-05
595.6016,-3.504915E-05
595.7016,-3.505103E-05
595.8016,-3.505197E-05
595.9016,-3.504161E-05
596.0015,-3.502937E-05
596.1015,-3.50548E-05
596.2015,-3.506045E-05
596.3015,-3.504255E-05
596.4014,-3.502843E-05
596.5014,-3.508493E-05
596.6014,-3.509435E-05
596.7014,-3.504444E-05
596.8013,-3.506516E-05
596.9013,-3.507551E-05
597.0013,-3.506798E-05
597.1013,-3.509811E-05
597.2012,-3.506986E-05
597.3012,-3.508399E-05
597.4012,-3.509906E-05
597.5012,-3.509341E-05
597.6011,-3.505292E-05
597.7011,-3.50887E-05
597.8011,-3.51452E-05
597.9011,-3.508305E-05
598.001,-3.507928E-05
598.101,-3.510283E-05
598.201,-3.508964E-05
598.301,-3.511695E-05
598.4009,-3.511884E-05
598.5009,-3.506986E-05
598.6009,-3.507928E-05
598.7009,-3.509906E-05
598.8008,-3.50887E-05
598.9008,-3.50887E-05
599.0008,-3.508399E-05
599.1008,-3.506233E-05
599.2007,-3.508682E-05
599.3007,-3.512072E-05
599.4007,-3.511318E-05
599.5007,-3.509623E-05
599.6006,-3.510094E-05
599.7006,-3.50887E-05
599.8006,-3.510942E-05
599.9006,-3.512449E-05
600.0005,-3.509153E-05
